Data from 2018-2-7_conc=5_RamanShift_01.txt Node
Date: Tue Feb 13 13:55:43 IST 2018
User: aro
Spectrometer: QEPB0276
Trigger mode: 0
Integration Time (sec): 3.000000E1
Scans to average: 1
Electric dark correction enabled: true
Nonlinearity correction enabled: false
Boxcar width: 0
XAxis mode: Raman Shifts
Number of Pixels in Spectrum: 1044
>>>>>Begin Spectral Data<<<<<
160.701	-163
166.742	28
172.777	600
178.805	2242
184.826	6125
190.841	12648
196.849	20028
202.85	25076
208.845	26578
214.833	26308
220.815	25866
226.789	25618
232.758	25564
238.719	25318
244.674	24936
250.623	24434
256.565	24021
262.5	23433
268.429	23064
274.351	22704
280.267	22333
286.176	22145
292.079	21894
297.975	21721
303.865	21489
309.748	21358
315.625	21208
321.495	21109
327.359	20978
333.217	20971
339.068	20924
344.912	20896
350.751	20839
356.583	20849
362.408	20863
368.227	20847
374.04	20824
379.847	20897
385.647	21085
391.44	21067
397.228	21246
403.009	21240
408.784	21389
414.553	21398
420.315	21406
426.071	21407
431.821	21410
437.565	21476
443.302	21403
449.033	21340
454.758	21291
460.477	21258
466.189	21242
471.896	21144
477.596	21117
483.29	21080
488.978	21071
494.66	20981
500.335	20846
506.005	20596
511.668	20372
517.325	20141
522.977	19945
528.622	19875
534.261	19720
539.894	19592
545.521	19554
551.141	19480
556.756	19445
562.365	19297
567.968	19243
573.565	19215
579.155	19137
584.74	19008
590.319	18979
595.892	18900
601.459	18802
607.02	18779
612.575	18595
618.124	18562
623.667	18405
629.204	18278
634.735	18232
640.261	18144
645.781	18115
651.294	18100
656.802	18123
662.304	18019
667.8	17912
673.29	18017
678.775	17880
684.254	17805
689.726	17858
695.193	17752
700.655	17629
706.11	17540
711.56	17468
717.004	17401
722.442	17293
727.874	17259
733.301	17228
738.722	17192
744.137	17156
749.547	17067
754.951	17083
760.349	17136
765.741	17108
771.128	17141
776.509	17140
781.885	17145
787.254	17056
792.618	17024
797.977	16905
803.33	16811
808.677	16742
814.019	16672
819.355	16495
824.686	16476
830.011	16407
835.33	16425
840.644	16401
845.952	16461
851.255	16559
856.552	16579
861.844	16444
867.13	16450
872.41	16411
877.686	16336
882.955	16242
888.219	16025
893.478	15856
898.731	15594
903.979	15441
909.221	15398
914.458	15281
919.69	15321
924.916	15429
930.136	15423
935.351	15438
940.561	15479
945.766	15393
950.965	15317
956.158	15227
961.347	15102
966.529	14838
971.707	14698
976.879	14542
982.046	14404
987.208	14341
992.364	14312
997.515	14437
1002.66	14587
1007.801	14714
1012.936	14840
1018.066	14855
1023.19	14848
1028.309	14825
1033.423	14794
1038.532	14749
1043.636	14592
1048.734	14429
1053.827	14255
1058.915	14069
1063.998	13996
1069.075	13970
1074.147	13983
1079.214	14008
1084.276	14096
1089.333	14188
1094.385	14280
1099.431	14317
1104.472	14287
1109.509	14197
1114.54	14049
1119.565	13864
1124.586	13683
1129.602	13549
1134.613	13485
1139.618	13418
1144.619	13397
1149.614	13399
1154.604	13403
1159.589	13407
1164.57	13437
1169.545	13441
1174.515	13494
1179.48	13423
1184.44	13295
1189.395	13150
1194.345	13110
1199.29	13017
1204.23	13061
1209.165	13106
1214.095	13201
1219.021	13225
1223.941	13304
1228.856	13381
1233.766	13397
1238.672	13416
1243.572	13416
1248.467	13300
1253.358	13158
1258.244	12969
1263.124	12784
1268	12588
1272.871	12447
1277.737	12372
1282.599	12309
1287.455	12301
1292.306	12318
1297.153	12359
1301.995	12448
1306.832	12447
1311.664	12464
1316.491	12417
1321.314	12320
1326.132	12132
1330.945	11851
1335.753	11546
1340.556	11339
1345.354	11066
1350.148	10886
1354.937	10769
1359.722	10792
1364.501	10772
1369.276	10868
1374.046	11033
1378.811	11116
1383.572	11317
1388.327	11332
1393.079	11225
1397.825	11171
1402.567	11055
1407.304	10896
1412.036	10798
1416.764	10704
1421.487	10652
1426.205	10594
1430.919	10567
1435.628	10550
1440.333	10599
1445.032	10602
1449.727	10680
1454.418	10617
1459.104	10520
1463.785	10288
1468.462	10074
1473.134	9869
1477.802	9589
1482.465	9461
1487.123	9355
1491.777	9285
1496.426	9359
1501.071	9421
1505.711	9533
1510.347	9718
1514.978	9897
1519.604	10012
1524.226	10127
1528.844	10137
1533.457	10130
1538.065	10105
1542.669	10030
1547.269	9956
1551.864	9954
1556.454	9865
1561.041	9913
1565.622	9893
1570.199	9884
1574.772	9990
1579.34	9997
1583.904	10084
1588.464	10117
1593.019	10124
1597.569	10037
1602.115	10030
1606.657	9974
1611.195	9951
1615.728	9891
1620.256	9798
1624.78	9780
1629.3	9814
1633.816	9856
1638.327	9908
1642.834	9941
1647.336	9990
1651.834	9948
1656.328	9950
1660.817	9906
1665.302	9774
1669.783	9596
1674.259	9348
1678.732	9118
1683.199	8754
1687.663	8438
1692.122	8147
1696.577	8007
1701.028	7980
1705.474	8044
1709.917	8155
1714.355	8134
1718.788	8115
1723.218	8006
1727.643	7844
1732.064	7731
1736.481	7542
1740.893	7417
1745.301	7195
1749.705	6980
1754.105	6818
1758.501	6562
1762.893	6394
1767.28	6226
1771.663	6096
1776.042	5941
1780.417	5909
1784.787	5848
1789.154	5937
1793.516	6015
1797.874	6113
1802.228	6258
1806.578	6266
1810.924	6358
1815.266	6306
1819.603	6179
1823.937	6116
1828.266	6003
1832.591	5941
1836.913	5851
1841.23	5809
1845.543	5775
1849.852	5756
1854.156	5741
1858.457	5695
1862.754	5685
1867.047	5704
1871.335	5669
1875.62	5674
1879.9	5615
1884.177	5595
1888.449	5507
1892.718	5471
1896.982	5422
1901.243	5332
1905.499	5305
1909.752	5280
1914	5240
1918.245	5299
1922.485	5303
1926.722	5368
1930.954	5422
1935.183	5464
1939.408	5501
1943.628	5546
1947.845	5556
1952.058	5555
1956.267	5522
1960.472	5442
1964.673	5377
1968.87	5291
1973.063	5245
1977.252	5159
1981.438	5097
1985.619	5061
1989.797	5015
1993.971	5020
1998.14	5006
2002.306	4959
2006.469	4913
2010.627	4929
2014.781	4876
2018.932	4884
2023.078	4771
2027.221	4741
2031.36	4647
2035.495	4597
2039.627	4511
2043.754	4459
2047.878	4413
2051.998	4376
2056.114	4383
2060.226	4354
2064.334	4375
2068.439	4370
2072.54	4382
2076.637	4427
2080.73	4424
2084.82	4450
2088.906	4439
2092.988	4468
2097.066	4456
2101.14	4435
2105.211	4408
2109.278	4381
2113.342	4340
2117.401	4300
2121.457	4325
2125.509	4302
2129.558	4268
2133.602	4257
2137.643	4250
2141.681	4228
2145.714	4192
2149.744	4152
2153.77	4095
2157.793	4100
2161.812	4067
2165.827	3966
2169.838	3910
2173.846	3856
2177.851	3781
2181.851	3738
2185.848	3673
2189.841	3698
2193.831	3625
2197.817	3613
2201.799	3570
2205.778	3582
2209.753	3550
2213.725	3537
2217.693	3544
2221.657	3541
2225.618	3505
2229.575	3483
2233.529	3461
2237.479	3412
2241.425	3387
2245.368	3340
2249.307	3291
2253.243	3257
2257.175	3220
2261.104	3163
2265.029	3108
2268.95	3093
2272.868	3061
2276.783	3025
2280.694	3007
2284.601	2975
2288.505	2924
2292.405	2902
2296.302	2892
2300.195	2855
2304.085	2820
2307.971	2802
2311.854	2733
2315.734	2690
2319.609	2679
2323.482	2630
2327.351	2605
2331.216	2585
2335.078	2580
2338.937	2570
2342.792	2553
2346.643	2564
2350.492	2547
2354.336	2573
2358.178	2565
2362.015	2559
2365.85	2562
2369.681	2615
2373.508	2584
2377.333	2589
2381.153	2546
2384.971	2565
2388.785	2531
2392.595	2532
2396.402	2508
2400.206	2481
2404.007	2426
2407.804	2456
2411.597	2421
2415.388	2422
2419.174	2398
2422.958	2390
2426.738	2371
2430.515	2334
2434.289	2340
2438.059	2308
2441.825	2279
2445.589	2280
2449.349	2232
2453.106	2210
2456.859	2199
2460.61	2138
2464.356	2115
2468.1	2103
2471.84	2066
2475.577	2058
2479.311	2048
2483.041	2026
2486.768	2015
2490.492	2017
2494.213	2006
2497.93	2003
2501.644	1995
2505.355	1990
2509.062	1960
2512.766	1960
2516.467	1934
2520.165	1938
2523.859	1921
2527.551	1884
2531.239	1874
2534.923	1863
2538.605	1855
2542.283	1843
2545.958	1859
2549.63	1857
2553.299	1838
2556.964	1837
2560.626	1832
2564.285	1838
2567.941	1807
2571.594	1769
2575.243	1793
2578.89	1790
2582.533	1763
2586.173	1747
2589.809	1736
2593.443	1707
2597.073	1690
2600.701	1687
2604.325	1677
2607.946	1657
2611.564	1650
2615.178	1657
2618.79	1622
2622.398	1617
2626.004	1599
2629.606	1579
2633.205	1553
2636.801	1534
2640.394	1518
2643.983	1500
2647.57	1474
2651.153	1465
2654.734	1438
2658.311	1397
2661.885	1397
2665.456	1377
2669.025	1342
2672.589	1344
2676.151	1329
2679.71	1325
2683.266	1285
2686.819	1255
2690.368	1216
2693.915	1215
2697.458	1191
2700.999	1180
2704.536	1142
2708.071	1105
2711.602	1084
2715.13	1051
2718.656	1030
2722.178	1009
2725.697	991
2729.214	977
2732.727	973
2736.237	961
2739.744	959
2743.249	953
2746.75	964
2750.248	957
2753.743	961
2757.236	981
2760.725	999
2764.211	1008
2767.695	1006
2771.175	997
2774.652	1005
2778.127	995
2781.598	978
2785.067	978
2788.532	981
2791.995	984
2795.455	976
2798.911	986
2802.365	983
2805.816	990
2809.264	979
2812.709	982
2816.151	977
2819.59	981
2823.026	986
2826.46	988
2829.89	985
2833.318	979
2836.742	986
2840.164	999
2843.583	1010
2846.999	996
2850.412	1022
2853.822	1044
2857.229	1052
2860.634	1063
2864.035	1091
2867.434	1127
2870.83	1138
2874.223	1146
2877.613	1170
2881	1180
2884.385	1200
2887.766	1191
2891.145	1207
2894.521	1178
2897.894	1192
2901.264	1196
2904.631	1184
2907.996	1198
2911.358	1204
2914.717	1214
2918.073	1207
2921.426	1228
2924.777	1248
2928.124	1279
2931.469	1286
2934.811	1304
2938.15	1314
2941.487	1339
2944.821	1348
2948.152	1350
2951.48	1345
2954.805	1316
2958.128	1311
2961.447	1298
2964.765	1285
2968.079	1319
2971.39	1297
2974.699	1320
2978.005	1346
2981.308	1353
2984.609	1395
2987.907	1429
2991.202	1439
2994.494	1467
2997.784	1507
3001.07	1537
3004.355	1549
3007.636	1566
3010.915	1597
3014.191	1629
3017.464	1612
3020.734	1628
3024.002	1656
3027.267	1660
3030.53	1683
3033.789	1689
3037.046	1731
3040.301	1751
3043.552	1762
3046.801	1829
3050.048	1837
3053.291	1909
3056.532	1964
3059.771	2004
3063.006	2084
3066.239	2144
3069.469	2202
3072.697	2275
3075.922	2299
3079.144	2374
3082.364	2427
3085.581	2457
3088.795	2511
3092.007	2582
3095.216	2616
3098.423	2721
3101.627	2752
3104.828	2849
3108.026	2876
3111.222	2948
3114.416	3036
3117.607	3072
3120.795	3125
3123.98	3228
3127.163	3300
3130.344	3378
3133.521	3455
3136.696	3534
3139.869	3622
3143.039	3692
3146.206	3718
3149.371	3784
3152.533	3790
3155.693	3813
3158.85	3846
3162.005	3871
3165.157	3887
3168.306	3877
3171.453	3928
3174.597	3926
3177.739	3930
3180.878	3914
3184.014	3944
3187.149	3936
3190.28	3941
3193.409	3953
3196.536	3980
3199.659	3933
3202.781	3995
3205.9	3948
3209.016	3954
3212.13	3922
3215.241	3889
3218.35	3853
3221.456	3787
3224.56	3785
3227.661	3730
3230.76	3694
3233.856	3687
3236.95	3627
3240.041	3598
3243.13	3532
3246.216	3563
3249.3	3509
3252.382	3509
3255.46	3500
3258.537	3482
3261.611	3467
3264.682	3456
3267.751	3475
3270.818	3476
3273.882	3466
3276.943	3456
3280.002	3402
3283.059	3412
3286.113	3352
3289.165	3316
3292.214	3224
3295.261	3197
3298.306	3121
3301.348	3106
3304.387	3043
3307.425	3000
3310.459	2945
3313.492	2903
3316.521	2875
3319.549	2838
3322.574	2827
3325.597	2782
3328.617	2758
3331.635	2755
3334.65	2746
3337.663	2706
3340.674	2693
3343.682	2681
3346.688	2682
3349.691	2683
3352.692	2652
3355.691	2648
3358.687	2610
3361.681	2582
3364.673	2557
3367.662	2520
3370.649	2461
3373.633	2435
3376.615	2420
3379.595	2390
3382.572	2335
3385.547	2329
3388.52	2261
3391.49	2231
3394.458	2200
3397.424	2161
3400.387	2138
3403.348	2110
3406.307	2094
3409.263	2068
3412.217	2029
3415.168	2024
3418.118	1989
3421.065	1962
3424.009	1940
3426.951	1894
3429.891	1859
3432.829	1813
3435.764	1790
3438.697	1723
3441.628	1696
3444.557	1620
3447.483	1594
3450.407	1528
3453.328	1479
3456.247	1431
3459.164	1363
3462.079	1343
3464.991	1269
3467.902	1227
3470.809	1205
3473.715	1126
3476.618	1101
3479.519	1069
3482.418	1031
3485.315	985
3488.209	945
3491.101	903
3493.99	884
3496.878	843
3499.763	797
3502.646	770
3505.527	744
3508.405	696
3511.281	650
3514.155	613
3517.027	578
3519.897	541
3522.764	502
3525.629	460
3528.492	420
3531.352	392
3534.211	340
3537.067	301
3539.921	267
3542.773	238
3545.622	229
3548.469	191
3551.315	149
3554.157	133
3556.998	94
3559.837	79
3562.673	44
3565.507	25
3568.339	19
3571.169	-17
3573.996	-35
3576.822	-50
3579.645	-74
3582.466	-97
3585.285	-100
3588.101	-125
3590.916	-147
3593.728	-168
3596.538	-188
3599.346	-202
3602.152	-219
3604.956	-215
3607.757	-238
3610.556	-261
3613.354	-276
3616.149	-276
3618.942	-304
3621.732	-303
3624.521	-316
3627.307	-331
3630.092	-349
3632.874	-344
3635.654	-369
3638.432	-366
3641.208	-372
3643.982	-392
3646.753	-396
3649.523	-408
3652.29	-415
3655.055	-417
3657.818	-429
3660.579	-440
3663.338	-443
3666.095	-454
3668.849	-473
3671.602	-474
3674.352	-475
3677.101	-489
3679.847	-504
3682.591	-494
3685.333	-503
3688.073	-516
3690.811	-515
3693.547	-514
3696.281	-524
3699.013	-527
3701.742	-538
3704.47	-542
3707.195	-553
3709.919	-549
3712.64	-554
3715.359	-560
3718.076	-557
3720.792	-562
3723.505	-570
3726.216	-568
3728.925	-573
3731.632	-579
3734.336	-578
3737.039	-589
3739.74	-583
3742.439	-586
3745.136	-594
3747.83	-589
3750.523	-588
3753.213	-594
3755.902	-596
3758.589	-591
3761.273	-594
3763.956	-597
3766.636	-601
3769.315	-607
3771.991	-610
3774.665	-602
3777.338	-610
3780.008	-613
3782.677	-610
3785.343	-619
3788.007	-610
3790.67	-616
3793.33	-618
3795.989	-618
3798.645	-623
3801.299	-623
3803.952	-621
3806.602	-622
3809.251	-628
3811.897	-618
3814.542	-621
3817.184	-622
3819.825	-624
3822.463	-624
3825.1	-629
3827.735	-630
3830.367	-629
3832.998	-630
3835.627	-633
3838.253	-639
3840.878	-641
3843.501	-635
3846.122	-634
3848.741	-635
3851.358	-644
3853.973	-634
3856.586	-634
3859.197	-641
3861.806	-637
3864.414	-631
3867.019	-630
3869.622	-635
3872.224	-632
3874.823	-618
3877.421	-595
3880.016	-588
3882.61	-543
3885.202	-551
3887.792	-572
3890.38	-606
3892.966	-621
3895.55	-625
3898.132	-643
3900.713	-648
3903.291	-651
3905.868	-650
3908.442	-648
3911.015	-648
3913.586	-650
3916.155	-651
3918.722	-647
3921.287	-649
3923.85	-649
3926.411	-651
3928.971	-649
3931.528	-649
3934.084	-641
3936.638	-651
3939.19	-653
3941.74	-660
3944.288	-657
3946.834	-654
3949.378	-651
3951.921	-656
3954.462	-651
3957	-645
3959.537	-648
3962.072	-649
3964.606	-645
3967.137	-653
3969.667	-651
3972.194	-645
3974.72	-648
3977.244	-640
3979.766	-640
3982.286	-647
3984.805	-633
3987.321	-639
3989.836	-640
3992.349	-637
3994.86	-636
3997.369	-650
3999.877	-640
4002.382	-633
4004.886	-639
4007.388	-639
4009.888	-636
4012.386	-638
4014.883	-632
4017.377	-639
4019.87	-634
4022.361	-638
4024.85	-641
4027.338	-643
4029.823	-640
4032.307	-640
4034.789	-648
4037.269	-646
4039.747	-652
4042.224	-637
4044.699	-646
4047.172	-643
4049.643	-639
4052.112	-643
4054.58	-636
4057.046	-647
4059.51	-643
4061.972	-650
4064.432	-643
4066.891	-636
4069.348	-643
4071.803	-639
4074.256	-633
4076.708	-638
4079.158	-640
4081.606	-637
4084.052	-634
4086.497	-644
4088.939	-636
4091.38	-630
4093.819	-635
4096.257	-672
4098.693	-674
4101.127	-676
4103.559	-677
4105.989	-395
4108.418	-378
4110.845	-365
4113.27	-345
4115.694	-291
4118.115	-248
4120.535	-641
4122.954	-647
4125.37	-640
4127.785	-638
4130.198	-645
4132.609	-635
4135.019	-678
4137.427	-679
4139.833	-674
4142.237	-676
