Data from 2018-2-7_conc=4_RamanShift_23.txt Node
Date: Tue Feb 13 13:45:43 IST 2018
User: aro
Spectrometer: QEPB0276
Trigger mode: 0
Integration Time (sec): 3.000000E1
Scans to average: 1
Electric dark correction enabled: true
Nonlinearity correction enabled: false
Boxcar width: 0
XAxis mode: Raman Shifts
Number of Pixels in Spectrum: 1044
>>>>>Begin Spectral Data<<<<<
160.701	-164.6
166.742	27.4
172.777	607.4
178.805	2301.4
184.826	6283.4
190.841	12958.4
196.849	20464.4
202.85	25565.4
208.845	27192.4
214.833	26845.4
220.815	26430.4
226.789	26099.4
232.758	26089.4
238.719	25899.4
244.674	25505.4
250.623	25084.4
256.565	24524.4
262.5	23950.4
268.429	23549.4
274.351	23177.4
280.267	22917.4
286.176	22560.4
292.079	22452.4
297.975	22190.4
303.865	22003.4
309.748	21877.4
315.625	21703.4
321.495	21611.4
327.359	21589.4
333.217	21479.4
339.068	21489.4
344.912	21523.4
350.751	21441.4
356.583	21399.4
362.408	21313.4
368.227	21363.4
374.04	21410.4
379.847	21469.4
385.647	21517.4
391.44	21613.4
397.228	21659.4
403.009	21756.4
408.784	21878.4
414.553	21948.4
420.315	22045.4
426.071	21964.4
431.821	21969.4
437.565	21947.4
443.302	21912.4
449.033	21920.4
454.758	21844.4
460.477	21808.4
466.189	21829.4
471.896	21663.4
477.596	21632.4
483.29	21635.4
488.978	21542.4
494.66	21506.4
500.335	21340.4
506.005	21111.4
511.668	20816.4
517.325	20586.4
522.977	20394.4
528.622	20261.4
534.261	20105.4
539.894	20008.4
545.521	19920.4
551.141	19896.4
556.756	19782.4
562.365	19699.4
567.968	19661.4
573.565	19552.4
579.155	19506.4
584.74	19419.4
590.319	19394.4
595.892	19259.4
601.459	19194.4
607.02	19058.4
612.575	19054.4
618.124	18868.4
623.667	18787.4
629.204	18705.4
634.735	18610.4
640.261	18526.4
645.781	18492.4
651.294	18418.4
656.802	18392.4
662.304	18366.4
667.8	18327.4
673.29	18323.4
678.775	18311.4
684.254	18227.4
689.726	18126.4
695.193	18063.4
700.655	17963.4
706.11	17954.4
711.56	17767.4
717.004	17711.4
722.442	17627.4
727.874	17653.4
733.301	17510.4
738.722	17498.4
744.137	17412.4
749.547	17420.4
754.951	17500.4
760.349	17508.4
765.741	17455.4
771.128	17460.4
776.509	17530.4
781.885	17454.4
787.254	17460.4
792.618	17388.4
797.977	17183.4
803.33	17134.4
808.677	17006.4
814.019	16993.4
819.355	16852.4
824.686	16802.4
830.011	16739.4
835.33	16793.4
840.644	16810.4
845.952	16834.4
851.255	16807.4
856.552	16910.4
861.844	16804.4
867.13	16795.4
872.41	16745.4
877.686	16574.4
882.955	16495.4
888.219	16349.4
893.478	16212.4
898.731	16000.4
903.979	15810.4
909.221	15689.4
914.458	15663.4
919.69	15624.4
924.916	15729.4
930.136	15732.4
935.351	15790.4
940.561	15756.4
945.766	15725.4
950.965	15682.4
956.158	15530.4
961.347	15340.4
966.529	15167.4
971.707	14968.4
976.879	14871.4
982.046	14719.4
987.208	14615.4
992.364	14636.4
997.515	14709.4
1002.66	14870.4
1007.801	15039.4
1012.936	15122.4
1018.066	15151.4
1023.19	15115.4
1028.309	15163.4
1033.423	15109.4
1038.532	15013.4
1043.636	14881.4
1048.734	14709.4
1053.827	14513.4
1058.915	14336.4
1063.998	14330.4
1069.075	14189.4
1074.147	14257.4
1079.214	14338.4
1084.276	14448.4
1089.333	14482.4
1094.385	14571.4
1099.431	14553.4
1104.472	14576.4
1109.509	14483.4
1114.54	14334.4
1119.565	14165.4
1124.586	13982.4
1129.602	13796.4
1134.613	13727.4
1139.618	13681.4
1144.619	13586.4
1149.614	13635.4
1154.604	13649.4
1159.589	13719.4
1164.57	13754.4
1169.545	13777.4
1174.515	13746.4
1179.48	13649.4
1184.44	13534.4
1189.395	13460.4
1194.345	13383.4
1199.29	13313.4
1204.23	13301.4
1209.165	13354.4
1214.095	13431.4
1219.021	13501.4
1223.941	13557.4
1228.856	13637.4
1233.766	13653.4
1238.672	13711.4
1243.572	13675.4
1248.467	13624.4
1253.358	13434.4
1258.244	13257.4
1263.124	13040.4
1268	12806.4
1272.871	12688.4
1277.737	12621.4
1282.599	12518.4
1287.455	12508.4
1292.306	12501.4
1297.153	12591.4
1301.995	12638.4
1306.832	12686.4
1311.664	12703.4
1316.491	12652.4
1321.314	12493.4
1326.132	12310.4
1330.945	12053.4
1335.753	11754.4
1340.556	11449.4
1345.354	11178.4
1350.148	11016.4
1354.937	10939.4
1359.722	11028.4
1364.501	11039.4
1369.276	11152.4
1374.046	11369.4
1378.811	11454.4
1383.572	11598.4
1388.327	11626.4
1393.079	11553.4
1397.825	11413.4
1402.567	11241.4
1407.304	11094.4
1412.036	11015.4
1416.764	10955.4
1421.487	10886.4
1426.205	10849.4
1430.919	10756.4
1435.628	10733.4
1440.333	10778.4
1445.032	10766.4
1449.727	10811.4
1454.418	10781.4
1459.104	10703.4
1463.785	10484.4
1468.462	10249.4
1473.134	10060.4
1477.802	9947.4
1482.465	9642.4
1487.123	9503.4
1491.777	9530.4
1496.426	9549.4
1501.071	9658.4
1505.711	9865.4
1510.347	10011.4
1514.978	10150.4
1519.604	10307.4
1524.226	10394.4
1528.844	10418.4
1533.457	10425.4
1538.065	10378.4
1542.669	10300.4
1547.269	10207.4
1551.864	10135.4
1556.454	10120.4
1561.041	10080.4
1565.622	10113.4
1570.199	10161.4
1574.772	10207.4
1579.34	10252.4
1583.904	10376.4
1588.464	10341.4
1593.019	10350.4
1597.569	10350.4
1602.115	10242.4
1606.657	10197.4
1611.195	10126.4
1615.728	10019.4
1620.256	10026.4
1624.78	10046.4
1629.3	10015.4
1633.816	10045.4
1638.327	10105.4
1642.834	10130.4
1647.336	10164.4
1651.834	10199.4
1656.328	10125.4
1660.817	10078.4
1665.302	10053.4
1669.783	9772.4
1674.259	9550.4
1678.732	9289.4
1683.199	8956.4
1687.663	8636.4
1692.122	8364.4
1696.577	8247.4
1701.028	8268.4
1705.474	8276.4
1709.917	8427.4
1714.355	8431.4
1718.788	8364.4
1723.218	8233.4
1727.643	8097.4
1732.064	7956.4
1736.481	7733.4
1740.893	7601.4
1745.301	7374.4
1749.705	7178.4
1754.105	6984.4
1758.501	6735.4
1762.893	6576.4
1767.28	6413.4
1771.663	6256.4
1776.042	6134.4
1780.417	6042.4
1784.787	6080.4
1789.154	6140.4
1793.516	6274.4
1797.874	6389.4
1802.228	6479.4
1806.578	6563.4
1810.924	6544.4
1815.266	6512.4
1819.603	6409.4
1823.937	6339.4
1828.266	6182.4
1832.591	6104.4
1836.913	6011.4
1841.23	6016.4
1845.543	5955.4
1849.852	5885.4
1854.156	5912.4
1858.457	5869.4
1862.754	5854.4
1867.047	5848.4
1871.335	5886.4
1875.62	5809.4
1879.9	5804.4
1884.177	5755.4
1888.449	5709.4
1892.718	5653.4
1896.982	5602.4
1901.243	5547.4
1905.499	5465.4
1909.752	5453.4
1914	5449.4
1918.245	5479.4
1922.485	5512.4
1926.722	5578.4
1930.954	5608.4
1935.183	5676.4
1939.408	5768.4
1943.628	5770.4
1947.845	5786.4
1952.058	5777.4
1956.267	5766.4
1960.472	5690.4
1964.673	5596.4
1968.87	5485.4
1973.063	5420.4
1977.252	5347.4
1981.438	5300.4
1985.619	5255.4
1989.797	5236.4
1993.971	5157.4
1998.14	5148.4
2002.306	5161.4
2006.469	5145.4
2010.627	5093.4
2014.781	5072.4
2018.932	4995.4
2023.078	4976.4
2027.221	4907.4
2031.36	4842.4
2035.495	4764.4
2039.627	4659.4
2043.754	4618.4
2047.878	4545.4
2051.998	4552.4
2056.114	4485.4
2060.226	4503.4
2064.334	4509.4
2068.439	4520.4
2072.54	4534.4
2076.637	4571.4
2080.73	4607.4
2084.82	4640.4
2088.906	4686.4
2092.988	4660.4
2097.066	4605.4
2101.14	4623.4
2105.211	4624.4
2109.278	4559.4
2113.342	4541.4
2117.401	4499.4
2121.457	4473.4
2125.509	4467.4
2129.558	4431.4
2133.602	4403.4
2137.643	4361.4
2141.681	4406.4
2145.714	4369.4
2149.744	4334.4
2153.77	4329.4
2157.793	4252.4
2161.812	4184.4
2165.827	4157.4
2169.838	4102.4
2173.846	4007.4
2177.851	3926.4
2181.851	3870.4
2185.848	3863.4
2189.841	3800.4
2193.831	3768.4
2197.817	3735.4
2201.799	3731.4
2205.778	3687.4
2209.753	3679.4
2213.725	3675.4
2217.693	3656.4
2221.657	3656.4
2225.618	3648.4
2229.575	3591.4
2233.529	3579.4
2237.479	3554.4
2241.425	3515.4
2245.368	3469.4
2249.307	3416.4
2253.243	3381.4
2257.175	3340.4
2261.104	3286.4
2265.029	3249.4
2268.95	3206.4
2272.868	3162.4
2276.783	3140.4
2280.694	3118.4
2284.601	3062.4
2288.505	3059.4
2292.405	3059.4
2296.302	2983.4
2300.195	2985.4
2304.085	2926.4
2307.971	2897.4
2311.854	2846.4
2315.734	2807.4
2319.609	2785.4
2323.482	2710.4
2327.351	2701.4
2331.216	2703.4
2335.078	2691.4
2338.937	2645.4
2342.792	2652.4
2346.643	2645.4
2350.492	2666.4
2354.336	2639.4
2358.178	2651.4
2362.015	2662.4
2365.85	2665.4
2369.681	2668.4
2373.508	2678.4
2377.333	2674.4
2381.153	2687.4
2384.971	2633.4
2388.785	2652.4
2392.595	2609.4
2396.402	2584.4
2400.206	2555.4
2404.007	2546.4
2407.804	2529.4
2411.597	2508.4
2415.388	2479.4
2419.174	2468.4
2422.958	2473.4
2426.738	2451.4
2430.515	2402.4
2434.289	2403.4
2438.059	2398.4
2441.825	2363.4
2445.589	2326.4
2449.349	2304.4
2453.106	2259.4
2456.859	2264.4
2460.61	2215.4
2464.356	2159.4
2468.1	2181.4
2471.84	2152.4
2475.577	2126.4
2479.311	2121.4
2483.041	2113.4
2486.768	2090.4
2490.492	2069.4
2494.213	2063.4
2497.93	2067.4
2501.644	2059.4
2505.355	2056.4
2509.062	2060.4
2512.766	2098.4
2516.467	1999.4
2520.165	2012.4
2523.859	2007.4
2527.551	1970.4
2531.239	1957.4
2534.923	1928.4
2538.605	1922.4
2542.283	1938.4
2545.958	1929.4
2549.63	1909.4
2553.299	1920.4
2556.964	1899.4
2560.626	1908.4
2564.285	1898.4
2567.941	1894.4
2571.594	1857.4
2575.243	1865.4
2578.89	1853.4
2582.533	1842.4
2586.173	1797.4
2589.809	1805.4
2593.443	1814.4
2597.073	1771.4
2600.701	1750.4
2604.325	1745.4
2607.946	1757.4
2611.564	1720.4
2615.178	1725.4
2618.79	1708.4
2622.398	1686.4
2626.004	1667.4
2629.606	1658.4
2633.205	1632.4
2636.801	1604.4
2640.394	1586.4
2643.983	1547.4
2647.57	1517.4
2651.153	1507.4
2654.734	1471.4
2658.311	1463.4
2661.885	1465.4
2665.456	1423.4
2669.025	1408.4
2672.589	1398.4
2676.151	1362.4
2679.71	1346.4
2683.266	1334.4
2686.819	1296.4
2690.368	1284.4
2693.915	1251.4
2697.458	1235.4
2700.999	1202.4
2704.536	1189.4
2708.071	1141.4
2711.602	1130.4
2715.13	1102.4
2718.656	1076.4
2722.178	1045.4
2725.697	1031.4
2729.214	1006.4
2732.727	1013.4
2736.237	1006.4
2739.744	1009.4
2743.249	1000.4
2746.75	1017.4
2750.248	1020.4
2753.743	1016.4
2757.236	1047.4
2760.725	1044.4
2764.211	1059.4
2767.695	1051.4
2771.175	1046.4
2774.652	1057.4
2778.127	1059.4
2781.598	1020.4
2785.067	1048.4
2788.532	1040.4
2791.995	1034.4
2795.455	1043.4
2798.911	1029.4
2802.365	1043.4
2805.816	1052.4
2809.264	1027.4
2812.709	1036.4
2816.151	1014.4
2819.59	1035.4
2823.026	1024.4
2826.46	1029.4
2829.89	1023.4
2833.318	1036.4
2836.742	1035.4
2840.164	1052.4
2843.583	1066.4
2846.999	1054.4
2850.412	1069.4
2853.822	1089.4
2857.229	1129.4
2860.634	1123.4
2864.035	1138.4
2867.434	1166.4
2870.83	1161.4
2874.223	1208.4
2877.613	1244.4
2881	1236.4
2884.385	1244.4
2887.766	1246.4
2891.145	1243.4
2894.521	1241.4
2897.894	1229.4
2901.264	1248.4
2904.631	1245.4
2907.996	1242.4
2911.358	1261.4
2914.717	1251.4
2918.073	1252.4
2921.426	1276.4
2924.777	1299.4
2928.124	1341.4
2931.469	1342.4
2934.811	1359.4
2938.15	1366.4
2941.487	1363.4
2944.821	1379.4
2948.152	1388.4
2951.48	1380.4
2954.805	1353.4
2958.128	1347.4
2961.447	1341.4
2964.765	1343.4
2968.079	1347.4
2971.39	1350.4
2974.699	1362.4
2978.005	1373.4
2981.308	1410.4
2984.609	1420.4
2987.907	1462.4
2991.202	1497.4
2994.494	1504.4
2997.784	1541.4
3001.07	1564.4
3004.355	1582.4
3007.636	1586.4
3010.915	1632.4
3014.191	1636.4
3017.464	1648.4
3020.734	1670.4
3024.002	1661.4
3027.267	1687.4
3030.53	1699.4
3033.789	1725.4
3037.046	1736.4
3040.301	1775.4
3043.552	1816.4
3046.801	1849.4
3050.048	1901.4
3053.291	1946.4
3056.532	1987.4
3059.771	2049.4
3063.006	2107.4
3066.239	2149.4
3069.469	2216.4
3072.697	2288.4
3075.922	2337.4
3079.144	2415.4
3082.364	2462.4
3085.581	2527.4
3088.795	2555.4
3092.007	2612.4
3095.216	2686.4
3098.423	2729.4
3101.627	2777.4
3104.828	2840.4
3108.026	2907.4
3111.222	2985.4
3114.416	3067.4
3117.607	3093.4
3120.795	3176.4
3123.98	3229.4
3127.163	3328.4
3130.344	3421.4
3133.521	3499.4
3136.696	3569.4
3139.869	3629.4
3143.039	3689.4
3146.206	3735.4
3149.371	3787.4
3152.533	3826.4
3155.693	3854.4
3158.85	3891.4
3162.005	3915.4
3165.157	3907.4
3168.306	3918.4
3171.453	3957.4
3174.597	3940.4
3177.739	3933.4
3180.878	3949.4
3184.014	3973.4
3187.149	3983.4
3190.28	3988.4
3193.409	3964.4
3196.536	3989.4
3199.659	3977.4
3202.781	3990.4
3205.9	3994.4
3209.016	3983.4
3212.13	3929.4
3215.241	3935.4
3218.35	3878.4
3221.456	3846.4
3224.56	3836.4
3227.661	3763.4
3230.76	3703.4
3233.856	3682.4
3236.95	3636.4
3240.041	3627.4
3243.13	3594.4
3246.216	3565.4
3249.3	3525.4
3252.382	3508.4
3255.46	3519.4
3258.537	3502.4
3261.611	3499.4
3264.682	3487.4
3267.751	3506.4
3270.818	3490.4
3273.882	3503.4
3276.943	3457.4
3280.002	3443.4
3283.059	3429.4
3286.113	3355.4
3289.165	3306.4
3292.214	3268.4
3295.261	3236.4
3298.306	3200.4
3301.348	3104.4
3304.387	3073.4
3307.425	3018.4
3310.459	2961.4
3313.492	2956.4
3316.521	2888.4
3319.549	2877.4
3322.574	2842.4
3325.597	2843.4
3328.617	2785.4
3331.635	2771.4
3334.65	2759.4
3337.663	2744.4
3340.674	2738.4
3343.682	2738.4
3346.688	2726.4
3349.691	2697.4
3352.692	2686.4
3355.691	2660.4
3358.687	2625.4
3361.681	2606.4
3364.673	2561.4
3367.662	2541.4
3370.649	2490.4
3373.633	2476.4
3376.615	2451.4
3379.595	2380.4
3382.572	2367.4
3385.547	2336.4
3388.52	2304.4
3391.49	2239.4
3394.458	2232.4
3397.424	2197.4
3400.387	2156.4
3403.348	2136.4
3406.307	2115.4
3409.263	2101.4
3412.217	2068.4
3415.168	2030.4
3418.118	2030.4
3421.065	2016.4
3424.009	1968.4
3426.951	1908.4
3429.891	1882.4
3432.829	1862.4
3435.764	1796.4
3438.697	1745.4
3441.628	1723.4
3444.557	1652.4
3447.483	1612.4
3450.407	1550.4
3453.328	1486.4
3456.247	1439.4
3459.164	1391.4
3462.079	1340.4
3464.991	1281.4
3467.902	1237.4
3470.809	1206.4
3473.715	1133.4
3476.618	1111.4
3479.519	1079.4
3482.418	1026.4
3485.315	991.4
3488.209	949.4
3491.101	930.4
3493.99	888.4
3496.878	850.4
3499.763	804.4
3502.646	777.4
3505.527	738.4
3508.405	727.4
3511.281	667.4
3514.155	619.4
3517.027	568.4
3519.897	562.4
3522.764	508.4
3525.629	457.4
3528.492	419.4
3531.352	391.4
3534.211	335.4
3537.067	305.4
3539.921	277.4
3542.773	239.4
3545.622	203.4
3548.469	176.4
3551.315	154.4
3554.157	122.4
3556.998	93.4
3559.837	75.4
3562.673	42.4
3565.507	29.4
3568.339	10.4
3571.169	-3.6
3573.996	-38.6
3576.822	-49.6
3579.645	-61.6
3582.466	-96.6
3585.285	-120.6
3588.101	-126.6
3590.916	-151.6
3593.728	-161.6
3596.538	-195.6
3599.346	-210.6
3602.152	-216.6
3604.956	-237.6
3607.757	-256.6
3610.556	-259.6
3613.354	-280.6
3616.149	-289.6
3618.942	-302.6
3621.732	-313.6
3624.521	-325.6
3627.307	-341.6
3630.092	-345.6
3632.874	-357.6
3635.654	-359.6
3638.432	-371.6
3641.208	-386.6
3643.982	-390.6
3646.753	-403.6
3649.523	-416.6
3652.29	-416.6
3655.055	-425.6
3657.818	-440.6
3660.579	-450.6
3663.338	-454.6
3666.095	-467.6
3668.849	-483.6
3671.602	-487.6
3674.352	-487.6
3677.101	-494.6
3679.847	-505.6
3682.591	-505.6
3685.333	-516.6
3688.073	-520.6
3690.811	-532.6
3693.547	-524.6
3696.281	-538.6
3699.013	-536.6
3701.742	-550.6
3704.47	-547.6
3707.195	-558.6
3709.919	-559.6
3712.64	-564.6
3715.359	-574.6
3718.076	-574.6
3720.792	-574.6
3723.505	-574.6
3726.216	-587.6
3728.925	-584.6
3731.632	-600.6
3734.336	-596.6
3737.039	-602.6
3739.74	-601.6
3742.439	-601.6
3745.136	-606.6
3747.83	-607.6
3750.523	-601.6
3753.213	-608.6
3755.902	-608.6
3758.589	-609.6
3761.273	-605.6
3763.956	-612.6
3766.636	-619.6
3769.315	-616.6
3771.991	-618.6
3774.665	-622.6
3777.338	-619.6
3780.008	-618.6
3782.677	-621.6
3785.343	-628.6
3788.007	-625.6
3790.67	-627.6
3793.33	-635.6
3795.989	-632.6
3798.645	-640.6
3801.299	-638.6
3803.952	-639.6
3806.602	-641.6
3809.251	-650.6
3811.897	-636.6
3814.542	-636.6
3817.184	-640.6
3819.825	-639.6
3822.463	-637.6
3825.1	-641.6
3827.735	-641.6
3830.367	-648.6
3832.998	-648.6
3835.627	-653.6
3838.253	-653.6
3840.878	-646.6
3843.501	-648.6
3846.122	-649.6
3848.741	-647.6
3851.358	-653.6
3853.973	-649.6
3856.586	-646.6
3859.197	-651.6
3861.806	-647.6
3864.414	-649.6
3867.019	-641.6
3869.622	-650.6
3872.224	-642.6
3874.823	-630.6
3877.421	-613.6
3880.016	-593.6
3882.61	-556.6
3885.202	-554.6
3887.792	-582.6
3890.38	-618.6
3892.966	-635.6
3895.55	-645.6
3898.132	-659.6
3900.713	-662.6
3903.291	-663.6
3905.868	-668.6
3908.442	-661.6
3911.015	-664.6
3913.586	-667.6
3916.155	-663.6
3918.722	-659.6
3921.287	-669.6
3923.85	-669.6
3926.411	-668.6
3928.971	-665.6
3931.528	-663.6
3934.084	-657.6
3936.638	-667.6
3939.19	-670.6
3941.74	-673.6
3944.288	-671.6
3946.834	-671.6
3949.378	-667.6
3951.921	-668.6
3954.462	-670.6
3957	-668.6
3959.537	-664.6
3962.072	-665.6
3964.606	-666.6
3967.137	-668.6
3969.667	-667.6
3972.194	-664.6
3974.72	-657.6
3977.244	-656.6
3979.766	-657.6
3982.286	-651.6
3984.805	-649.6
3987.321	-645.6
3989.836	-654.6
3992.349	-652.6
3994.86	-646.6
3997.369	-660.6
3999.877	-651.6
4002.382	-650.6
4004.886	-663.6
4007.388	-654.6
4009.888	-650.6
4012.386	-648.6
4014.883	-650.6
4017.377	-655.6
4019.87	-655.6
4022.361	-654.6
4024.85	-658.6
4027.338	-663.6
4029.823	-652.6
4032.307	-657.6
4034.789	-658.6
4037.269	-656.6
4039.747	-663.6
4042.224	-649.6
4044.699	-657.6
4047.172	-657.6
4049.643	-657.6
4052.112	-655.6
4054.58	-651.6
4057.046	-651.6
4059.51	-660.6
4061.972	-659.6
4064.432	-650.6
4066.891	-653.6
4069.348	-658.6
4071.803	-660.6
4074.256	-652.6
4076.708	-655.6
4079.158	-654.6
4081.606	-650.6
4084.052	-654.6
4086.497	-656.6
4088.939	-651.6
4091.38	-645.6
4093.819	-655.6
4096.257	-684.6
4098.693	-691.6
4101.127	-688.6
4103.559	-690.6
4105.989	-409.6
4108.418	-392.6
4110.845	-379.6
4113.27	-348.6
4115.694	-294.6
4118.115	-253.6
4120.535	-655.6
4122.954	-660.6
4125.37	-654.6
4127.785	-654.6
4130.198	-658.6
4132.609	-655.6
4135.019	-695.6
4137.427	-693.6
4139.833	-690.6
4142.237	-691.6
