Data from 2018-2-7_conc=2_RamanShift_05.txt Node
Date: Tue Feb 13 11:45:44 IST 2018
User: aro
Spectrometer: QEPB0276
Trigger mode: 0
Integration Time (sec): 3.000000E1
Scans to average: 1
Electric dark correction enabled: true
Nonlinearity correction enabled: false
Boxcar width: 0
XAxis mode: Raman Shifts
Number of Pixels in Spectrum: 1044
>>>>>Begin Spectral Data<<<<<
160.701	-157.8
166.742	36.2
172.777	580.2
178.805	2202.2
184.826	6031.2
190.841	12494.2
196.849	19690.2
202.85	24701.2
208.845	26259.2
214.833	25974.2
220.815	25521.2
226.789	25305.2
232.758	25191.2
238.719	24915.2
244.674	24627.2
250.623	24133.2
256.565	23626.2
262.5	23095.2
268.429	22599.2
274.351	22276.2
280.267	21985.2
286.176	21773.2
292.079	21571.2
297.975	21316.2
303.865	21070.2
309.748	20906.2
315.625	20857.2
321.495	20641.2
327.359	20616.2
333.217	20550.2
339.068	20502.2
344.912	20484.2
350.751	20493.2
356.583	20429.2
362.408	20474.2
368.227	20398.2
374.04	20427.2
379.847	20512.2
385.647	20582.2
391.44	20672.2
397.228	20813.2
403.009	20849.2
408.784	20899.2
414.553	20959.2
420.315	20998.2
426.071	21073.2
431.821	20963.2
437.565	20988.2
443.302	20983.2
449.033	20876.2
454.758	20868.2
460.477	20836.2
466.189	20774.2
471.896	20765.2
477.596	20752.2
483.29	20682.2
488.978	20601.2
494.66	20505.2
500.335	20420.2
506.005	20229.2
511.668	19960.2
517.325	19813.2
522.977	19621.2
528.622	19427.2
534.261	19354.2
539.894	19235.2
545.521	19133.2
551.141	19115.2
556.756	19047.2
562.365	18895.2
567.968	18882.2
573.565	18807.2
579.155	18750.2
584.74	18704.2
590.319	18640.2
595.892	18473.2
601.459	18529.2
607.02	18407.2
612.575	18293.2
618.124	18152.2
623.667	18033.2
629.204	18016.2
634.735	17888.2
640.261	17806.2
645.781	17771.2
651.294	17736.2
656.802	17741.2
662.304	17648.2
667.8	17668.2
673.29	17636.2
678.775	17590.2
684.254	17541.2
689.726	17495.2
695.193	17427.2
700.655	17297.2
706.11	17250.2
711.56	17139.2
717.004	17069.2
722.442	17044.2
727.874	16987.2
733.301	16905.2
738.722	16800.2
744.137	16870.2
749.547	16787.2
754.951	16826.2
760.349	16768.2
765.741	16833.2
771.128	16812.2
776.509	16850.2
781.885	16845.2
787.254	16744.2
792.618	16717.2
797.977	16608.2
803.33	16431.2
808.677	16407.2
814.019	16278.2
819.355	16204.2
824.686	16157.2
830.011	16103.2
835.33	16149.2
840.644	16117.2
845.952	16129.2
851.255	16182.2
856.552	16205.2
861.844	16136.2
867.13	16172.2
872.41	16071.2
877.686	15993.2
882.955	15873.2
888.219	15760.2
893.478	15532.2
898.731	15352.2
903.979	15183.2
909.221	15091.2
914.458	15047.2
919.69	15009.2
924.916	15101.2
930.136	15104.2
935.351	15139.2
940.561	15148.2
945.766	15112.2
950.965	15055.2
956.158	14891.2
961.347	14782.2
966.529	14578.2
971.707	14355.2
976.879	14165.2
982.046	14133.2
987.208	14042.2
992.364	14088.2
997.515	14090.2
1002.66	14273.2
1007.801	14458.2
1012.936	14509.2
1018.066	14586.2
1023.19	14541.2
1028.309	14512.2
1033.423	14487.2
1038.532	14471.2
1043.636	14255.2
1048.734	14098.2
1053.827	13959.2
1058.915	13799.2
1063.998	13728.2
1069.075	13621.2
1074.147	13671.2
1079.214	13727.2
1084.276	13830.2
1089.333	13894.2
1094.385	13969.2
1099.431	13971.2
1104.472	13999.2
1109.509	13852.2
1114.54	13742.2
1119.565	13591.2
1124.586	13380.2
1129.602	13253.2
1134.613	13168.2
1139.618	13077.2
1144.619	13024.2
1149.614	13089.2
1154.604	13094.2
1159.589	13109.2
1164.57	13170.2
1169.545	13158.2
1174.515	13131.2
1179.48	13079.2
1184.44	12971.2
1189.395	12942.2
1194.345	12777.2
1199.29	12755.2
1204.23	12732.2
1209.165	12810.2
1214.095	12881.2
1219.021	12891.2
1223.941	12957.2
1228.856	13082.2
1233.766	13080.2
1238.672	13105.2
1243.572	13077.2
1248.467	13033.2
1253.358	12880.2
1258.244	12700.2
1263.124	12448.2
1268	12304.2
1272.871	12122.2
1277.737	12081.2
1282.599	12018.2
1287.455	12028.2
1292.306	12007.2
1297.153	12094.2
1301.995	12127.2
1306.832	12168.2
1311.664	12177.2
1316.491	12079.2
1321.314	11976.2
1326.132	11804.2
1330.945	11543.2
1335.753	11270.2
1340.556	10993.2
1345.354	10787.2
1350.148	10574.2
1354.937	10527.2
1359.722	10525.2
1364.501	10483.2
1369.276	10647.2
1374.046	10731.2
1378.811	10869.2
1383.572	11012.2
1388.327	11004.2
1393.079	11010.2
1397.825	10853.2
1402.567	10727.2
1407.304	10601.2
1412.036	10514.2
1416.764	10441.2
1421.487	10383.2
1426.205	10304.2
1430.919	10299.2
1435.628	10293.2
1440.333	10296.2
1445.032	10332.2
1449.727	10362.2
1454.418	10313.2
1459.104	10228.2
1463.785	9996.2
1468.462	9800.2
1473.134	9570.2
1477.802	9390.2
1482.465	9220.2
1487.123	9118.2
1491.777	9033.2
1496.426	9109.2
1501.071	9157.2
1505.711	9279.2
1510.347	9424.2
1514.978	9569.2
1519.604	9745.2
1524.226	9799.2
1528.844	9798.2
1533.457	9820.2
1538.065	9799.2
1542.669	9747.2
1547.269	9649.2
1551.864	9599.2
1556.454	9556.2
1561.041	9607.2
1565.622	9593.2
1570.199	9557.2
1574.772	9649.2
1579.34	9779.2
1583.904	9810.2
1588.464	9816.2
1593.019	9816.2
1597.569	9809.2
1602.115	9719.2
1606.657	9670.2
1611.195	9663.2
1615.728	9589.2
1620.256	9545.2
1624.78	9525.2
1629.3	9522.2
1633.816	9567.2
1638.327	9572.2
1642.834	9631.2
1647.336	9660.2
1651.834	9702.2
1656.328	9647.2
1660.817	9593.2
1665.302	9461.2
1669.783	9299.2
1674.259	9100.2
1678.732	8825.2
1683.199	8517.2
1687.663	8209.2
1692.122	7957.2
1696.577	7832.2
1701.028	7739.2
1705.474	7778.2
1709.917	7817.2
1714.355	7882.2
1718.788	7836.2
1723.218	7713.2
1727.643	7593.2
1732.064	7485.2
1736.481	7261.2
1740.893	7067.2
1745.301	6881.2
1749.705	6714.2
1754.105	6548.2
1758.501	6358.2
1762.893	6171.2
1767.28	6014.2
1771.663	5866.2
1776.042	5775.2
1780.417	5755.2
1784.787	5730.2
1789.154	5773.2
1793.516	5848.2
1797.874	5941.2
1802.228	6048.2
1806.578	6101.2
1810.924	6085.2
1815.266	6032.2
1819.603	5968.2
1823.937	5879.2
1828.266	5787.2
1832.591	5722.2
1836.913	5662.2
1841.23	5617.2
1845.543	5591.2
1849.852	5571.2
1854.156	5520.2
1858.457	5537.2
1862.754	5473.2
1867.047	5468.2
1871.335	5472.2
1875.62	5496.2
1879.9	5451.2
1884.177	5406.2
1888.449	5334.2
1892.718	5267.2
1896.982	5220.2
1901.243	5151.2
1905.499	5121.2
1909.752	5092.2
1914	5105.2
1918.245	5108.2
1922.485	5104.2
1926.722	5166.2
1930.954	5239.2
1935.183	5300.2
1939.408	5363.2
1943.628	5351.2
1947.845	5363.2
1952.058	5353.2
1956.267	5352.2
1960.472	5301.2
1964.673	5227.2
1968.87	5136.2
1973.063	5046.2
1977.252	5001.2
1981.438	4914.2
1985.619	4882.2
1989.797	4866.2
1993.971	4818.2
1998.14	4839.2
2002.306	4800.2
2006.469	4765.2
2010.627	4733.2
2014.781	4730.2
2018.932	4702.2
2023.078	4656.2
2027.221	4561.2
2031.36	4504.2
2035.495	4448.2
2039.627	4396.2
2043.754	4310.2
2047.878	4279.2
2051.998	4254.2
2056.114	4249.2
2060.226	4237.2
2064.334	4203.2
2068.439	4250.2
2072.54	4252.2
2076.637	4305.2
2080.73	4314.2
2084.82	4327.2
2088.906	4341.2
2092.988	4362.2
2097.066	4314.2
2101.14	4283.2
2105.211	4268.2
2109.278	4259.2
2113.342	4222.2
2117.401	4176.2
2121.457	4152.2
2125.509	4140.2
2129.558	4102.2
2133.602	4100.2
2137.643	4072.2
2141.681	4067.2
2145.714	4060.2
2149.744	4013.2
2153.77	4036.2
2157.793	3976.2
2161.812	3914.2
2165.827	3846.2
2169.838	3799.2
2173.846	3717.2
2177.851	3682.2
2181.851	3621.2
2185.848	3586.2
2189.841	3536.2
2193.831	3515.2
2197.817	3495.2
2201.799	3489.2
2205.778	3464.2
2209.753	3450.2
2213.725	3433.2
2217.693	3418.2
2221.657	3414.2
2225.618	3394.2
2229.575	3380.2
2233.529	3337.2
2237.479	3316.2
2241.425	3301.2
2245.368	3223.2
2249.307	3197.2
2253.243	3144.2
2257.175	3131.2
2261.104	3063.2
2265.029	3015.2
2268.95	3001.2
2272.868	2956.2
2276.783	2941.2
2280.694	2925.2
2284.601	2878.2
2288.505	2862.2
2292.405	2847.2
2296.302	2821.2
2300.195	2788.2
2304.085	2719.2
2307.971	2697.2
2311.854	2670.2
2315.734	2630.2
2319.609	2597.2
2323.482	2525.2
2327.351	2522.2
2331.216	2534.2
2335.078	2508.2
2338.937	2503.2
2342.792	2478.2
2346.643	2494.2
2350.492	2490.2
2354.336	2482.2
2358.178	2468.2
2362.015	2504.2
2365.85	2501.2
2369.681	2510.2
2373.508	2510.2
2377.333	2514.2
2381.153	2530.2
2384.971	2497.2
2388.785	2471.2
2392.595	2447.2
2396.402	2413.2
2400.206	2389.2
2404.007	2392.2
2407.804	2369.2
2411.597	2356.2
2415.388	2353.2
2419.174	2331.2
2422.958	2321.2
2426.738	2311.2
2430.515	2282.2
2434.289	2280.2
2438.059	2244.2
2441.825	2224.2
2445.589	2194.2
2449.349	2191.2
2453.106	2121.2
2456.859	2122.2
2460.61	2088.2
2464.356	2082.2
2468.1	2048.2
2471.84	2035.2
2475.577	2018.2
2479.311	1991.2
2483.041	1978.2
2486.768	1975.2
2490.492	1974.2
2494.213	1953.2
2497.93	1933.2
2501.644	1942.2
2505.355	1900.2
2509.062	1929.2
2512.766	1897.2
2516.467	1903.2
2520.165	1889.2
2523.859	1867.2
2527.551	1834.2
2531.239	1810.2
2534.923	1812.2
2538.605	1785.2
2542.283	1818.2
2545.958	1804.2
2549.63	1789.2
2553.299	1777.2
2556.964	1801.2
2560.626	1772.2
2564.285	1757.2
2567.941	1753.2
2571.594	1741.2
2575.243	1748.2
2578.89	1709.2
2582.533	1693.2
2586.173	1694.2
2589.809	1683.2
2593.443	1651.2
2597.073	1647.2
2600.701	1640.2
2604.325	1622.2
2607.946	1605.2
2611.564	1583.2
2615.178	1602.2
2618.79	1587.2
2622.398	1557.2
2626.004	1547.2
2629.606	1537.2
2633.205	1513.2
2636.801	1479.2
2640.394	1484.2
2643.983	1448.2
2647.57	1426.2
2651.153	1427.2
2654.734	1385.2
2658.311	1375.2
2661.885	1343.2
2665.456	1319.2
2669.025	1324.2
2672.589	1300.2
2676.151	1289.2
2679.71	1279.2
2683.266	1241.2
2686.819	1226.2
2690.368	1196.2
2693.915	1194.2
2697.458	1155.2
2700.999	1121.2
2704.536	1107.2
2708.071	1064.2
2711.602	1036.2
2715.13	1012.2
2718.656	1004.2
2722.178	984.2
2725.697	962.2
2729.214	948.2
2732.727	932.2
2736.237	946.2
2739.744	952.2
2743.249	936.2
2746.75	927.2
2750.248	945.2
2753.743	949.2
2757.236	960.2
2760.725	962.2
2764.211	962.2
2767.695	967.2
2771.175	978.2
2774.652	962.2
2778.127	970.2
2781.598	956.2
2785.067	934.2
2788.532	951.2
2791.995	947.2
2795.455	944.2
2798.911	956.2
2802.365	945.2
2805.816	961.2
2809.264	959.2
2812.709	965.2
2816.151	940.2
2819.59	963.2
2823.026	928.2
2826.46	956.2
2829.89	965.2
2833.318	947.2
2836.742	964.2
2840.164	963.2
2843.583	975.2
2846.999	986.2
2850.412	995.2
2853.822	1003.2
2857.229	1016.2
2860.634	1035.2
2864.035	1047.2
2867.434	1075.2
2870.83	1084.2
2874.223	1126.2
2877.613	1146.2
2881	1148.2
2884.385	1167.2
2887.766	1165.2
2891.145	1174.2
2894.521	1138.2
2897.894	1158.2
2901.264	1150.2
2904.631	1173.2
2907.996	1161.2
2911.358	1166.2
2914.717	1176.2
2918.073	1198.2
2921.426	1193.2
2924.777	1225.2
2928.124	1224.2
2931.469	1278.2
2934.811	1295.2
2938.15	1296.2
2941.487	1300.2
2944.821	1309.2
2948.152	1319.2
2951.48	1302.2
2954.805	1295.2
2958.128	1280.2
2961.447	1265.2
2964.765	1265.2
2968.079	1267.2
2971.39	1263.2
2974.699	1295.2
2978.005	1298.2
2981.308	1333.2
2984.609	1356.2
2987.907	1380.2
2991.202	1414.2
2994.494	1437.2
2997.784	1483.2
3001.07	1499.2
3004.355	1510.2
3007.636	1547.2
3010.915	1567.2
3014.191	1585.2
3017.464	1578.2
3020.734	1591.2
3024.002	1595.2
3027.267	1622.2
3030.53	1627.2
3033.789	1664.2
3037.046	1677.2
3040.301	1685.2
3043.552	1761.2
3046.801	1782.2
3050.048	1823.2
3053.291	1878.2
3056.532	1936.2
3059.771	1985.2
3063.006	2008.2
3066.239	2090.2
3069.469	2141.2
3072.697	2204.2
3075.922	2267.2
3079.144	2307.2
3082.364	2382.2
3085.581	2412.2
3088.795	2481.2
3092.007	2514.2
3095.216	2591.2
3098.423	2626.2
3101.627	2700.2
3104.828	2764.2
3108.026	2808.2
3111.222	2887.2
3114.416	2950.2
3117.607	3045.2
3120.795	3074.2
3123.98	3180.2
3127.163	3211.2
3130.344	3335.2
3133.521	3357.2
3136.696	3454.2
3139.869	3526.2
3143.039	3578.2
3146.206	3648.2
3149.371	3684.2
3152.533	3729.2
3155.693	3746.2
3158.85	3747.2
3162.005	3797.2
3165.157	3804.2
3168.306	3810.2
3171.453	3821.2
3174.597	3809.2
3177.739	3840.2
3180.878	3825.2
3184.014	3830.2
3187.149	3852.2
3190.28	3842.2
3193.409	3830.2
3196.536	3854.2
3199.659	3859.2
3202.781	3870.2
3205.9	3820.2
3209.016	3858.2
3212.13	3818.2
3215.241	3781.2
3218.35	3749.2
3221.456	3711.2
3224.56	3690.2
3227.661	3669.2
3230.76	3605.2
3233.856	3575.2
3236.95	3540.2
3240.041	3468.2
3243.13	3468.2
3246.216	3435.2
3249.3	3422.2
3252.382	3404.2
3255.46	3370.2
3258.537	3377.2
3261.611	3384.2
3264.682	3394.2
3267.751	3390.2
3270.818	3378.2
3273.882	3372.2
3276.943	3348.2
3280.002	3319.2
3283.059	3296.2
3286.113	3243.2
3289.165	3191.2
3292.214	3186.2
3295.261	3106.2
3298.306	3067.2
3301.348	3009.2
3304.387	2946.2
3307.425	2923.2
3310.459	2879.2
3313.492	2828.2
3316.521	2796.2
3319.549	2782.2
3322.574	2723.2
3325.597	2687.2
3328.617	2696.2
3331.635	2677.2
3334.65	2661.2
3337.663	2644.2
3340.674	2644.2
3343.682	2631.2
3346.688	2613.2
3349.691	2621.2
3352.692	2586.2
3355.691	2569.2
3358.687	2535.2
3361.681	2501.2
3364.673	2479.2
3367.662	2418.2
3370.649	2403.2
3373.633	2359.2
3376.615	2304.2
3379.595	2302.2
3382.572	2254.2
3385.547	2224.2
3388.52	2198.2
3391.49	2163.2
3394.458	2109.2
3397.424	2095.2
3400.387	2065.2
3403.348	2038.2
3406.307	2028.2
3409.263	1990.2
3412.217	1964.2
3415.168	1947.2
3418.118	1927.2
3421.065	1899.2
3424.009	1858.2
3426.951	1857.2
3429.891	1802.2
3432.829	1776.2
3435.764	1729.2
3438.697	1666.2
3441.628	1628.2
3444.557	1582.2
3447.483	1529.2
3450.407	1493.2
3453.328	1438.2
3456.247	1370.2
3459.164	1307.2
3462.079	1284.2
3464.991	1234.2
3467.902	1174.2
3470.809	1136.2
3473.715	1104.2
3476.618	1046.2
3479.519	1011.2
3482.418	980.2
3485.315	945.2
3488.209	890.2
3491.101	872.2
3493.99	856.2
3496.878	796.2
3499.763	773.2
3502.646	727.2
3505.527	701.2
3508.405	649.2
3511.281	628.2
3514.155	587.2
3517.027	544.2
3519.897	516.2
3522.764	490.2
3525.629	414.2
3528.492	395.2
3531.352	349.2
3534.211	322.2
3537.067	295.2
3539.921	253.2
3542.773	227.2
3545.622	199.2
3548.469	165.2
3551.315	133.2
3554.157	119.2
3556.998	79.2
3559.837	69.2
3562.673	34.2
3565.507	19.2
3568.339	0.2
3571.169	-24.8
3573.996	-39.8
3576.822	-61.8
3579.645	-80.8
3582.466	-94.8
3585.285	-105.8
3588.101	-125.8
3590.916	-146.8
3593.728	-176.8
3596.538	-185.8
3599.346	-189.8
3602.152	-218.8
3604.956	-227.8
3607.757	-243.8
3610.556	-258.8
3613.354	-278.8
3616.149	-281.8
3618.942	-296.8
3621.732	-309.8
3624.521	-316.8
3627.307	-325.8
3630.092	-332.8
3632.874	-344.8
3635.654	-349.8
3638.432	-354.8
3641.208	-366.8
3643.982	-383.8
3646.753	-383.8
3649.523	-401.8
3652.29	-399.8
3655.055	-413.8
3657.818	-424.8
3660.579	-426.8
3663.338	-435.8
3666.095	-438.8
3668.849	-463.8
3671.602	-468.8
3674.352	-470.8
3677.101	-473.8
3679.847	-489.8
3682.591	-484.8
3685.333	-491.8
3688.073	-502.8
3690.811	-507.8
3693.547	-505.8
3696.281	-526.8
3699.013	-512.8
3701.742	-530.8
3704.47	-526.8
3707.195	-543.8
3709.919	-545.8
3712.64	-546.8
3715.359	-543.8
3718.076	-548.8
3720.792	-553.8
3723.505	-551.8
3726.216	-558.8
3728.925	-556.8
3731.632	-568.8
3734.336	-566.8
3737.039	-576.8
3739.74	-570.8
3742.439	-579.8
3745.136	-579.8
3747.83	-583.8
3750.523	-581.8
3753.213	-589.8
3755.902	-586.8
3758.589	-586.8
3761.273	-579.8
3763.956	-589.8
3766.636	-589.8
3769.315	-594.8
3771.991	-593.8
3774.665	-594.8
3777.338	-595.8
3780.008	-595.8
3782.677	-597.8
3785.343	-601.8
3788.007	-596.8
3790.67	-606.8
3793.33	-611.8
3795.989	-606.8
3798.645	-610.8
3801.299	-609.8
3803.952	-615.8
3806.602	-608.8
3809.251	-614.8
3811.897	-609.8
3814.542	-602.8
3817.184	-612.8
3819.825	-609.8
3822.463	-610.8
3825.1	-615.8
3827.735	-623.8
3830.367	-622.8
3832.998	-621.8
3835.627	-623.8
3838.253	-627.8
3840.878	-625.8
3843.501	-627.8
3846.122	-621.8
3848.741	-620.8
3851.358	-629.8
3853.973	-623.8
3856.586	-619.8
3859.197	-625.8
3861.806	-624.8
3864.414	-616.8
3867.019	-618.8
3869.622	-624.8
3872.224	-626.8
3874.823	-617.8
3877.421	-597.8
3880.016	-589.8
3882.61	-563.8
3885.202	-562.8
3887.792	-582.8
3890.38	-601.8
3892.966	-619.8
3895.55	-625.8
3898.132	-623.8
3900.713	-632.8
3903.291	-633.8
3905.868	-637.8
3908.442	-637.8
3911.015	-636.8
3913.586	-636.8
3916.155	-634.8
3918.722	-633.8
3921.287	-633.8
3923.85	-640.8
3926.411	-636.8
3928.971	-641.8
3931.528	-643.8
3934.084	-633.8
3936.638	-635.8
3939.19	-640.8
3941.74	-643.8
3944.288	-641.8
3946.834	-646.8
3949.378	-639.8
3951.921	-635.8
3954.462	-640.8
3957	-634.8
3959.537	-633.8
3962.072	-641.8
3964.606	-632.8
3967.137	-641.8
3969.667	-639.8
3972.194	-635.8
3974.72	-634.8
3977.244	-632.8
3979.766	-633.8
3982.286	-626.8
3984.805	-624.8
3987.321	-626.8
3989.836	-627.8
3992.349	-630.8
3994.86	-623.8
3997.369	-634.8
3999.877	-627.8
4002.382	-619.8
4004.886	-627.8
4007.388	-626.8
4009.888	-624.8
4012.386	-621.8
4014.883	-625.8
4017.377	-626.8
4019.87	-627.8
4022.361	-630.8
4024.85	-630.8
4027.338	-629.8
4029.823	-627.8
4032.307	-630.8
4034.789	-631.8
4037.269	-633.8
4039.747	-632.8
4042.224	-624.8
4044.699	-624.8
4047.172	-621.8
4049.643	-527.8
4052.112	-609.8
4054.58	-624.8
4057.046	-632.8
4059.51	-630.8
4061.972	-635.8
4064.432	-629.8
4066.891	-631.8
4069.348	-628.8
4071.803	-632.8
4074.256	-627.8
4076.708	-626.8
4079.158	-630.8
4081.606	-625.8
4084.052	-624.8
4086.497	-630.8
4088.939	-620.8
4091.38	-621.8
4093.819	-626.8
4096.257	-662.8
4098.693	-664.8
4101.127	-662.8
4103.559	-665.8
4105.989	-395.8
4108.418	-385.8
4110.845	-361.8
4113.27	-334.8
4115.694	-294.8
4118.115	-238.8
4120.535	-625.8
4122.954	-629.8
4125.37	-630.8
4127.785	-627.8
4130.198	-630.8
4132.609	-624.8
4135.019	-669.8
4137.427	-665.8
4139.833	-663.8
4142.237	-661.8
