Data from 2018-2-7_conc=3_RamanShift_16.txt Node
Date: Tue Feb 13 12:31:44 IST 2018
User: aro
Spectrometer: QEPB0276
Trigger mode: 0
Integration Time (sec): 3.000000E1
Scans to average: 1
Electric dark correction enabled: true
Nonlinearity correction enabled: false
Boxcar width: 0
XAxis mode: Raman Shifts
Number of Pixels in Spectrum: 1044
>>>>>Begin Spectral Data<<<<<
160.701	-155.9
166.742	26.1
172.777	579.1
178.805	2202.1
184.826	6091.1
190.841	12498.1
196.849	19799.1
202.85	24842.1
208.845	26353.1
214.833	26079.1
220.815	25550.1
226.789	25409.1
232.758	25236.1
238.719	25077.1
244.674	24666.1
250.623	24160.1
256.565	23707.1
262.5	23120.1
268.429	22778.1
274.351	22356.1
280.267	22039.1
286.176	21771.1
292.079	21527.1
297.975	21293.1
303.865	21153.1
309.748	20965.1
315.625	20799.1
321.495	20644.1
327.359	20625.1
333.217	20522.1
339.068	20467.1
344.912	20530.1
350.751	20438.1
356.583	20434.1
362.408	20398.1
368.227	20388.1
374.04	20447.1
379.847	20506.1
385.647	20610.1
391.44	20662.1
397.228	20758.1
403.009	20845.1
408.784	20923.1
414.553	20993.1
420.315	20997.1
426.071	21031.1
431.821	21024.1
437.565	20968.1
443.302	20936.1
449.033	20880.1
454.758	20869.1
460.477	20817.1
466.189	20823.1
471.896	20705.1
477.596	20662.1
483.29	20626.1
488.978	20657.1
494.66	20519.1
500.335	20407.1
506.005	20196.1
511.668	19899.1
517.325	19695.1
522.977	19543.1
528.622	19364.1
534.261	19238.1
539.894	19148.1
545.521	19094.1
551.141	18973.1
556.756	19008.1
562.365	18922.1
567.968	18869.1
573.565	18705.1
579.155	18691.1
584.74	18586.1
590.319	18544.1
595.892	18481.1
601.459	18397.1
607.02	18306.1
612.575	18142.1
618.124	18047.1
623.667	18020.1
629.204	17919.1
634.735	17851.1
640.261	17705.1
645.781	17672.1
651.294	17594.1
656.802	17629.1
662.304	17586.1
667.8	17565.1
673.29	17542.1
678.775	17492.1
684.254	17397.1
689.726	17395.1
695.193	17315.1
700.655	17292.1
706.11	17126.1
711.56	17089.1
717.004	16999.1
722.442	16888.1
727.874	16854.1
733.301	16788.1
738.722	16724.1
744.137	16728.1
749.547	16728.1
754.951	16702.1
760.349	16730.1
765.741	16689.1
771.128	16745.1
776.509	16723.1
781.885	16693.1
787.254	16643.1
792.618	16593.1
797.977	16511.1
803.33	16374.1
808.677	16344.1
814.019	16219.1
819.355	16113.1
824.686	16084.1
830.011	16068.1
835.33	16028.1
840.644	16043.1
845.952	16100.1
851.255	16087.1
856.552	16138.1
861.844	16112.1
867.13	16065.1
872.41	16039.1
877.686	15915.1
882.955	15759.1
888.219	15627.1
893.478	15460.1
898.731	15261.1
903.979	15129.1
909.221	14977.1
914.458	14947.1
919.69	14955.1
924.916	14990.1
930.136	15045.1
935.351	15037.1
940.561	15082.1
945.766	15068.1
950.965	14936.1
956.158	14887.1
961.347	14688.1
966.529	14527.1
971.707	14326.1
976.879	14206.1
982.046	14040.1
987.208	14004.1
992.364	14032.1
997.515	14074.1
1002.66	14191.1
1007.801	14369.1
1012.936	14454.1
1018.066	14507.1
1023.19	14479.1
1028.309	14456.1
1033.423	14418.1
1038.532	14339.1
1043.636	14231.1
1048.734	14059.1
1053.827	13880.1
1058.915	13714.1
1063.998	13623.1
1069.075	13618.1
1074.147	13654.1
1079.214	13678.1
1084.276	13771.1
1089.333	13854.1
1094.385	13889.1
1099.431	13885.1
1104.472	13852.1
1109.509	13791.1
1114.54	13686.1
1119.565	13512.1
1124.586	13352.1
1129.602	13237.1
1134.613	13126.1
1139.618	13085.1
1144.619	13015.1
1149.614	13036.1
1154.604	13027.1
1159.589	13075.1
1164.57	13083.1
1169.545	13124.1
1174.515	13120.1
1179.48	13013.1
1184.44	12983.1
1189.395	12846.1
1194.345	12794.1
1199.29	12669.1
1204.23	12728.1
1209.165	12803.1
1214.095	12807.1
1219.021	12868.1
1223.941	12963.1
1228.856	13006.1
1233.766	13037.1
1238.672	13085.1
1243.572	13057.1
1248.467	12922.1
1253.358	12854.1
1258.244	12602.1
1263.124	12473.1
1268	12298.1
1272.871	12140.1
1277.737	12052.1
1282.599	11952.1
1287.455	11962.1
1292.306	11982.1
1297.153	12025.1
1301.995	12102.1
1306.832	12109.1
1311.664	12135.1
1316.491	12099.1
1321.314	11958.1
1326.132	11783.1
1330.945	11511.1
1335.753	11222.1
1340.556	10953.1
1345.354	10780.1
1350.148	10610.1
1354.937	10543.1
1359.722	10536.1
1364.501	10589.1
1369.276	10687.1
1374.046	10824.1
1378.811	10941.1
1383.572	11075.1
1388.327	11140.1
1393.079	11050.1
1397.825	10940.1
1402.567	10768.1
1407.304	10605.1
1412.036	10553.1
1416.764	10470.1
1421.487	10396.1
1426.205	10357.1
1430.919	10303.1
1435.628	10288.1
1440.333	10340.1
1445.032	10370.1
1449.727	10400.1
1454.418	10339.1
1459.104	10226.1
1463.785	10055.1
1468.462	9807.1
1473.134	9670.1
1477.802	9460.1
1482.465	9311.1
1487.123	9191.1
1491.777	9156.1
1496.426	9220.1
1501.071	9331.1
1505.711	9458.1
1510.347	9615.1
1514.978	9767.1
1519.604	9914.1
1524.226	10027.1
1528.844	10043.1
1533.457	10020.1
1538.065	9922.1
1542.669	9873.1
1547.269	9761.1
1551.864	9763.1
1556.454	9701.1
1561.041	9710.1
1565.622	9702.1
1570.199	9686.1
1574.772	9770.1
1579.34	9819.1
1583.904	9879.1
1588.464	9963.1
1593.019	9906.1
1597.569	9911.1
1602.115	9864.1
1606.657	9786.1
1611.195	9721.1
1615.728	9668.1
1620.256	9691.1
1624.78	9593.1
1629.3	9623.1
1633.816	9692.1
1638.327	9713.1
1642.834	9744.1
1647.336	9802.1
1651.834	9848.1
1656.328	9824.1
1660.817	9765.1
1665.302	9667.1
1669.783	9474.1
1674.259	9262.1
1678.732	9039.1
1683.199	8680.1
1687.663	8412.1
1692.122	8134.1
1696.577	8032.1
1701.028	8009.1
1705.474	8059.1
1709.917	8116.1
1714.355	8155.1
1718.788	8087.1
1723.218	7978.1
1727.643	7808.1
1732.064	7675.1
1736.481	7476.1
1740.893	7314.1
1745.301	7127.1
1749.705	6932.1
1754.105	6744.1
1758.501	6534.1
1762.893	6354.1
1767.28	6233.1
1771.663	6098.1
1776.042	5945.1
1780.417	5932.1
1784.787	5956.1
1789.154	5964.1
1793.516	6044.1
1797.874	6185.1
1802.228	6282.1
1806.578	6350.1
1810.924	6314.1
1815.266	6270.1
1819.603	6189.1
1823.937	6126.1
1828.266	6006.1
1832.591	5876.1
1836.913	5846.1
1841.23	5800.1
1845.543	5767.1
1849.852	5737.1
1854.156	5719.1
1858.457	5690.1
1862.754	5654.1
1867.047	5691.1
1871.335	5688.1
1875.62	5688.1
1879.9	5642.1
1884.177	5585.1
1888.449	5534.1
1892.718	5500.1
1896.982	5446.1
1901.243	5397.1
1905.499	5317.1
1909.752	5324.1
1914	5333.1
1918.245	5350.1
1922.485	5384.1
1926.722	5429.1
1930.954	5487.1
1935.183	5550.1
1939.408	5588.1
1943.628	5655.1
1947.845	5665.1
1952.058	5651.1
1956.267	5577.1
1960.472	5526.1
1964.673	5453.1
1968.87	5349.1
1973.063	5273.1
1977.252	5214.1
1981.438	5134.1
1985.619	5077.1
1989.797	5077.1
1993.971	5069.1
1998.14	5006.1
2002.306	4987.1
2006.469	4974.1
2010.627	4925.1
2014.781	4888.1
2018.932	4864.1
2023.078	4819.1
2027.221	4749.1
2031.36	4699.1
2035.495	4625.1
2039.627	4561.1
2043.754	4497.1
2047.878	4458.1
2051.998	4437.1
2056.114	4400.1
2060.226	4419.1
2064.334	4447.1
2068.439	4431.1
2072.54	4465.1
2076.637	4491.1
2080.73	4524.1
2084.82	4530.1
2088.906	4544.1
2092.988	4541.1
2097.066	4561.1
2101.14	4495.1
2105.211	4496.1
2109.278	4454.1
2113.342	4429.1
2117.401	4394.1
2121.457	4381.1
2125.509	4376.1
2129.558	4328.1
2133.602	4308.1
2137.643	4309.1
2141.681	4276.1
2145.714	4247.1
2149.744	4219.1
2153.77	4161.1
2157.793	4148.1
2161.812	4105.1
2165.827	4014.1
2169.838	3979.1
2173.846	3921.1
2177.851	3821.1
2181.851	3776.1
2185.848	3733.1
2189.841	3729.1
2193.831	3669.1
2197.817	3632.1
2201.799	3620.1
2205.778	3601.1
2209.753	3582.1
2213.725	3545.1
2217.693	3578.1
2221.657	3563.1
2225.618	3526.1
2229.575	3519.1
2233.529	3489.1
2237.479	3479.1
2241.425	3444.1
2245.368	3383.1
2249.307	3348.1
2253.243	3285.1
2257.175	3232.1
2261.104	3207.1
2265.029	3181.1
2268.95	3174.1
2272.868	3094.1
2276.783	3034.1
2280.694	3029.1
2284.601	2982.1
2288.505	2937.1
2292.405	2947.1
2296.302	2913.1
2300.195	2895.1
2304.085	2833.1
2307.971	2817.1
2311.854	2790.1
2315.734	2707.1
2319.609	2701.1
2323.482	2646.1
2327.351	2617.1
2331.216	2621.1
2335.078	2590.1
2338.937	2591.1
2342.792	2556.1
2346.643	2566.1
2350.492	2582.1
2354.336	2579.1
2358.178	2576.1
2362.015	2557.1
2365.85	2585.1
2369.681	2582.1
2373.508	2567.1
2377.333	2584.1
2381.153	2566.1
2384.971	2559.1
2388.785	2561.1
2392.595	2521.1
2396.402	2484.1
2400.206	2474.1
2404.007	2453.1
2407.804	2411.1
2411.597	2441.1
2415.388	2412.1
2419.174	2403.1
2422.958	2375.1
2426.738	2353.1
2430.515	2345.1
2434.289	2317.1
2438.059	2290.1
2441.825	2289.1
2445.589	2268.1
2449.349	2215.1
2453.106	2194.1
2456.859	2166.1
2460.61	2167.1
2464.356	2114.1
2468.1	2105.1
2471.84	2109.1
2475.577	2054.1
2479.311	2065.1
2483.041	2038.1
2486.768	2029.1
2490.492	2028.1
2494.213	2026.1
2497.93	2005.1
2501.644	2006.1
2505.355	1988.1
2509.062	1960.1
2512.766	1972.1
2516.467	1957.1
2520.165	1922.1
2523.859	1920.1
2527.551	1905.1
2531.239	1905.1
2534.923	1893.1
2538.605	1854.1
2542.283	1857.1
2545.958	1870.1
2549.63	1877.1
2553.299	1845.1
2556.964	1851.1
2560.626	1841.1
2564.285	1840.1
2567.941	1826.1
2571.594	1836.1
2575.243	1797.1
2578.89	1791.1
2582.533	1785.1
2586.173	1768.1
2589.809	1753.1
2593.443	1730.1
2597.073	1703.1
2600.701	1697.1
2604.325	1688.1
2607.946	1662.1
2611.564	1659.1
2615.178	1661.1
2618.79	1650.1
2622.398	1644.1
2626.004	1616.1
2629.606	1576.1
2633.205	1575.1
2636.801	1551.1
2640.394	1540.1
2643.983	1500.1
2647.57	1506.1
2651.153	1462.1
2654.734	1436.1
2658.311	1423.1
2661.885	1391.1
2665.456	1407.1
2669.025	1356.1
2672.589	1356.1
2676.151	1333.1
2679.71	1331.1
2683.266	1285.1
2686.819	1265.1
2690.368	1246.1
2693.915	1235.1
2697.458	1191.1
2700.999	1172.1
2704.536	1131.1
2708.071	1123.1
2711.602	1098.1
2715.13	1067.1
2718.656	1038.1
2722.178	1036.1
2725.697	1016.1
2729.214	1000.1
2732.727	993.1
2736.237	979.1
2739.744	994.1
2743.249	1000.1
2746.75	996.1
2750.248	1012.1
2753.743	1015.1
2757.236	1034.1
2760.725	1040.1
2764.211	1041.1
2767.695	1046.1
2771.175	1053.1
2774.652	1030.1
2778.127	1016.1
2781.598	1014.1
2785.067	1029.1
2788.532	1023.1
2791.995	1030.1
2795.455	1011.1
2798.911	1019.1
2802.365	1024.1
2805.816	1036.1
2809.264	1025.1
2812.709	1026.1
2816.151	1012.1
2819.59	1008.1
2823.026	1008.1
2826.46	1008.1
2829.89	1014.1
2833.318	1015.1
2836.742	1034.1
2840.164	1049.1
2843.583	1047.1
2846.999	1044.1
2850.412	1057.1
2853.822	1085.1
2857.229	1098.1
2860.634	1102.1
2864.035	1133.1
2867.434	1149.1
2870.83	1154.1
2874.223	1187.1
2877.613	1210.1
2881	1221.1
2884.385	1229.1
2887.766	1218.1
2891.145	1223.1
2894.521	1230.1
2897.894	1227.1
2901.264	1236.1
2904.631	1213.1
2907.996	1219.1
2911.358	1237.1
2914.717	1234.1
2918.073	1247.1
2921.426	1262.1
2924.777	1282.1
2928.124	1311.1
2931.469	1330.1
2934.811	1354.1
2938.15	1367.1
2941.487	1361.1
2944.821	1389.1
2948.152	1385.1
2951.48	1372.1
2954.805	1354.1
2958.128	1333.1
2961.447	1336.1
2964.765	1331.1
2968.079	1326.1
2971.39	1332.1
2974.699	1348.1
2978.005	1373.1
2981.308	1422.1
2984.609	1440.1
2987.907	1452.1
2991.202	1500.1
2994.494	1516.1
2997.784	1552.1
3001.07	1584.1
3004.355	1614.1
3007.636	1627.1
3010.915	1642.1
3014.191	1641.1
3017.464	1687.1
3020.734	1686.1
3024.002	1691.1
3027.267	1679.1
3030.53	1711.1
3033.789	1749.1
3037.046	1766.1
3040.301	1785.1
3043.552	1822.1
3046.801	1865.1
3050.048	1900.1
3053.291	1967.1
3056.532	1996.1
3059.771	2043.1
3063.006	2138.1
3066.239	2196.1
3069.469	2254.1
3072.697	2299.1
3075.922	2338.1
3079.144	2417.1
3082.364	2475.1
3085.581	2497.1
3088.795	2571.1
3092.007	2636.1
3095.216	2693.1
3098.423	2743.1
3101.627	2826.1
3104.828	2868.1
3108.026	2899.1
3111.222	2990.1
3114.416	3049.1
3117.607	3150.1
3120.795	3212.1
3123.98	3277.1
3127.163	3347.1
3130.344	3453.1
3133.521	3515.1
3136.696	3595.1
3139.869	3656.1
3143.039	3735.1
3146.206	3779.1
3149.371	3845.1
3152.533	3848.1
3155.693	3860.1
3158.85	3925.1
3162.005	3881.1
3165.157	3962.1
3168.306	3944.1
3171.453	3962.1
3174.597	3966.1
3177.739	3950.1
3180.878	3997.1
3184.014	3948.1
3187.149	3977.1
3190.28	3987.1
3193.409	3998.1
3196.536	3995.1
3199.659	4008.1
3202.781	4034.1
3205.9	4012.1
3209.016	4014.1
3212.13	3978.1
3215.241	3944.1
3218.35	3946.1
3221.456	3890.1
3224.56	3859.1
3227.661	3794.1
3230.76	3766.1
3233.856	3740.1
3236.95	3695.1
3240.041	3663.1
3243.13	3636.1
3246.216	3595.1
3249.3	3604.1
3252.382	3583.1
3255.46	3592.1
3258.537	3531.1
3261.611	3567.1
3264.682	3542.1
3267.751	3527.1
3270.818	3539.1
3273.882	3508.1
3276.943	3493.1
3280.002	3451.1
3283.059	3445.1
3286.113	3402.1
3289.165	3350.1
3292.214	3313.1
3295.261	3241.1
3298.306	3207.1
3301.348	3157.1
3304.387	3065.1
3307.425	3028.1
3310.459	3009.1
3313.492	2947.1
3316.521	2921.1
3319.549	2880.1
3322.574	2848.1
3325.597	2811.1
3328.617	2814.1
3331.635	2795.1
3334.65	2784.1
3337.663	2760.1
3340.674	2755.1
3343.682	2740.1
3346.688	2742.1
3349.691	2724.1
3352.692	2684.1
3355.691	2686.1
3358.687	2648.1
3361.681	2620.1
3364.673	2576.1
3367.662	2530.1
3370.649	2504.1
3373.633	2486.1
3376.615	2446.1
3379.595	2420.1
3382.572	2368.1
3385.547	2309.1
3388.52	2300.1
3391.49	2270.1
3394.458	2235.1
3397.424	2175.1
3400.387	2152.1
3403.348	2159.1
3406.307	2130.1
3409.263	2110.1
3412.217	2071.1
3415.168	2051.1
3418.118	2033.1
3421.065	1978.1
3424.009	1968.1
3426.951	1927.1
3429.891	1895.1
3432.829	1861.1
3435.764	1807.1
3438.697	1757.1
3441.628	1721.1
3444.557	1660.1
3447.483	1618.1
3450.407	1559.1
3453.328	1500.1
3456.247	1469.1
3459.164	1401.1
3462.079	1359.1
3464.991	1326.1
3467.902	1256.1
3470.809	1222.1
3473.715	1165.1
3476.618	1125.1
3479.519	1091.1
3482.418	1052.1
3485.315	1002.1
3488.209	971.1
3491.101	944.1
3493.99	907.1
3496.878	867.1
3499.763	842.1
3502.646	811.1
3505.527	760.1
3508.405	725.1
3511.281	680.1
3514.155	633.1
3517.027	605.1
3519.897	561.1
3522.764	534.1
3525.629	493.1
3528.492	445.1
3531.352	404.1
3534.211	373.1
3537.067	322.1
3539.921	291.1
3542.773	262.1
3545.622	227.1
3548.469	200.1
3551.315	164.1
3554.157	143.1
3556.998	128.1
3559.837	88.1
3562.673	75.1
3565.507	52.1
3568.339	28.1
3571.169	7.1
3573.996	-11.9
3576.822	-22.9
3579.645	-47.9
3582.466	-81.9
3585.285	-83.9
3588.101	-99.9
3590.916	-117.9
3593.728	-148.9
3596.538	-168.9
3599.346	-181.9
3602.152	-197.9
3604.956	-217.9
3607.757	-233.9
3610.556	-236.9
3613.354	-259.9
3616.149	-273.9
3618.942	-280.9
3621.732	-292.9
3624.521	-302.9
3627.307	-312.9
3630.092	-329.9
3632.874	-323.9
3635.654	-343.9
3638.432	-347.9
3641.208	-352.9
3643.982	-366.9
3646.753	-375.9
3649.523	-386.9
3652.29	-393.9
3655.055	-398.9
3657.818	-409.9
3660.579	-427.9
3663.338	-435.9
3666.095	-440.9
3668.849	-458.9
3671.602	-457.9
3674.352	-460.9
3677.101	-470.9
3679.847	-484.9
3682.591	-484.9
3685.333	-487.9
3688.073	-498.9
3690.811	-501.9
3693.547	-499.9
3696.281	-523.9
3699.013	-518.9
3701.742	-524.9
3704.47	-533.9
3707.195	-536.9
3709.919	-534.9
3712.64	-542.9
3715.359	-540.9
3718.076	-540.9
3720.792	-554.9
3723.505	-546.9
3726.216	-558.9
3728.925	-556.9
3731.632	-570.9
3734.336	-567.9
3737.039	-573.9
3739.74	-570.9
3742.439	-572.9
3745.136	-579.9
3747.83	-578.9
3750.523	-579.9
3753.213	-590.9
3755.902	-583.9
3758.589	-584.9
3761.273	-581.9
3763.956	-589.9
3766.636	-589.9
3769.315	-590.9
3771.991	-594.9
3774.665	-593.9
3777.338	-594.9
3780.008	-593.9
3782.677	-599.9
3785.343	-594.9
3788.007	-595.9
3790.67	-604.9
3793.33	-605.9
3795.989	-610.9
3798.645	-606.9
3801.299	-610.9
3803.952	-616.9
3806.602	-610.9
3809.251	-615.9
3811.897	-610.9
3814.542	-603.9
3817.184	-611.9
3819.825	-614.9
3822.463	-611.9
3825.1	-618.9
3827.735	-621.9
3830.367	-616.9
3832.998	-622.9
3835.627	-622.9
3838.253	-628.9
3840.878	-622.9
3843.501	-628.9
3846.122	-623.9
3848.741	-620.9
3851.358	-627.9
3853.973	-619.9
3856.586	-622.9
3859.197	-624.9
3861.806	-619.9
3864.414	-617.9
3867.019	-618.9
3869.622	-617.9
3872.224	-622.9
3874.823	-608.9
3877.421	-592.9
3880.016	-573.9
3882.61	-533.9
3885.202	-535.9
3887.792	-565.9
3890.38	-592.9
3892.966	-611.9
3895.55	-625.9
3898.132	-632.9
3900.713	-633.9
3903.291	-635.9
3905.868	-642.9
3908.442	-631.9
3911.015	-629.9
3913.586	-634.9
3916.155	-635.9
3918.722	-632.9
3921.287	-639.9
3923.85	-632.9
3926.411	-635.9
3928.971	-634.9
3931.528	-637.9
3934.084	-634.9
3936.638	-640.9
3939.19	-644.9
3941.74	-645.9
3944.288	-644.9
3946.834	-645.9
3949.378	-645.9
3951.921	-641.9
3954.462	-643.9
3957	-633.9
3959.537	-633.9
3962.072	-636.9
3964.606	-633.9
3967.137	-639.9
3969.667	-637.9
3972.194	-630.9
3974.72	-634.9
3977.244	-629.9
3979.766	-631.9
3982.286	-626.9
3984.805	-618.9
3987.321	-625.9
3989.836	-632.9
3992.349	-629.9
3994.86	-628.9
3997.369	-635.9
3999.877	-623.9
4002.382	-624.9
4004.886	-622.9
4007.388	-627.9
4009.888	-620.9
4012.386	-622.9
4014.883	-619.9
4017.377	-622.9
4019.87	-620.9
4022.361	-625.9
4024.85	-624.9
4027.338	-630.9
4029.823	-624.9
4032.307	-632.9
4034.789	-631.9
4037.269	-634.9
4039.747	-634.9
4042.224	-628.9
4044.699	-636.9
4047.172	-635.9
4049.643	-633.9
4052.112	-628.9
4054.58	-625.9
4057.046	-631.9
4059.51	-632.9
4061.972	-630.9
4064.432	-628.9
4066.891	-626.9
4069.348	-626.9
4071.803	-630.9
4074.256	-626.9
4076.708	-626.9
4079.158	-629.9
4081.606	-623.9
4084.052	-626.9
4086.497	-630.9
4088.939	-623.9
4091.38	-623.9
4093.819	-622.9
4096.257	-660.9
4098.693	-664.9
4101.127	-664.9
4103.559	-669.9
4105.989	-396.9
4108.418	-377.9
4110.845	-358.9
4113.27	-325.9
4115.694	-288.9
4118.115	-243.9
4120.535	-624.9
4122.954	-631.9
4125.37	-628.9
4127.785	-626.9
4130.198	-632.9
4132.609	-622.9
4135.019	-664.9
4137.427	-662.9
4139.833	-662.9
4142.237	-660.9
