Data from 2018-2-7_conc=5_RamanShift_23.txt Node
Date: Tue Feb 13 14:13:13 IST 2018
User: aro
Spectrometer: QEPB0276
Trigger mode: 0
Integration Time (sec): 3.000000E1
Scans to average: 1
Electric dark correction enabled: true
Nonlinearity correction enabled: false
Boxcar width: 0
XAxis mode: Raman Shifts
Number of Pixels in Spectrum: 1044
>>>>>Begin Spectral Data<<<<<
160.701	-151.2
166.742	20.8
172.777	570.8
178.805	2164.8
184.826	5928.8
190.841	12265.8
196.849	19443.8
202.85	24365.8
208.845	25955.8
214.833	25675.8
220.815	25223.8
226.789	24962.8
232.758	24872.8
238.719	24612.8
244.674	24317.8
250.623	23869.8
256.565	23388.8
262.5	22772.8
268.429	22402.8
274.351	22146.8
280.267	21789.8
286.176	21573.8
292.079	21341.8
297.975	21101.8
303.865	20923.8
309.748	20769.8
315.625	20647.8
321.495	20532.8
327.359	20431.8
333.217	20394.8
339.068	20387.8
344.912	20334.8
350.751	20269.8
356.583	20336.8
362.408	20292.8
368.227	20292.8
374.04	20298.8
379.847	20400.8
385.647	20430.8
391.44	20548.8
397.228	20611.8
403.009	20688.8
408.784	20784.8
414.553	20819.8
420.315	20871.8
426.071	20881.8
431.821	20839.8
437.565	20824.8
443.302	20806.8
449.033	20763.8
454.758	20746.8
460.477	20710.8
466.189	20656.8
471.896	20552.8
477.596	20535.8
483.29	20509.8
488.978	20459.8
494.66	20420.8
500.335	20275.8
506.005	20061.8
511.668	19782.8
517.325	19571.8
522.977	19484.8
528.622	19301.8
534.261	19218.8
539.894	19104.8
545.521	19044.8
551.141	18977.8
556.756	18851.8
562.365	18805.8
567.968	18769.8
573.565	18725.8
579.155	18692.8
584.74	18524.8
590.319	18468.8
595.892	18374.8
601.459	18287.8
607.02	18264.8
612.575	18131.8
618.124	18054.8
623.667	17965.8
629.204	17893.8
634.735	17779.8
640.261	17705.8
645.781	17637.8
651.294	17651.8
656.802	17642.8
662.304	17512.8
667.8	17480.8
673.29	17483.8
678.775	17455.8
684.254	17412.8
689.726	17330.8
695.193	17311.8
700.655	17236.8
706.11	17088.8
711.56	17096.8
717.004	16931.8
722.442	16913.8
727.874	16826.8
733.301	16776.8
738.722	16728.8
744.137	16701.8
749.547	16686.8
754.951	16704.8
760.349	16732.8
765.741	16719.8
771.128	16714.8
776.509	16719.8
781.885	16719.8
787.254	16669.8
792.618	16599.8
797.977	16482.8
803.33	16330.8
808.677	16320.8
814.019	16166.8
819.355	16101.8
824.686	16048.8
830.011	16038.8
835.33	16024.8
840.644	16042.8
845.952	16048.8
851.255	16172.8
856.552	16158.8
861.844	16105.8
867.13	16023.8
872.41	15971.8
877.686	15879.8
882.955	15814.8
888.219	15611.8
893.478	15501.8
898.731	15265.8
903.979	15158.8
909.221	15043.8
914.458	14964.8
919.69	14981.8
924.916	14983.8
930.136	15105.8
935.351	15118.8
940.561	15072.8
945.766	15081.8
950.965	14994.8
956.158	14972.8
961.347	14738.8
966.529	14541.8
971.707	14353.8
976.879	14193.8
982.046	14084.8
987.208	14109.8
992.364	14072.8
997.515	14112.8
1002.66	14268.8
1007.801	14441.8
1012.936	14526.8
1018.066	14568.8
1023.19	14559.8
1028.309	14559.8
1033.423	14494.8
1038.532	14412.8
1043.636	14298.8
1048.734	14087.8
1053.827	13946.8
1058.915	13806.8
1063.998	13718.8
1069.075	13629.8
1074.147	13660.8
1079.214	13719.8
1084.276	13816.8
1089.333	13861.8
1094.385	13992.8
1099.431	13974.8
1104.472	14021.8
1109.509	13896.8
1114.54	13796.8
1119.565	13600.8
1124.586	13390.8
1129.602	13269.8
1134.613	13188.8
1139.618	13082.8
1144.619	13079.8
1149.614	13067.8
1154.604	13134.8
1159.589	13150.8
1164.57	13204.8
1169.545	13243.8
1174.515	13174.8
1179.48	13087.8
1184.44	13042.8
1189.395	12931.8
1194.345	12836.8
1199.29	12795.8
1204.23	12793.8
1209.165	12828.8
1214.095	12927.8
1219.021	13003.8
1223.941	13062.8
1228.856	13114.8
1233.766	13157.8
1238.672	13173.8
1243.572	13162.8
1248.467	13067.8
1253.358	12903.8
1258.244	12724.8
1263.124	12542.8
1268	12340.8
1272.871	12242.8
1277.737	12147.8
1282.599	12110.8
1287.455	12059.8
1292.306	12086.8
1297.153	12103.8
1301.995	12197.8
1306.832	12234.8
1311.664	12281.8
1316.491	12199.8
1321.314	12055.8
1326.132	11852.8
1330.945	11640.8
1335.753	11363.8
1340.556	11082.8
1345.354	10831.8
1350.148	10634.8
1354.937	10554.8
1359.722	10537.8
1364.501	10591.8
1369.276	10736.8
1374.046	10868.8
1378.811	11029.8
1383.572	11153.8
1388.327	11162.8
1393.079	11133.8
1397.825	11064.8
1402.567	10845.8
1407.304	10719.8
1412.036	10576.8
1416.764	10555.8
1421.487	10453.8
1426.205	10413.8
1430.919	10430.8
1435.628	10390.8
1440.333	10415.8
1445.032	10414.8
1449.727	10432.8
1454.418	10433.8
1459.104	10284.8
1463.785	10076.8
1468.462	9828.8
1473.134	9603.8
1477.802	9439.8
1482.465	9306.8
1487.123	9190.8
1491.777	9158.8
1496.426	9213.8
1501.071	9283.8
1505.711	9448.8
1510.347	9616.8
1514.978	9768.8
1519.604	9912.8
1524.226	9992.8
1528.844	10021.8
1533.457	9976.8
1538.065	9992.8
1542.669	9958.8
1547.269	9827.8
1551.864	9821.8
1556.454	9782.8
1561.041	9761.8
1565.622	9742.8
1570.199	9765.8
1574.772	9828.8
1579.34	9892.8
1583.904	9995.8
1588.464	9965.8
1593.019	10009.8
1597.569	9993.8
1602.115	9884.8
1606.657	9810.8
1611.195	9773.8
1615.728	9665.8
1620.256	9675.8
1624.78	9662.8
1629.3	9653.8
1633.816	9697.8
1638.327	9757.8
1642.834	9785.8
1647.336	9812.8
1651.834	9796.8
1656.328	9790.8
1660.817	9706.8
1665.302	9615.8
1669.783	9443.8
1674.259	9228.8
1678.732	8969.8
1683.199	8648.8
1687.663	8364.8
1692.122	8088.8
1696.577	7910.8
1701.028	7938.8
1705.474	7968.8
1709.917	8123.8
1714.355	8133.8
1718.788	8075.8
1723.218	7963.8
1727.643	7852.8
1732.064	7684.8
1736.481	7534.8
1740.893	7337.8
1745.301	7151.8
1749.705	6955.8
1754.105	6701.8
1758.501	6548.8
1762.893	6370.8
1767.28	6191.8
1771.663	6069.8
1776.042	5938.8
1780.417	5926.8
1784.787	5886.8
1789.154	5938.8
1793.516	6036.8
1797.874	6180.8
1802.228	6278.8
1806.578	6327.8
1810.924	6362.8
1815.266	6318.8
1819.603	6196.8
1823.937	6112.8
1828.266	6029.8
1832.591	5935.8
1836.913	5894.8
1841.23	5811.8
1845.543	5791.8
1849.852	5769.8
1854.156	5699.8
1858.457	5685.8
1862.754	5719.8
1867.047	5687.8
1871.335	5655.8
1875.62	5648.8
1879.9	5669.8
1884.177	5594.8
1888.449	5541.8
1892.718	5474.8
1896.982	5425.8
1901.243	5376.8
1905.499	5325.8
1909.752	5294.8
1914	5317.8
1918.245	5273.8
1922.485	5342.8
1926.722	5403.8
1930.954	5498.8
1935.183	5531.8
1939.408	5595.8
1943.628	5641.8
1947.845	5628.8
1952.058	5610.8
1956.267	5558.8
1960.472	5513.8
1964.673	5431.8
1968.87	5373.8
1973.063	5250.8
1977.252	5210.8
1981.438	5144.8
1985.619	5064.8
1989.797	5087.8
1993.971	5025.8
1998.14	5013.8
2002.306	5002.8
2006.469	4935.8
2010.627	4931.8
2014.781	4914.8
2018.932	4859.8
2023.078	4838.8
2027.221	4776.8
2031.36	4663.8
2035.495	4627.8
2039.627	4539.8
2043.754	4491.8
2047.878	4428.8
2051.998	4407.8
2056.114	4393.8
2060.226	4368.8
2064.334	4378.8
2068.439	4414.8
2072.54	4431.8
2076.637	4460.8
2080.73	4472.8
2084.82	4521.8
2088.906	4558.8
2092.988	4532.8
2097.066	4523.8
2101.14	4517.8
2105.211	4440.8
2109.278	4443.8
2113.342	4410.8
2117.401	4358.8
2121.457	4369.8
2125.509	4364.8
2129.558	4328.8
2133.602	4291.8
2137.643	4284.8
2141.681	4274.8
2145.714	4259.8
2149.744	4224.8
2153.77	4185.8
2157.793	4177.8
2161.812	4097.8
2165.827	4043.8
2169.838	3986.8
2173.846	3932.8
2177.851	3835.8
2181.851	3771.8
2185.848	3760.8
2189.841	3720.8
2193.831	3655.8
2197.817	3646.8
2201.799	3634.8
2205.778	3631.8
2209.753	3599.8
2213.725	3573.8
2217.693	3602.8
2221.657	3563.8
2225.618	3556.8
2229.575	3542.8
2233.529	3513.8
2237.479	3470.8
2241.425	3456.8
2245.368	3408.8
2249.307	3340.8
2253.243	3291.8
2257.175	3288.8
2261.104	3237.8
2265.029	3161.8
2268.95	3154.8
2272.868	3117.8
2276.783	3079.8
2280.694	3042.8
2284.601	3036.8
2288.505	3015.8
2292.405	2957.8
2296.302	2937.8
2300.195	2918.8
2304.085	2855.8
2307.971	2842.8
2311.854	2800.8
2315.734	2731.8
2319.609	2727.8
2323.482	2686.8
2327.351	2662.8
2331.216	2666.8
2335.078	2628.8
2338.937	2631.8
2342.792	2616.8
2346.643	2606.8
2350.492	2596.8
2354.336	2623.8
2358.178	2608.8
2362.015	2605.8
2365.85	2652.8
2369.681	2623.8
2373.508	2618.8
2377.333	2636.8
2381.153	2616.8
2384.971	2621.8
2388.785	2565.8
2392.595	2581.8
2396.402	2534.8
2400.206	2514.8
2404.007	2511.8
2407.804	2489.8
2411.597	2455.8
2415.388	2466.8
2419.174	2456.8
2422.958	2440.8
2426.738	2406.8
2430.515	2411.8
2434.289	2374.8
2438.059	2349.8
2441.825	2336.8
2445.589	2311.8
2449.349	2289.8
2453.106	2274.8
2456.859	2242.8
2460.61	2188.8
2464.356	2175.8
2468.1	2162.8
2471.84	2126.8
2475.577	2093.8
2479.311	2097.8
2483.041	2072.8
2486.768	2061.8
2490.492	2061.8
2494.213	2045.8
2497.93	2060.8
2501.644	2039.8
2505.355	2027.8
2509.062	2026.8
2512.766	2009.8
2516.467	2023.8
2520.165	1996.8
2523.859	1959.8
2527.551	1970.8
2531.239	1946.8
2534.923	1916.8
2538.605	1894.8
2542.283	1924.8
2545.958	1922.8
2549.63	1923.8
2553.299	1913.8
2556.964	1894.8
2560.626	1908.8
2564.285	1900.8
2567.941	1887.8
2571.594	1854.8
2575.243	1846.8
2578.89	1843.8
2582.533	1821.8
2586.173	1829.8
2589.809	1794.8
2593.443	1795.8
2597.073	1766.8
2600.701	1771.8
2604.325	1738.8
2607.946	1736.8
2611.564	1705.8
2615.178	1721.8
2618.79	1701.8
2622.398	1686.8
2626.004	1658.8
2629.606	1650.8
2633.205	1628.8
2636.801	1612.8
2640.394	1586.8
2643.983	1543.8
2647.57	1535.8
2651.153	1522.8
2654.734	1477.8
2658.311	1462.8
2661.885	1444.8
2665.456	1418.8
2669.025	1422.8
2672.589	1397.8
2676.151	1381.8
2679.71	1369.8
2683.266	1318.8
2686.819	1313.8
2690.368	1294.8
2693.915	1263.8
2697.458	1238.8
2700.999	1217.8
2704.536	1185.8
2708.071	1154.8
2711.602	1115.8
2715.13	1106.8
2718.656	1098.8
2722.178	1046.8
2725.697	1046.8
2729.214	1028.8
2732.727	1023.8
2736.237	1017.8
2739.744	1009.8
2743.249	1017.8
2746.75	1015.8
2750.248	1026.8
2753.743	1034.8
2757.236	1068.8
2760.725	1053.8
2764.211	1054.8
2767.695	1073.8
2771.175	1058.8
2774.652	1067.8
2778.127	1063.8
2781.598	1043.8
2785.067	1046.8
2788.532	1049.8
2791.995	1038.8
2795.455	1031.8
2798.911	1035.8
2802.365	1044.8
2805.816	1047.8
2809.264	1048.8
2812.709	1042.8
2816.151	1024.8
2819.59	1032.8
2823.026	1039.8
2826.46	1025.8
2829.89	1045.8
2833.318	1054.8
2836.742	1052.8
2840.164	1051.8
2843.583	1056.8
2846.999	1050.8
2850.412	1077.8
2853.822	1095.8
2857.229	1126.8
2860.634	1136.8
2864.035	1126.8
2867.434	1148.8
2870.83	1171.8
2874.223	1207.8
2877.613	1212.8
2881	1223.8
2884.385	1238.8
2887.766	1237.8
2891.145	1231.8
2894.521	1241.8
2897.894	1230.8
2901.264	1236.8
2904.631	1228.8
2907.996	1244.8
2911.358	1247.8
2914.717	1236.8
2918.073	1251.8
2921.426	1266.8
2924.777	1295.8
2928.124	1297.8
2931.469	1321.8
2934.811	1348.8
2938.15	1355.8
2941.487	1372.8
2944.821	1364.8
2948.152	1369.8
2951.48	1329.8
2954.805	1348.8
2958.128	1311.8
2961.447	1313.8
2964.765	1305.8
2968.079	1305.8
2971.39	1311.8
2974.699	1348.8
2978.005	1346.8
2981.308	1383.8
2984.609	1401.8
2987.907	1422.8
2991.202	1452.8
2994.494	1486.8
2997.784	1511.8
3001.07	1540.8
3004.355	1572.8
3007.636	1593.8
3010.915	1590.8
3014.191	1610.8
3017.464	1617.8
3020.734	1626.8
3024.002	1640.8
3027.267	1653.8
3030.53	1674.8
3033.789	1698.8
3037.046	1684.8
3040.301	1719.8
3043.552	1777.8
3046.801	1810.8
3050.048	1848.8
3053.291	1893.8
3056.532	1936.8
3059.771	1983.8
3063.006	2054.8
3066.239	2114.8
3069.469	2163.8
3072.697	2241.8
3075.922	2281.8
3079.144	2339.8
3082.364	2390.8
3085.581	2429.8
3088.795	2506.8
3092.007	2529.8
3095.216	2586.8
3098.423	2646.8
3101.627	2691.8
3104.828	2768.8
3108.026	2842.8
3111.222	2888.8
3114.416	2938.8
3117.607	3001.8
3120.795	3097.8
3123.98	3154.8
3127.163	3219.8
3130.344	3304.8
3133.521	3372.8
3136.696	3466.8
3139.869	3518.8
3143.039	3576.8
3146.206	3644.8
3149.371	3666.8
3152.533	3706.8
3155.693	3720.8
3158.85	3746.8
3162.005	3781.8
3165.157	3792.8
3168.306	3787.8
3171.453	3806.8
3174.597	3807.8
3177.739	3804.8
3180.878	3807.8
3184.014	3815.8
3187.149	3826.8
3190.28	3830.8
3193.409	3858.8
3196.536	3836.8
3199.659	3824.8
3202.781	3838.8
3205.9	3859.8
3209.016	3838.8
3212.13	3808.8
3215.241	3790.8
3218.35	3761.8
3221.456	3702.8
3224.56	3660.8
3227.661	3627.8
3230.76	3604.8
3233.856	3548.8
3236.95	3542.8
3240.041	3484.8
3243.13	3463.8
3246.216	3448.8
3249.3	3398.8
3252.382	3411.8
3255.46	3390.8
3258.537	3365.8
3261.611	3374.8
3264.682	3344.8
3267.751	3381.8
3270.818	3376.8
3273.882	3378.8
3276.943	3329.8
3280.002	3316.8
3283.059	3273.8
3286.113	3241.8
3289.165	3224.8
3292.214	3172.8
3295.261	3104.8
3298.306	3064.8
3301.348	2987.8
3304.387	2974.8
3307.425	2914.8
3310.459	2895.8
3313.492	2837.8
3316.521	2787.8
3319.549	2783.8
3322.574	2754.8
3325.597	2711.8
3328.617	2713.8
3331.635	2676.8
3334.65	2673.8
3337.663	2654.8
3340.674	2634.8
3343.682	2638.8
3346.688	2620.8
3349.691	2608.8
3352.692	2604.8
3355.691	2565.8
3358.687	2560.8
3361.681	2485.8
3364.673	2486.8
3367.662	2436.8
3370.649	2419.8
3373.633	2382.8
3376.615	2352.8
3379.595	2309.8
3382.572	2299.8
3385.547	2249.8
3388.52	2204.8
3391.49	2174.8
3394.458	2155.8
3397.424	2124.8
3400.387	2085.8
3403.348	2048.8
3406.307	2037.8
3409.263	2010.8
3412.217	1990.8
3415.168	1951.8
3418.118	1939.8
3421.065	1919.8
3424.009	1885.8
3426.951	1852.8
3429.891	1823.8
3432.829	1787.8
3435.764	1749.8
3438.697	1681.8
3441.628	1639.8
3444.557	1589.8
3447.483	1540.8
3450.407	1511.8
3453.328	1461.8
3456.247	1394.8
3459.164	1349.8
3462.079	1304.8
3464.991	1247.8
3467.902	1195.8
3470.809	1152.8
3473.715	1113.8
3476.618	1075.8
3479.519	1034.8
3482.418	985.8
3485.315	959.8
3488.209	916.8
3491.101	896.8
3493.99	862.8
3496.878	818.8
3499.763	794.8
3502.646	744.8
3505.527	716.8
3508.405	672.8
3511.281	636.8
3514.155	605.8
3517.027	572.8
3519.897	537.8
3522.764	495.8
3525.629	464.8
3528.492	421.8
3531.352	363.8
3534.211	336.8
3537.067	305.8
3539.921	271.8
3542.773	253.8
3545.622	205.8
3548.469	189.8
3551.315	145.8
3554.157	134.8
3556.998	94.8
3559.837	66.8
3562.673	47.8
3565.507	27.8
3568.339	7.8
3571.169	-7.2
3573.996	-32.2
3576.822	-50.2
3579.645	-67.2
3582.466	-72.2
3585.285	-93.2
3588.101	-112.2
3590.916	-140.2
3593.728	-156.2
3596.538	-169.2
3599.346	-193.2
3602.152	-186.2
3604.956	-224.2
3607.757	-227.2
3610.556	-239.2
3613.354	-256.2
3616.149	-271.2
3618.942	-274.2
3621.732	-290.2
3624.521	-302.2
3627.307	-309.2
3630.092	-317.2
3632.874	-333.2
3635.654	-344.2
3638.432	-346.2
3641.208	-360.2
3643.982	-371.2
3646.753	-372.2
3649.523	-391.2
3652.29	-392.2
3655.055	-398.2
3657.818	-408.2
3660.579	-418.2
3663.338	-417.2
3666.095	-438.2
3668.849	-445.2
3671.602	-456.2
3674.352	-456.2
3677.101	-465.2
3679.847	-480.2
3682.591	-473.2
3685.333	-485.2
3688.073	-481.2
3690.811	-489.2
3693.547	-485.2
3696.281	-503.2
3699.013	-505.2
3701.742	-513.2
3704.47	-513.2
3707.195	-528.2
3709.919	-527.2
3712.64	-529.2
3715.359	-532.2
3718.076	-534.2
3720.792	-544.2
3723.505	-546.2
3726.216	-548.2
3728.925	-546.2
3731.632	-557.2
3734.336	-558.2
3737.039	-567.2
3739.74	-563.2
3742.439	-563.2
3745.136	-568.2
3747.83	-565.2
3750.523	-566.2
3753.213	-571.2
3755.902	-572.2
3758.589	-568.2
3761.273	-571.2
3763.956	-576.2
3766.636	-572.2
3769.315	-582.2
3771.991	-580.2
3774.665	-587.2
3777.338	-585.2
3780.008	-583.2
3782.677	-590.2
3785.343	-588.2
3788.007	-587.2
3790.67	-588.2
3793.33	-595.2
3795.989	-601.2
3798.645	-601.2
3801.299	-600.2
3803.952	-606.2
3806.602	-594.2
3809.251	-605.2
3811.897	-598.2
3814.542	-597.2
3817.184	-601.2
3819.825	-593.2
3822.463	-599.2
3825.1	-605.2
3827.735	-602.2
3830.367	-606.2
3832.998	-606.2
3835.627	-607.2
3838.253	-610.2
3840.878	-607.2
3843.501	-610.2
3846.122	-609.2
3848.741	-613.2
3851.358	-614.2
3853.973	-607.2
3856.586	-613.2
3859.197	-615.2
3861.806	-610.2
3864.414	-609.2
3867.019	-606.2
3869.622	-619.2
3872.224	-608.2
3874.823	-601.2
3877.421	-577.2
3880.016	-571.2
3882.61	-530.2
3885.202	-529.2
3887.792	-553.2
3890.38	-580.2
3892.966	-600.2
3895.55	-611.2
3898.132	-615.2
3900.713	-622.2
3903.291	-628.2
3905.868	-620.2
3908.442	-630.2
3911.015	-621.2
3913.586	-624.2
3916.155	-624.2
3918.722	-621.2
3921.287	-623.2
3923.85	-623.2
3926.411	-629.2
3928.971	-629.2
3931.528	-631.2
3934.084	-621.2
3936.638	-625.2
3939.19	-630.2
3941.74	-627.2
3944.288	-631.2
3946.834	-633.2
3949.378	-626.2
3951.921	-626.2
3954.462	-629.2
3957	-624.2
3959.537	-622.2
3962.072	-626.2
3964.606	-617.2
3967.137	-630.2
3969.667	-622.2
3972.194	-620.2
3974.72	-625.2
3977.244	-623.2
3979.766	-616.2
3982.286	-621.2
3984.805	-612.2
3987.321	-616.2
3989.836	-612.2
3992.349	-614.2
3994.86	-612.2
3997.369	-623.2
3999.877	-614.2
4002.382	-612.2
4004.886	-615.2
4007.388	-614.2
4009.888	-618.2
4012.386	-616.2
4014.883	-610.2
4017.377	-617.2
4019.87	-611.2
4022.361	-615.2
4024.85	-620.2
4027.338	-617.2
4029.823	-612.2
4032.307	-620.2
4034.789	-618.2
4037.269	-626.2
4039.747	-617.2
4042.224	-612.2
4044.699	-620.2
4047.172	-627.2
4049.643	-619.2
4052.112	-611.2
4054.58	-616.2
4057.046	-623.2
4059.51	-624.2
4061.972	-618.2
4064.432	-621.2
4066.891	-615.2
4069.348	-614.2
4071.803	-618.2
4074.256	-617.2
4076.708	-614.2
4079.158	-612.2
4081.606	-613.2
4084.052	-613.2
4086.497	-620.2
4088.939	-611.2
4091.38	-613.2
4093.819	-615.2
4096.257	-648.2
4098.693	-654.2
4101.127	-651.2
4103.559	-654.2
4105.989	-395.2
4108.418	-368.2
4110.845	-352.2
4113.27	-321.2
4115.694	-281.2
4118.115	-240.2
4120.535	-612.2
4122.954	-621.2
4125.37	-621.2
4127.785	-617.2
4130.198	-618.2
4132.609	-616.2
4135.019	-655.2
4137.427	-651.2
4139.833	-650.2
4142.237	-648.2
