Data from 2018-2-7_conc=6_RamanShift_27.txt Node
Date: Tue Feb 13 14:45:13 IST 2018
User: aro
Spectrometer: QEPB0276
Trigger mode: 0
Integration Time (sec): 3.000000E1
Scans to average: 1
Electric dark correction enabled: true
Nonlinearity correction enabled: false
Boxcar width: 0
XAxis mode: Raman Shifts
Number of Pixels in Spectrum: 1044
>>>>>Begin Spectral Data<<<<<
160.701	-156.8
166.742	24.2
172.777	607.2
178.805	2276.2
184.826	6199.2
190.841	12877.2
196.849	20366.2
202.85	25581.2
208.845	27308.2
214.833	26882.2
220.815	26474.2
226.789	26175.2
232.758	26130.2
238.719	25862.2
244.674	25528.2
250.623	25019.2
256.565	24532.2
262.5	24026.2
268.429	23523.2
274.351	23147.2
280.267	22856.2
286.176	22629.2
292.079	22405.2
297.975	22169.2
303.865	22023.2
309.748	21884.2
315.625	21647.2
321.495	21551.2
327.359	21516.2
333.217	21446.2
339.068	21492.2
344.912	21375.2
350.751	21356.2
356.583	21328.2
362.408	21335.2
368.227	21361.2
374.04	21344.2
379.847	21407.2
385.647	21472.2
391.44	21540.2
397.228	21681.2
403.009	21708.2
408.784	21808.2
414.553	21877.2
420.315	21964.2
426.071	21897.2
431.821	21886.2
437.565	21878.2
443.302	21847.2
449.033	21803.2
454.758	21767.2
460.477	21771.2
466.189	21719.2
471.896	21611.2
477.596	21510.2
483.29	21529.2
488.978	21478.2
494.66	21449.2
500.335	21225.2
506.005	21058.2
511.668	20782.2
517.325	20627.2
522.977	20412.2
528.622	20236.2
534.261	20121.2
539.894	20036.2
545.521	19929.2
551.141	19847.2
556.756	19786.2
562.365	19741.2
567.968	19662.2
573.565	19580.2
579.155	19517.2
584.74	19427.2
590.319	19348.2
595.892	19246.2
601.459	19194.2
607.02	19108.2
612.575	18912.2
618.124	18869.2
623.667	18790.2
629.204	18726.2
634.735	18550.2
640.261	18517.2
645.781	18465.2
651.294	18417.2
656.802	18393.2
662.304	18329.2
667.8	18261.2
673.29	18281.2
678.775	18205.2
684.254	18169.2
689.726	18133.2
695.193	18065.2
700.655	17939.2
706.11	17875.2
711.56	17776.2
717.004	17738.2
722.442	17618.2
727.874	17525.2
733.301	17503.2
738.722	17422.2
744.137	17407.2
749.547	17386.2
754.951	17458.2
760.349	17448.2
765.741	17411.2
771.128	17349.2
776.509	17460.2
781.885	17416.2
787.254	17332.2
792.618	17255.2
797.977	17176.2
803.33	17027.2
808.677	16960.2
814.019	16896.2
819.355	16780.2
824.686	16713.2
830.011	16634.2
835.33	16647.2
840.644	16630.2
845.952	16719.2
851.255	16711.2
856.552	16755.2
861.844	16664.2
867.13	16712.2
872.41	16581.2
877.686	16433.2
882.955	16393.2
888.219	16223.2
893.478	16082.2
898.731	15876.2
903.979	15665.2
909.221	15591.2
914.458	15530.2
919.69	15516.2
924.916	15561.2
930.136	15642.2
935.351	15659.2
940.561	15670.2
945.766	15574.2
950.965	15564.2
956.158	15427.2
961.347	15252.2
966.529	15018.2
971.707	14854.2
976.879	14691.2
982.046	14525.2
987.208	14483.2
992.364	14525.2
997.515	14592.2
1002.66	14685.2
1007.801	14949.2
1012.936	14977.2
1018.066	14975.2
1023.19	14968.2
1028.309	15006.2
1033.423	14937.2
1038.532	14875.2
1043.636	14724.2
1048.734	14518.2
1053.827	14344.2
1058.915	14177.2
1063.998	14097.2
1069.075	14015.2
1074.147	14057.2
1079.214	14127.2
1084.276	14227.2
1089.333	14326.2
1094.385	14383.2
1099.431	14416.2
1104.472	14459.2
1109.509	14287.2
1114.54	14183.2
1119.565	13956.2
1124.586	13768.2
1129.602	13601.2
1134.613	13505.2
1139.618	13474.2
1144.619	13421.2
1149.614	13426.2
1154.604	13451.2
1159.589	13481.2
1164.57	13526.2
1169.545	13544.2
1174.515	13563.2
1179.48	13470.2
1184.44	13341.2
1189.395	13243.2
1194.345	13130.2
1199.29	13092.2
1204.23	13103.2
1209.165	13155.2
1214.095	13207.2
1219.021	13300.2
1223.941	13336.2
1228.856	13403.2
1233.766	13413.2
1238.672	13461.2
1243.572	13392.2
1248.467	13352.2
1253.358	13190.2
1258.244	13032.2
1263.124	12841.2
1268	12651.2
1272.871	12469.2
1277.737	12380.2
1282.599	12344.2
1287.455	12342.2
1292.306	12306.2
1297.153	12344.2
1301.995	12386.2
1306.832	12414.2
1311.664	12464.2
1316.491	12401.2
1321.314	12347.2
1326.132	12113.2
1330.945	11859.2
1335.753	11536.2
1340.556	11339.2
1345.354	11035.2
1350.148	10896.2
1354.937	10768.2
1359.722	10748.2
1364.501	10801.2
1369.276	10892.2
1374.046	11011.2
1378.811	11204.2
1383.572	11324.2
1388.327	11348.2
1393.079	11247.2
1397.825	11179.2
1402.567	10998.2
1407.304	10930.2
1412.036	10748.2
1416.764	10696.2
1421.487	10630.2
1426.205	10551.2
1430.919	10538.2
1435.628	10554.2
1440.333	10578.2
1445.032	10581.2
1449.727	10632.2
1454.418	10597.2
1459.104	10435.2
1463.785	10271.2
1468.462	10009.2
1473.134	9840.2
1477.802	9637.2
1482.465	9435.2
1487.123	9340.2
1491.777	9324.2
1496.426	9362.2
1501.071	9405.2
1505.711	9593.2
1510.347	9752.2
1514.978	9884.2
1519.604	10005.2
1524.226	10106.2
1528.844	10117.2
1533.457	10107.2
1538.065	10054.2
1542.669	10037.2
1547.269	9919.2
1551.864	9859.2
1556.454	9863.2
1561.041	9827.2
1565.622	9845.2
1570.199	9847.2
1574.772	9953.2
1579.34	9981.2
1583.904	10029.2
1588.464	10130.2
1593.019	10088.2
1597.569	10038.2
1602.115	9988.2
1606.657	9942.2
1611.195	9903.2
1615.728	9825.2
1620.256	9795.2
1624.78	9764.2
1629.3	9775.2
1633.816	9862.2
1638.327	9871.2
1642.834	9930.2
1647.336	9970.2
1651.834	9942.2
1656.328	9906.2
1660.817	9870.2
1665.302	9761.2
1669.783	9585.2
1674.259	9374.2
1678.732	9095.2
1683.199	8759.2
1687.663	8447.2
1692.122	8201.2
1696.577	8039.2
1701.028	7986.2
1705.474	8065.2
1709.917	8099.2
1714.355	8154.2
1718.788	8074.2
1723.218	7995.2
1727.643	7854.2
1732.064	7675.2
1736.481	7496.2
1740.893	7352.2
1745.301	7128.2
1749.705	6945.2
1754.105	6717.2
1758.501	6561.2
1762.893	6372.2
1767.28	6213.2
1771.663	6102.2
1776.042	5964.2
1780.417	5884.2
1784.787	5913.2
1789.154	5930.2
1793.516	5977.2
1797.874	6118.2
1802.228	6190.2
1806.578	6289.2
1810.924	6307.2
1815.266	6257.2
1819.603	6135.2
1823.937	6063.2
1828.266	5985.2
1832.591	5863.2
1836.913	5782.2
1841.23	5748.2
1845.543	5701.2
1849.852	5678.2
1854.156	5650.2
1858.457	5669.2
1862.754	5648.2
1867.047	5645.2
1871.335	5620.2
1875.62	5628.2
1879.9	5597.2
1884.177	5567.2
1888.449	5533.2
1892.718	5430.2
1896.982	5380.2
1901.243	5326.2
1905.499	5251.2
1909.752	5247.2
1914	5233.2
1918.245	5266.2
1922.485	5282.2
1926.722	5340.2
1930.954	5397.2
1935.183	5432.2
1939.408	5504.2
1943.628	5526.2
1947.845	5547.2
1952.058	5510.2
1956.267	5491.2
1960.472	5420.2
1964.673	5319.2
1968.87	5277.2
1973.063	5203.2
1977.252	5125.2
1981.438	5008.2
1985.619	5018.2
1989.797	4983.2
1993.971	4935.2
1998.14	4911.2
2002.306	4922.2
2006.469	4858.2
2010.627	4850.2
2014.781	4820.2
2018.932	4824.2
2023.078	4734.2
2027.221	4685.2
2031.36	4629.2
2035.495	4529.2
2039.627	4477.2
2043.754	4390.2
2047.878	4386.2
2051.998	4341.2
2056.114	4315.2
2060.226	4318.2
2064.334	4285.2
2068.439	4322.2
2072.54	4346.2
2076.637	4391.2
2080.73	4398.2
2084.82	4380.2
2088.906	4422.2
2092.988	4414.2
2097.066	4397.2
2101.14	4392.2
2105.211	4337.2
2109.278	4340.2
2113.342	4318.2
2117.401	4283.2
2121.457	4252.2
2125.509	4236.2
2129.558	4194.2
2133.602	4191.2
2137.643	4174.2
2141.681	4148.2
2145.714	4132.2
2149.744	4113.2
2153.77	4072.2
2157.793	4022.2
2161.812	3994.2
2165.827	3918.2
2169.838	3883.2
2173.846	3800.2
2177.851	3724.2
2181.851	3676.2
2185.848	3650.2
2189.841	3591.2
2193.831	3551.2
2197.817	3548.2
2201.799	3525.2
2205.778	3500.2
2209.753	3480.2
2213.725	3477.2
2217.693	3468.2
2221.657	3423.2
2225.618	3427.2
2229.575	3428.2
2233.529	3410.2
2237.479	3372.2
2241.425	3319.2
2245.368	3289.2
2249.307	3244.2
2253.243	3179.2
2257.175	3136.2
2261.104	3093.2
2265.029	3042.2
2268.95	3018.2
2272.868	2976.2
2276.783	2962.2
2280.694	2933.2
2284.601	2898.2
2288.505	2889.2
2292.405	2836.2
2296.302	2818.2
2300.195	2775.2
2304.085	2731.2
2307.971	2725.2
2311.854	2678.2
2315.734	2624.2
2319.609	2611.2
2323.482	2549.2
2327.351	2550.2
2331.216	2531.2
2335.078	2492.2
2338.937	2493.2
2342.792	2481.2
2346.643	2479.2
2350.492	2484.2
2354.336	2473.2
2358.178	2496.2
2362.015	2479.2
2365.85	2500.2
2369.681	2524.2
2373.508	2514.2
2377.333	2498.2
2381.153	2511.2
2384.971	2496.2
2388.785	2465.2
2392.595	2443.2
2396.402	2437.2
2400.206	2380.2
2404.007	2386.2
2407.804	2359.2
2411.597	2346.2
2415.388	2327.2
2419.174	2314.2
2422.958	2285.2
2426.738	2288.2
2430.515	2262.2
2434.289	2240.2
2438.059	2214.2
2441.825	2213.2
2445.589	2185.2
2449.349	2162.2
2453.106	2126.2
2456.859	2128.2
2460.61	2050.2
2464.356	2038.2
2468.1	2044.2
2471.84	2020.2
2475.577	1973.2
2479.311	1964.2
2483.041	1957.2
2486.768	1961.2
2490.492	1936.2
2494.213	1944.2
2497.93	1923.2
2501.644	1920.2
2505.355	1921.2
2509.062	1882.2
2512.766	1874.2
2516.467	1828.2
2520.165	1837.2
2523.859	1848.2
2527.551	1802.2
2531.239	1816.2
2534.923	1782.2
2538.605	1781.2
2542.283	1762.2
2545.958	1772.2
2549.63	1767.2
2553.299	1773.2
2556.964	1762.2
2560.626	1718.2
2564.285	1713.2
2567.941	1738.2
2571.594	1719.2
2575.243	1714.2
2578.89	1699.2
2582.533	1667.2
2586.173	1665.2
2589.809	1644.2
2593.443	1646.2
2597.073	1629.2
2600.701	1601.2
2604.325	1585.2
2607.946	1573.2
2611.564	1594.2
2615.178	1570.2
2618.79	1556.2
2622.398	1545.2
2626.004	1527.2
2629.606	1501.2
2633.205	1483.2
2636.801	1472.2
2640.394	1449.2
2643.983	1416.2
2647.57	1390.2
2651.153	1378.2
2654.734	1368.2
2658.311	1342.2
2661.885	1324.2
2665.456	1305.2
2669.025	1293.2
2672.589	1266.2
2676.151	1276.2
2679.71	1254.2
2683.266	1223.2
2686.819	1186.2
2690.368	1174.2
2693.915	1150.2
2697.458	1120.2
2700.999	1088.2
2704.536	1059.2
2708.071	1044.2
2711.602	1018.2
2715.13	995.2
2718.656	970.2
2722.178	951.2
2725.697	945.2
2729.214	936.2
2732.727	932.2
2736.237	917.2
2739.744	915.2
2743.249	896.2
2746.75	923.2
2750.248	915.2
2753.743	921.2
2757.236	935.2
2760.725	924.2
2764.211	934.2
2767.695	957.2
2771.175	958.2
2774.652	951.2
2778.127	943.2
2781.598	909.2
2785.067	933.2
2788.532	916.2
2791.995	944.2
2795.455	928.2
2798.911	926.2
2802.365	949.2
2805.816	955.2
2809.264	939.2
2812.709	930.2
2816.151	938.2
2819.59	931.2
2823.026	925.2
2826.46	937.2
2829.89	946.2
2833.318	939.2
2836.742	930.2
2840.164	959.2
2843.583	969.2
2846.999	972.2
2850.412	988.2
2853.822	1005.2
2857.229	1007.2
2860.634	1022.2
2864.035	1045.2
2867.434	1068.2
2870.83	1083.2
2874.223	1120.2
2877.613	1141.2
2881	1145.2
2884.385	1186.2
2887.766	1159.2
2891.145	1155.2
2894.521	1141.2
2897.894	1137.2
2901.264	1181.2
2904.631	1162.2
2907.996	1151.2
2911.358	1185.2
2914.717	1193.2
2918.073	1190.2
2921.426	1205.2
2924.777	1225.2
2928.124	1252.2
2931.469	1256.2
2934.811	1272.2
2938.15	1302.2
2941.487	1319.2
2944.821	1335.2
2948.152	1319.2
2951.48	1317.2
2954.805	1300.2
2958.128	1284.2
2961.447	1288.2
2964.765	1286.2
2968.079	1275.2
2971.39	1278.2
2974.699	1313.2
2978.005	1333.2
2981.308	1342.2
2984.609	1391.2
2987.907	1383.2
2991.202	1422.2
2994.494	1476.2
2997.784	1468.2
3001.07	1504.2
3004.355	1534.2
3007.636	1557.2
3010.915	1569.2
3014.191	1582.2
3017.464	1594.2
3020.734	1619.2
3024.002	1625.2
3027.267	1667.2
3030.53	1650.2
3033.789	1683.2
3037.046	1702.2
3040.301	1727.2
3043.552	1787.2
3046.801	1810.2
3050.048	1853.2
3053.291	1882.2
3056.532	1944.2
3059.771	1998.2
3063.006	2080.2
3066.239	2119.2
3069.469	2191.2
3072.697	2243.2
3075.922	2300.2
3079.144	2380.2
3082.364	2399.2
3085.581	2480.2
3088.795	2506.2
3092.007	2611.2
3095.216	2647.2
3098.423	2712.2
3101.627	2757.2
3104.828	2814.2
3108.026	2869.2
3111.222	2943.2
3114.416	3041.2
3117.607	3098.2
3120.795	3178.2
3123.98	3245.2
3127.163	3333.2
3130.344	3395.2
3133.521	3488.2
3136.696	3575.2
3139.869	3646.2
3143.039	3690.2
3146.206	3757.2
3149.371	3773.2
3152.533	3832.2
3155.693	3862.2
3158.85	3859.2
3162.005	3897.2
3165.157	3918.2
3168.306	3918.2
3171.453	3921.2
3174.597	3931.2
3177.739	3929.2
3180.878	3947.2
3184.014	3995.2
3187.149	3973.2
3190.28	3990.2
3193.409	4005.2
3196.536	3987.2
3199.659	4027.2
3202.781	4002.2
3205.9	3968.2
3209.016	4001.2
3212.13	3950.2
3215.241	3940.2
3218.35	3890.2
3221.456	3896.2
3224.56	3843.2
3227.661	3791.2
3230.76	3769.2
3233.856	3704.2
3236.95	3679.2
3240.041	3608.2
3243.13	3596.2
3246.216	3581.2
3249.3	3591.2
3252.382	3542.2
3255.46	3525.2
3258.537	3532.2
3261.611	3529.2
3264.682	3527.2
3267.751	3508.2
3270.818	3517.2
3273.882	3484.2
3276.943	3509.2
3280.002	3466.2
3283.059	3408.2
3286.113	3397.2
3289.165	3333.2
3292.214	3288.2
3295.261	3240.2
3298.306	3169.2
3301.348	3128.2
3304.387	3078.2
3307.425	3034.2
3310.459	2992.2
3313.492	2948.2
3316.521	2918.2
3319.549	2900.2
3322.574	2855.2
3325.597	2806.2
3328.617	2833.2
3331.635	2779.2
3334.65	2787.2
3337.663	2754.2
3340.674	2735.2
3343.682	2738.2
3346.688	2734.2
3349.691	2717.2
3352.692	2714.2
3355.691	2682.2
3358.687	2641.2
3361.681	2638.2
3364.673	2554.2
3367.662	2548.2
3370.649	2498.2
3373.633	2460.2
3376.615	2438.2
3379.595	2412.2
3382.572	2361.2
3385.547	2342.2
3388.52	2302.2
3391.49	2267.2
3394.458	2228.2
3397.424	2196.2
3400.387	2187.2
3403.348	2150.2
3406.307	2138.2
3409.263	2097.2
3412.217	2071.2
3415.168	2054.2
3418.118	2026.2
3421.065	1996.2
3424.009	1975.2
3426.951	1936.2
3429.891	1890.2
3432.829	1852.2
3435.764	1816.2
3438.697	1758.2
3441.628	1715.2
3444.557	1666.2
3447.483	1610.2
3450.407	1572.2
3453.328	1503.2
3456.247	1463.2
3459.164	1406.2
3462.079	1368.2
3464.991	1300.2
3467.902	1234.2
3470.809	1204.2
3473.715	1142.2
3476.618	1125.2
3479.519	1081.2
3482.418	1051.2
3485.315	1008.2
3488.209	968.2
3491.101	920.2
3493.99	886.2
3496.878	866.2
3499.763	832.2
3502.646	784.2
3505.527	763.2
3508.405	722.2
3511.281	686.2
3514.155	641.2
3517.027	602.2
3519.897	547.2
3522.764	523.2
3525.629	460.2
3528.492	433.2
3531.352	388.2
3534.211	346.2
3537.067	305.2
3539.921	272.2
3542.773	253.2
3545.622	200.2
3548.469	176.2
3551.315	138.2
3554.157	124.2
3556.998	96.2
3559.837	66.2
3562.673	52.2
3565.507	39.2
3568.339	9.2
3571.169	-1.8
3573.996	-34.8
3576.822	-43.8
3579.645	-66.8
3582.466	-90.8
3585.285	-109.8
3588.101	-128.8
3590.916	-148.8
3593.728	-165.8
3596.538	-183.8
3599.346	-208.8
3602.152	-212.8
3604.956	-237.8
3607.757	-250.8
3610.556	-264.8
3613.354	-279.8
3616.149	-286.8
3618.942	-302.8
3621.732	-312.8
3624.521	-318.8
3627.307	-337.8
3630.092	-349.8
3632.874	-360.8
3635.654	-356.8
3638.432	-371.8
3641.208	-377.8
3643.982	-383.8
3646.753	-397.8
3649.523	-415.8
3652.29	-420.8
3655.055	-419.8
3657.818	-437.8
3660.579	-439.8
3663.338	-445.8
3666.095	-461.8
3668.849	-471.8
3671.602	-482.8
3674.352	-488.8
3677.101	-494.8
3679.847	-514.8
3682.591	-500.8
3685.333	-512.8
3688.073	-514.8
3690.811	-521.8
3693.547	-524.8
3696.281	-541.8
3699.013	-538.8
3701.742	-552.8
3704.47	-549.8
3707.195	-559.8
3709.919	-555.8
3712.64	-556.8
3715.359	-557.8
3718.076	-565.8
3720.792	-576.8
3723.505	-574.8
3726.216	-583.8
3728.925	-582.8
3731.632	-589.8
3734.336	-597.8
3737.039	-597.8
3739.74	-594.8
3742.439	-594.8
3745.136	-601.8
3747.83	-606.8
3750.523	-599.8
3753.213	-608.8
3755.902	-607.8
3758.589	-612.8
3761.273	-604.8
3763.956	-619.8
3766.636	-612.8
3769.315	-616.8
3771.991	-618.8
3774.665	-615.8
3777.338	-617.8
3780.008	-615.8
3782.677	-619.8
3785.343	-619.8
3788.007	-620.8
3790.67	-624.8
3793.33	-623.8
3795.989	-634.8
3798.645	-629.8
3801.299	-636.8
3803.952	-635.8
3806.602	-634.8
3809.251	-642.8
3811.897	-631.8
3814.542	-633.8
3817.184	-640.8
3819.825	-636.8
3822.463	-637.8
3825.1	-638.8
3827.735	-646.8
3830.367	-640.8
3832.998	-646.8
3835.627	-644.8
3838.253	-649.8
3840.878	-643.8
3843.501	-647.8
3846.122	-638.8
3848.741	-643.8
3851.358	-649.8
3853.973	-644.8
3856.586	-647.8
3859.197	-649.8
3861.806	-643.8
3864.414	-635.8
3867.019	-644.8
3869.622	-650.8
3872.224	-642.8
3874.823	-635.8
3877.421	-611.8
3880.016	-589.8
3882.61	-557.8
3885.202	-553.8
3887.792	-584.8
3890.38	-607.8
3892.966	-630.8
3895.55	-643.8
3898.132	-647.8
3900.713	-655.8
3903.291	-659.8
3905.868	-653.8
3908.442	-661.8
3911.015	-657.8
3913.586	-658.8
3916.155	-656.8
3918.722	-654.8
3921.287	-661.8
3923.85	-657.8
3926.411	-663.8
3928.971	-662.8
3931.528	-665.8
3934.084	-658.8
3936.638	-664.8
3939.19	-670.8
3941.74	-663.8
3944.288	-665.8
3946.834	-667.8
3949.378	-669.8
3951.921	-667.8
3954.462	-661.8
3957	-657.8
3959.537	-653.8
3962.072	-655.8
3964.606	-655.8
3967.137	-665.8
3969.667	-655.8
3972.194	-655.8
3974.72	-653.8
3977.244	-652.8
3979.766	-651.8
3982.286	-655.8
3984.805	-640.8
3987.321	-648.8
3989.836	-650.8
3992.349	-650.8
3994.86	-646.8
3997.369	-661.8
3999.877	-646.8
4002.382	-649.8
4004.886	-651.8
4007.388	-650.8
4009.888	-647.8
4012.386	-648.8
4014.883	-645.8
4017.377	-646.8
4019.87	-645.8
4022.361	-645.8
4024.85	-648.8
4027.338	-650.8
4029.823	-650.8
4032.307	-651.8
4034.789	-654.8
4037.269	-659.8
4039.747	-660.8
4042.224	-648.8
4044.699	-653.8
4047.172	-657.8
4049.643	-653.8
4052.112	-648.8
4054.58	-643.8
4057.046	-657.8
4059.51	-654.8
4061.972	-652.8
4064.432	-649.8
4066.891	-650.8
4069.348	-653.8
4071.803	-651.8
4074.256	-649.8
4076.708	-651.8
4079.158	-650.8
4081.606	-641.8
4084.052	-643.8
4086.497	-654.8
4088.939	-641.8
4091.38	-645.8
4093.819	-645.8
4096.257	-683.8
4098.693	-687.8
4101.127	-687.8
4103.559	-686.8
4105.989	-409.8
4108.418	-398.8
4110.845	-371.8
4113.27	-349.8
4115.694	-299.8
4118.115	-247.8
4120.535	-648.8
4122.954	-651.8
4125.37	-650.8
4127.785	-650.8
4130.198	-653.8
4132.609	-648.8
4135.019	-690.8
4137.427	-688.8
4139.833	-685.8
4142.237	-685.8
