Data from 2018-2-7_conc=5_RamanShift_25.txt Node
Date: Tue Feb 13 14:15:13 IST 2018
User: aro
Spectrometer: QEPB0276
Trigger mode: 0
Integration Time (sec): 3.000000E1
Scans to average: 1
Electric dark correction enabled: true
Nonlinearity correction enabled: false
Boxcar width: 0
XAxis mode: Raman Shifts
Number of Pixels in Spectrum: 1044
>>>>>Begin Spectral Data<<<<<
160.701	-160.4
166.742	26.6
172.777	585.6
178.805	2216.6
184.826	6109.6
190.841	12606.6
196.849	19962.6
202.85	25010.6
208.845	26579.6
214.833	26333.6
220.815	25805.6
226.789	25550.6
232.758	25468.6
238.719	25276.6
244.674	24849.6
250.623	24430.6
256.565	23837.6
262.5	23300.6
268.429	22893.6
274.351	22554.6
280.267	22141.6
286.176	21987.6
292.079	21672.6
297.975	21518.6
303.865	21292.6
309.748	21155.6
315.625	20991.6
321.495	20850.6
327.359	20795.6
333.217	20721.6
339.068	20741.6
344.912	20704.6
350.751	20627.6
356.583	20608.6
362.408	20607.6
368.227	20581.6
374.04	20667.6
379.847	20699.6
385.647	20791.6
391.44	20814.6
397.228	20902.6
403.009	21066.6
408.784	21051.6
414.553	21136.6
420.315	21208.6
426.071	21197.6
431.821	21215.6
437.565	21227.6
443.302	21100.6
449.033	21089.6
454.758	21073.6
460.477	21013.6
466.189	20890.6
471.896	20895.6
477.596	20800.6
483.29	20768.6
488.978	20794.6
494.66	20753.6
500.335	20581.6
506.005	20294.6
511.668	20132.6
517.325	19860.6
522.977	19654.6
528.622	19531.6
534.261	19435.6
539.894	19289.6
545.521	19212.6
551.141	19145.6
556.756	19109.6
562.365	19014.6
567.968	18917.6
573.565	18896.6
579.155	18833.6
584.74	18724.6
590.319	18668.6
595.892	18627.6
601.459	18544.6
607.02	18448.6
612.575	18323.6
618.124	18229.6
623.667	18081.6
629.204	18024.6
634.735	17965.6
640.261	17854.6
645.781	17807.6
651.294	17829.6
656.802	17773.6
662.304	17731.6
667.8	17675.6
673.29	17673.6
678.775	17653.6
684.254	17544.6
689.726	17538.6
695.193	17454.6
700.655	17351.6
706.11	17308.6
711.56	17213.6
717.004	17134.6
722.442	17047.6
727.874	16920.6
733.301	16959.6
738.722	16831.6
744.137	16821.6
749.547	16821.6
754.951	16787.6
760.349	16814.6
765.741	16820.6
771.128	16871.6
776.509	16834.6
781.885	16869.6
787.254	16814.6
792.618	16725.6
797.977	16637.6
803.33	16523.6
808.677	16424.6
814.019	16389.6
819.355	16223.6
824.686	16208.6
830.011	16130.6
835.33	16212.6
840.644	16133.6
845.952	16195.6
851.255	16248.6
856.552	16280.6
861.844	16229.6
867.13	16197.6
872.41	16104.6
877.686	16017.6
882.955	15873.6
888.219	15778.6
893.478	15572.6
898.731	15409.6
903.979	15198.6
909.221	15108.6
914.458	15073.6
919.69	15086.6
924.916	15120.6
930.136	15184.6
935.351	15150.6
940.561	15153.6
945.766	15124.6
950.965	15086.6
956.158	14971.6
961.347	14808.6
966.529	14608.6
971.707	14431.6
976.879	14344.6
982.046	14131.6
987.208	14146.6
992.364	14163.6
997.515	14217.6
1002.66	14318.6
1007.801	14527.6
1012.936	14608.6
1018.066	14627.6
1023.19	14614.6
1028.309	14574.6
1033.423	14575.6
1038.532	14478.6
1043.636	14339.6
1048.734	14246.6
1053.827	14018.6
1058.915	13859.6
1063.998	13756.6
1069.075	13727.6
1074.147	13706.6
1079.214	13838.6
1084.276	13886.6
1089.333	13943.6
1094.385	14041.6
1099.431	14074.6
1104.472	14080.6
1109.509	13971.6
1114.54	13824.6
1119.565	13676.6
1124.586	13468.6
1129.602	13361.6
1134.613	13269.6
1139.618	13194.6
1144.619	13154.6
1149.614	13111.6
1154.604	13173.6
1159.589	13196.6
1164.57	13269.6
1169.545	13234.6
1174.515	13273.6
1179.48	13206.6
1184.44	13091.6
1189.395	13034.6
1194.345	12935.6
1199.29	12876.6
1204.23	12871.6
1209.165	12916.6
1214.095	13002.6
1219.021	13037.6
1223.941	13134.6
1228.856	13158.6
1233.766	13219.6
1238.672	13214.6
1243.572	13210.6
1248.467	13115.6
1253.358	13008.6
1258.244	12840.6
1263.124	12619.6
1268	12396.6
1272.871	12294.6
1277.737	12216.6
1282.599	12174.6
1287.455	12147.6
1292.306	12183.6
1297.153	12169.6
1301.995	12229.6
1306.832	12339.6
1311.664	12263.6
1316.491	12260.6
1321.314	12136.6
1326.132	11932.6
1330.945	11708.6
1335.753	11396.6
1340.556	11075.6
1345.354	10882.6
1350.148	10637.6
1354.937	10544.6
1359.722	10590.6
1364.501	10600.6
1369.276	10767.6
1374.046	10915.6
1378.811	11048.6
1383.572	11197.6
1388.327	11226.6
1393.079	11205.6
1397.825	11091.6
1402.567	10893.6
1407.304	10747.6
1412.036	10655.6
1416.764	10565.6
1421.487	10496.6
1426.205	10502.6
1430.919	10424.6
1435.628	10437.6
1440.333	10496.6
1445.032	10475.6
1449.727	10521.6
1454.418	10531.6
1459.104	10348.6
1463.785	10142.6
1468.462	9914.6
1473.134	9724.6
1477.802	9534.6
1482.465	9309.6
1487.123	9184.6
1491.777	9147.6
1496.426	9226.6
1501.071	9327.6
1505.711	9494.6
1510.347	9637.6
1514.978	9865.6
1519.604	9977.6
1524.226	10038.6
1528.844	10116.6
1533.457	10085.6
1538.065	10032.6
1542.669	9961.6
1547.269	9890.6
1551.864	9849.6
1556.454	9808.6
1561.041	9827.6
1565.622	9823.6
1570.199	9813.6
1574.772	9868.6
1579.34	9970.6
1583.904	10015.6
1588.464	10071.6
1593.019	10018.6
1597.569	10006.6
1602.115	9987.6
1606.657	9916.6
1611.195	9833.6
1615.728	9830.6
1620.256	9750.6
1624.78	9758.6
1629.3	9785.6
1633.816	9751.6
1638.327	9835.6
1642.834	9846.6
1647.336	9918.6
1651.834	9940.6
1656.328	9909.6
1660.817	9826.6
1665.302	9714.6
1669.783	9526.6
1674.259	9332.6
1678.732	9062.6
1683.199	8724.6
1687.663	8427.6
1692.122	8173.6
1696.577	8004.6
1701.028	8014.6
1705.474	8076.6
1709.917	8135.6
1714.355	8184.6
1718.788	8118.6
1723.218	8023.6
1727.643	7889.6
1732.064	7738.6
1736.481	7543.6
1740.893	7347.6
1745.301	7225.6
1749.705	6994.6
1754.105	6773.6
1758.501	6572.6
1762.893	6392.6
1767.28	6237.6
1771.663	6090.6
1776.042	5996.6
1780.417	5897.6
1784.787	5920.6
1789.154	5944.6
1793.516	6020.6
1797.874	6156.6
1802.228	6267.6
1806.578	6319.6
1810.924	6346.6
1815.266	6317.6
1819.603	6218.6
1823.937	6153.6
1828.266	6043.6
1832.591	5931.6
1836.913	5844.6
1841.23	5848.6
1845.543	5770.6
1849.852	5757.6
1854.156	5725.6
1858.457	5737.6
1862.754	5727.6
1867.047	5698.6
1871.335	5712.6
1875.62	5663.6
1879.9	5645.6
1884.177	5603.6
1888.449	5566.6
1892.718	5504.6
1896.982	5432.6
1901.243	5382.6
1905.499	5329.6
1909.752	5303.6
1914	5290.6
1918.245	5300.6
1922.485	5361.6
1926.722	5425.6
1930.954	5487.6
1935.183	5541.6
1939.408	5584.6
1943.628	5627.6
1947.845	5657.6
1952.058	5627.6
1956.267	5619.6
1960.472	5553.6
1964.673	5455.6
1968.87	5363.6
1973.063	5309.6
1977.252	5220.6
1981.438	5173.6
1985.619	5113.6
1989.797	5085.6
1993.971	5061.6
1998.14	5030.6
2002.306	5028.6
2006.469	5018.6
2010.627	4966.6
2014.781	4951.6
2018.932	4861.6
2023.078	4867.6
2027.221	4790.6
2031.36	4721.6
2035.495	4651.6
2039.627	4591.6
2043.754	4524.6
2047.878	4492.6
2051.998	4460.6
2056.114	4450.6
2060.226	4417.6
2064.334	4429.6
2068.439	4417.6
2072.54	4478.6
2076.637	4487.6
2080.73	4513.6
2084.82	4533.6
2088.906	4542.6
2092.988	4540.6
2097.066	4533.6
2101.14	4526.6
2105.211	4470.6
2109.278	4451.6
2113.342	4443.6
2117.401	4410.6
2121.457	4395.6
2125.509	4405.6
2129.558	4352.6
2133.602	4314.6
2137.643	4324.6
2141.681	4275.6
2145.714	4288.6
2149.744	4249.6
2153.77	4213.6
2157.793	4165.6
2161.812	4138.6
2165.827	4046.6
2169.838	4008.6
2173.846	3925.6
2177.851	3861.6
2181.851	3816.6
2185.848	3780.6
2189.841	3728.6
2193.831	3656.6
2197.817	3674.6
2201.799	3646.6
2205.778	3608.6
2209.753	3601.6
2213.725	3606.6
2217.693	3571.6
2221.657	3551.6
2225.618	3594.6
2229.575	3535.6
2233.529	3516.6
2237.479	3488.6
2241.425	3455.6
2245.368	3418.6
2249.307	3364.6
2253.243	3325.6
2257.175	3257.6
2261.104	3246.6
2265.029	3188.6
2268.95	3169.6
2272.868	3134.6
2276.783	3098.6
2280.694	3056.6
2284.601	3030.6
2288.505	3007.6
2292.405	2982.6
2296.302	2940.6
2300.195	2892.6
2304.085	2862.6
2307.971	2858.6
2311.854	2828.6
2315.734	2772.6
2319.609	2720.6
2323.482	2685.6
2327.351	2666.6
2331.216	2667.6
2335.078	2648.6
2338.937	2635.6
2342.792	2611.6
2346.643	2595.6
2350.492	2611.6
2354.336	2616.6
2358.178	2620.6
2362.015	2632.6
2365.85	2633.6
2369.681	2645.6
2373.508	2624.6
2377.333	2650.6
2381.153	2621.6
2384.971	2617.6
2388.785	2588.6
2392.595	2584.6
2396.402	2551.6
2400.206	2529.6
2404.007	2502.6
2407.804	2467.6
2411.597	2460.6
2415.388	2477.6
2419.174	2443.6
2422.958	2410.6
2426.738	2406.6
2430.515	2370.6
2434.289	2361.6
2438.059	2356.6
2441.825	2332.6
2445.589	2293.6
2449.349	2278.6
2453.106	2256.6
2456.859	2224.6
2460.61	2199.6
2464.356	2156.6
2468.1	2137.6
2471.84	2127.6
2475.577	2103.6
2479.311	2108.6
2483.041	2082.6
2486.768	2070.6
2490.492	2073.6
2494.213	2062.6
2497.93	2038.6
2501.644	2027.6
2505.355	2034.6
2509.062	1993.6
2512.766	2021.6
2516.467	1993.6
2520.165	1978.6
2523.859	1951.6
2527.551	1942.6
2531.239	1945.6
2534.923	1925.6
2538.605	1888.6
2542.283	1899.6
2545.958	1898.6
2549.63	1890.6
2553.299	1892.6
2556.964	1925.6
2560.626	1882.6
2564.285	1887.6
2567.941	1887.6
2571.594	1868.6
2575.243	1848.6
2578.89	1850.6
2582.533	1812.6
2586.173	1806.6
2589.809	1797.6
2593.443	1780.6
2597.073	1750.6
2600.701	1739.6
2604.325	1734.6
2607.946	1741.6
2611.564	1717.6
2615.178	1721.6
2618.79	1686.6
2622.398	1653.6
2626.004	1648.6
2629.606	1661.6
2633.205	1619.6
2636.801	1584.6
2640.394	1587.6
2643.983	1555.6
2647.57	1537.6
2651.153	1491.6
2654.734	1492.6
2658.311	1451.6
2661.885	1466.6
2665.456	1434.6
2669.025	1410.6
2672.589	1406.6
2676.151	1377.6
2679.71	1372.6
2683.266	1318.6
2686.819	1317.6
2690.368	1289.6
2693.915	1266.6
2697.458	1218.6
2700.999	1220.6
2704.536	1200.6
2708.071	1156.6
2711.602	1120.6
2715.13	1112.6
2718.656	1075.6
2722.178	1058.6
2725.697	1029.6
2729.214	1029.6
2732.727	1020.6
2736.237	1013.6
2739.744	1018.6
2743.249	1015.6
2746.75	1010.6
2750.248	1031.6
2753.743	1044.6
2757.236	1064.6
2760.725	1049.6
2764.211	1064.6
2767.695	1074.6
2771.175	1074.6
2774.652	1059.6
2778.127	1069.6
2781.598	1050.6
2785.067	1045.6
2788.532	1046.6
2791.995	1030.6
2795.455	1042.6
2798.911	1045.6
2802.365	1046.6
2805.816	1063.6
2809.264	1037.6
2812.709	1050.6
2816.151	1035.6
2819.59	1037.6
2823.026	1028.6
2826.46	1044.6
2829.89	1060.6
2833.318	1052.6
2836.742	1048.6
2840.164	1061.6
2843.583	1057.6
2846.999	1082.6
2850.412	1091.6
2853.822	1093.6
2857.229	1124.6
2860.634	1135.6
2864.035	1149.6
2867.434	1190.6
2870.83	1203.6
2874.223	1220.6
2877.613	1233.6
2881	1257.6
2884.385	1258.6
2887.766	1256.6
2891.145	1266.6
2894.521	1268.6
2897.894	1266.6
2901.264	1250.6
2904.631	1249.6
2907.996	1244.6
2911.358	1262.6
2914.717	1272.6
2918.073	1277.6
2921.426	1289.6
2924.777	1327.6
2928.124	1335.6
2931.469	1357.6
2934.811	1398.6
2938.15	1391.6
2941.487	1407.6
2944.821	1414.6
2948.152	1411.6
2951.48	1390.6
2954.805	1383.6
2958.128	1382.6
2961.447	1362.6
2964.765	1358.6
2968.079	1347.6
2971.39	1387.6
2974.699	1385.6
2978.005	1414.6
2981.308	1425.6
2984.609	1442.6
2987.907	1467.6
2991.202	1526.6
2994.494	1535.6
2997.784	1552.6
3001.07	1606.6
3004.355	1627.6
3007.636	1632.6
3010.915	1658.6
3014.191	1673.6
3017.464	1683.6
3020.734	1683.6
3024.002	1692.6
3027.267	1714.6
3030.53	1735.6
3033.789	1750.6
3037.046	1757.6
3040.301	1795.6
3043.552	1842.6
3046.801	1875.6
3050.048	1914.6
3053.291	1950.6
3056.532	2047.6
3059.771	2084.6
3063.006	2138.6
3066.239	2189.6
3069.469	2258.6
3072.697	2322.6
3075.922	2348.6
3079.144	2438.6
3082.364	2507.6
3085.581	2509.6
3088.795	2601.6
3092.007	2638.6
3095.216	2707.6
3098.423	2763.6
3101.627	2821.6
3104.828	2869.6
3108.026	2937.6
3111.222	3010.6
3114.416	3068.6
3117.607	3160.6
3120.795	3216.6
3123.98	3308.6
3127.163	3379.6
3130.344	3474.6
3133.521	3539.6
3136.696	3602.6
3139.869	3682.6
3143.039	3766.6
3146.206	3802.6
3149.371	3834.6
3152.533	3898.6
3155.693	3911.6
3158.85	3938.6
3162.005	3936.6
3165.157	3946.6
3168.306	3978.6
3171.453	4007.6
3174.597	4019.6
3177.739	4021.6
3180.878	3987.6
3184.014	3998.6
3187.149	4017.6
3190.28	4042.6
3193.409	4036.6
3196.536	4041.6
3199.659	4042.6
3202.781	4034.6
3205.9	4089.6
3209.016	4019.6
3212.13	3999.6
3215.241	3981.6
3218.35	3950.6
3221.456	3876.6
3224.56	3835.6
3227.661	3842.6
3230.76	3785.6
3233.856	3764.6
3236.95	3706.6
3240.041	3687.6
3243.13	3642.6
3246.216	3631.6
3249.3	3607.6
3252.382	3592.6
3255.46	3593.6
3258.537	3550.6
3261.611	3568.6
3264.682	3557.6
3267.751	3570.6
3270.818	3542.6
3273.882	3545.6
3276.943	3513.6
3280.002	3509.6
3283.059	3466.6
3286.113	3422.6
3289.165	3389.6
3292.214	3333.6
3295.261	3283.6
3298.306	3230.6
3301.348	3154.6
3304.387	3128.6
3307.425	3066.6
3310.459	3022.6
3313.492	2990.6
3316.521	2953.6
3319.549	2916.6
3322.574	2891.6
3325.597	2865.6
3328.617	2863.6
3331.635	2826.6
3334.65	2814.6
3337.663	2801.6
3340.674	2772.6
3343.682	2769.6
3346.688	2755.6
3349.691	2740.6
3352.692	2726.6
3355.691	2723.6
3358.687	2686.6
3361.681	2658.6
3364.673	2628.6
3367.662	2597.6
3370.649	2546.6
3373.633	2516.6
3376.615	2469.6
3379.595	2420.6
3382.572	2389.6
3385.547	2355.6
3388.52	2322.6
3391.49	2303.6
3394.458	2255.6
3397.424	2218.6
3400.387	2198.6
3403.348	2164.6
3406.307	2164.6
3409.263	2105.6
3412.217	2092.6
3415.168	2087.6
3418.118	2058.6
3421.065	2032.6
3424.009	1992.6
3426.951	1970.6
3429.891	1923.6
3432.829	1859.6
3435.764	1846.6
3438.697	1786.6
3441.628	1748.6
3444.557	1678.6
3447.483	1661.6
3450.407	1593.6
3453.328	1530.6
3456.247	1490.6
3459.164	1422.6
3462.079	1394.6
3464.991	1340.6
3467.902	1256.6
3470.809	1241.6
3473.715	1174.6
3476.618	1137.6
3479.519	1115.6
3482.418	1060.6
3485.315	1033.6
3488.209	986.6
3491.101	957.6
3493.99	926.6
3496.878	874.6
3499.763	858.6
3502.646	820.6
3505.527	779.6
3508.405	733.6
3511.281	696.6
3514.155	647.6
3517.027	621.6
3519.897	586.6
3522.764	526.6
3525.629	491.6
3528.492	453.6
3531.352	417.6
3534.211	377.6
3537.067	333.6
3539.921	298.6
3542.773	280.6
3545.622	238.6
3548.469	207.6
3551.315	175.6
3554.157	151.6
3556.998	119.6
3559.837	87.6
3562.673	58.6
3565.507	49.6
3568.339	37.6
3571.169	17.6
3573.996	-3.4
3576.822	-25.4
3579.645	-44.4
3582.466	-68.4
3585.285	-80.4
3588.101	-98.4
3590.916	-122.4
3593.728	-140.4
3596.538	-152.4
3599.346	-182.4
3602.152	-192.4
3604.956	-209.4
3607.757	-223.4
3610.556	-235.4
3613.354	-254.4
3616.149	-270.4
3618.942	-281.4
3621.732	-289.4
3624.521	-297.4
3627.307	-324.4
3630.092	-331.4
3632.874	-343.4
3635.654	-349.4
3638.432	-349.4
3641.208	-360.4
3643.982	-365.4
3646.753	-376.4
3649.523	-379.4
3652.29	-394.4
3655.055	-404.4
3657.818	-409.4
3660.579	-415.4
3663.338	-425.4
3666.095	-439.4
3668.849	-447.4
3671.602	-458.4
3674.352	-464.4
3677.101	-472.4
3679.847	-482.4
3682.591	-484.4
3685.333	-485.4
3688.073	-497.4
3690.811	-502.4
3693.547	-506.4
3696.281	-516.4
3699.013	-522.4
3701.742	-528.4
3704.47	-534.4
3707.195	-530.4
3709.919	-539.4
3712.64	-541.4
3715.359	-546.4
3718.076	-544.4
3720.792	-547.4
3723.505	-556.4
3726.216	-558.4
3728.925	-554.4
3731.632	-575.4
3734.336	-565.4
3737.039	-578.4
3739.74	-574.4
3742.439	-576.4
3745.136	-580.4
3747.83	-581.4
3750.523	-578.4
3753.213	-585.4
3755.902	-583.4
3758.589	-581.4
3761.273	-584.4
3763.956	-590.4
3766.636	-591.4
3769.315	-593.4
3771.991	-600.4
3774.665	-594.4
3777.338	-599.4
3780.008	-592.4
3782.677	-597.4
3785.343	-601.4
3788.007	-597.4
3790.67	-602.4
3793.33	-608.4
3795.989	-610.4
3798.645	-614.4
3801.299	-608.4
3803.952	-610.4
3806.602	-615.4
3809.251	-617.4
3811.897	-614.4
3814.542	-607.4
3817.184	-613.4
3819.825	-612.4
3822.463	-617.4
3825.1	-620.4
3827.735	-622.4
3830.367	-620.4
3832.998	-624.4
3835.627	-623.4
3838.253	-627.4
3840.878	-627.4
3843.501	-626.4
3846.122	-621.4
3848.741	-623.4
3851.358	-626.4
3853.973	-624.4
3856.586	-625.4
3859.197	-628.4
3861.806	-624.4
3864.414	-618.4
3867.019	-616.4
3869.622	-627.4
3872.224	-620.4
3874.823	-607.4
3877.421	-591.4
3880.016	-571.4
3882.61	-534.4
3885.202	-535.4
3887.792	-564.4
3890.38	-594.4
3892.966	-613.4
3895.55	-627.4
3898.132	-634.4
3900.713	-635.4
3903.291	-640.4
3905.868	-638.4
3908.442	-637.4
3911.015	-636.4
3913.586	-636.4
3916.155	-635.4
3918.722	-637.4
3921.287	-636.4
3923.85	-639.4
3926.411	-641.4
3928.971	-639.4
3931.528	-641.4
3934.084	-628.4
3936.638	-639.4
3939.19	-643.4
3941.74	-648.4
3944.288	-645.4
3946.834	-645.4
3949.378	-642.4
3951.921	-641.4
3954.462	-643.4
3957	-638.4
3959.537	-640.4
3962.072	-638.4
3964.606	-640.4
3967.137	-646.4
3969.667	-646.4
3972.194	-641.4
3974.72	-636.4
3977.244	-631.4
3979.766	-629.4
3982.286	-630.4
3984.805	-622.4
3987.321	-625.4
3989.836	-627.4
3992.349	-625.4
3994.86	-619.4
3997.369	-634.4
3999.877	-624.4
4002.382	-622.4
4004.886	-634.4
4007.388	-632.4
4009.888	-626.4
4012.386	-629.4
4014.883	-627.4
4017.377	-625.4
4019.87	-625.4
4022.361	-629.4
4024.85	-630.4
4027.338	-634.4
4029.823	-629.4
4032.307	-636.4
4034.789	-635.4
4037.269	-641.4
4039.747	-633.4
4042.224	-632.4
4044.699	-633.4
4047.172	-635.4
4049.643	-633.4
4052.112	-629.4
4054.58	-629.4
4057.046	-634.4
4059.51	-628.4
4061.972	-635.4
4064.432	-630.4
4066.891	-627.4
4069.348	-637.4
4071.803	-630.4
4074.256	-624.4
4076.708	-628.4
4079.158	-632.4
4081.606	-624.4
4084.052	-627.4
4086.497	-638.4
4088.939	-625.4
4091.38	-625.4
4093.819	-624.4
4096.257	-663.4
4098.693	-663.4
4101.127	-664.4
4103.559	-668.4
4105.989	-391.4
4108.418	-378.4
4110.845	-356.4
4113.27	-331.4
4115.694	-282.4
4118.115	-234.4
4120.535	-630.4
4122.954	-640.4
4125.37	-633.4
4127.785	-634.4
4130.198	-632.4
4132.609	-623.4
4135.019	-668.4
4137.427	-666.4
4139.833	-666.4
4142.237	-667.4
