Data from 2018-2-7_conc=5_RamanShift_19.txt Node
Date: Tue Feb 13 14:09:43 IST 2018
User: aro
Spectrometer: QEPB0276
Trigger mode: 0
Integration Time (sec): 3.000000E1
Scans to average: 1
Electric dark correction enabled: true
Nonlinearity correction enabled: false
Boxcar width: 0
XAxis mode: Raman Shifts
Number of Pixels in Spectrum: 1044
>>>>>Begin Spectral Data<<<<<
160.701	-163.8
166.742	37.2
172.777	584.2
178.805	2239.2
184.826	6127.2
190.841	12624.2
196.849	20036.2
202.85	25150.2
208.845	26701.2
214.833	26389.2
220.815	25891.2
226.789	25605.2
232.758	25495.2
238.719	25253.2
244.674	24931.2
250.623	24380.2
256.565	23796.2
262.5	23240.2
268.429	22826.2
274.351	22466.2
280.267	22121.2
286.176	21896.2
292.079	21621.2
297.975	21399.2
303.865	21165.2
309.748	21007.2
315.625	20884.2
321.495	20767.2
327.359	20615.2
333.217	20555.2
339.068	20563.2
344.912	20527.2
350.751	20493.2
356.583	20454.2
362.408	20487.2
368.227	20516.2
374.04	20535.2
379.847	20515.2
385.647	20655.2
391.44	20729.2
397.228	20759.2
403.009	20849.2
408.784	20977.2
414.553	21072.2
420.315	21064.2
426.071	21059.2
431.821	21081.2
437.565	21063.2
443.302	21018.2
449.033	20938.2
454.758	20901.2
460.477	20880.2
466.189	20815.2
471.896	20772.2
477.596	20728.2
483.29	20688.2
488.978	20632.2
494.66	20585.2
500.335	20380.2
506.005	20187.2
511.668	19984.2
517.325	19691.2
522.977	19543.2
528.622	19380.2
534.261	19282.2
539.894	19167.2
545.521	19089.2
551.141	19000.2
556.756	18908.2
562.365	18843.2
567.968	18785.2
573.565	18671.2
579.155	18638.2
584.74	18562.2
590.319	18445.2
595.892	18386.2
601.459	18315.2
607.02	18272.2
612.575	18130.2
618.124	18054.2
623.667	17851.2
629.204	17846.2
634.735	17768.2
640.261	17685.2
645.781	17605.2
651.294	17600.2
656.802	17459.2
662.304	17514.2
667.8	17464.2
673.29	17418.2
678.775	17423.2
684.254	17308.2
689.726	17300.2
695.193	17215.2
700.655	17125.2
706.11	17115.2
711.56	16989.2
717.004	16913.2
722.442	16814.2
727.874	16720.2
733.301	16701.2
738.722	16652.2
744.137	16629.2
749.547	16643.2
754.951	16580.2
760.349	16647.2
765.741	16659.2
771.128	16625.2
776.509	16606.2
781.885	16614.2
787.254	16623.2
792.618	16522.2
797.977	16459.2
803.33	16299.2
808.677	16208.2
814.019	16121.2
819.355	16046.2
824.686	16013.2
830.011	15961.2
835.33	15951.2
840.644	16001.2
845.952	16035.2
851.255	16025.2
856.552	16042.2
861.844	16004.2
867.13	15945.2
872.41	15876.2
877.686	15843.2
882.955	15666.2
888.219	15566.2
893.478	15421.2
898.731	15153.2
903.979	15014.2
909.221	14906.2
914.458	14823.2
919.69	14856.2
924.916	14920.2
930.136	14934.2
935.351	14944.2
940.561	14965.2
945.766	14900.2
950.965	14856.2
956.158	14715.2
961.347	14598.2
966.529	14426.2
971.707	14217.2
976.879	14067.2
982.046	13956.2
987.208	13896.2
992.364	13947.2
997.515	14008.2
1002.66	14143.2
1007.801	14351.2
1012.936	14392.2
1018.066	14400.2
1023.19	14418.2
1028.309	14347.2
1033.423	14377.2
1038.532	14269.2
1043.636	14137.2
1048.734	13997.2
1053.827	13840.2
1058.915	13631.2
1063.998	13546.2
1069.075	13528.2
1074.147	13533.2
1079.214	13548.2
1084.276	13657.2
1089.333	13775.2
1094.385	13834.2
1099.431	13844.2
1104.472	13869.2
1109.509	13756.2
1114.54	13639.2
1119.565	13471.2
1124.586	13232.2
1129.602	13129.2
1134.613	13045.2
1139.618	12970.2
1144.619	12956.2
1149.614	12946.2
1154.604	12989.2
1159.589	13011.2
1164.57	13035.2
1169.545	13083.2
1174.515	13058.2
1179.48	12980.2
1184.44	12885.2
1189.395	12767.2
1194.345	12745.2
1199.29	12612.2
1204.23	12649.2
1209.165	12691.2
1214.095	12723.2
1219.021	12819.2
1223.941	12889.2
1228.856	13004.2
1233.766	13034.2
1238.672	13038.2
1243.572	13005.2
1248.467	12951.2
1253.358	12832.2
1258.244	12552.2
1263.124	12459.2
1268	12229.2
1272.871	12060.2
1277.737	12004.2
1282.599	11934.2
1287.455	11940.2
1292.306	11956.2
1297.153	11991.2
1301.995	12024.2
1306.832	12085.2
1311.664	12065.2
1316.491	12027.2
1321.314	11932.2
1326.132	11749.2
1330.945	11468.2
1335.753	11184.2
1340.556	10887.2
1345.354	10708.2
1350.148	10534.2
1354.937	10435.2
1359.722	10432.2
1364.501	10488.2
1369.276	10623.2
1374.046	10707.2
1378.811	10900.2
1383.572	10942.2
1388.327	11064.2
1393.079	10994.2
1397.825	10859.2
1402.567	10690.2
1407.304	10593.2
1412.036	10501.2
1416.764	10397.2
1421.487	10301.2
1426.205	10249.2
1430.919	10252.2
1435.628	10263.2
1440.333	10286.2
1445.032	10259.2
1449.727	10357.2
1454.418	10312.2
1459.104	10214.2
1463.785	9983.2
1468.462	9749.2
1473.134	9513.2
1477.802	9328.2
1482.465	9197.2
1487.123	9058.2
1491.777	9029.2
1496.426	9141.2
1501.071	9197.2
1505.711	9383.2
1510.347	9475.2
1514.978	9633.2
1519.604	9785.2
1524.226	9965.2
1528.844	9911.2
1533.457	9908.2
1538.065	9842.2
1542.669	9763.2
1547.269	9740.2
1551.864	9720.2
1556.454	9663.2
1561.041	9644.2
1565.622	9684.2
1570.199	9658.2
1574.772	9752.2
1579.34	9816.2
1583.904	9876.2
1588.464	9913.2
1593.019	9873.2
1597.569	9892.2
1602.115	9849.2
1606.657	9775.2
1611.195	9698.2
1615.728	9642.2
1620.256	9619.2
1624.78	9621.2
1629.3	9644.2
1633.816	9675.2
1638.327	9691.2
1642.834	9796.2
1647.336	9799.2
1651.834	9880.2
1656.328	9803.2
1660.817	9677.2
1665.302	9607.2
1669.783	9455.2
1674.259	9260.2
1678.732	8963.2
1683.199	8648.2
1687.663	8372.2
1692.122	8090.2
1696.577	7994.2
1701.028	7965.2
1705.474	7984.2
1709.917	8075.2
1714.355	8047.2
1718.788	7998.2
1723.218	7903.2
1727.643	7733.2
1732.064	7615.2
1736.481	7421.2
1740.893	7238.2
1745.301	7052.2
1749.705	6852.2
1754.105	6636.2
1758.501	6472.2
1762.893	6304.2
1767.28	6169.2
1771.663	6020.2
1776.042	5903.2
1780.417	5866.2
1784.787	5848.2
1789.154	5921.2
1793.516	5983.2
1797.874	6114.2
1802.228	6229.2
1806.578	6245.2
1810.924	6248.2
1815.266	6188.2
1819.603	6142.2
1823.937	6008.2
1828.266	5908.2
1832.591	5860.2
1836.913	5788.2
1841.23	5743.2
1845.543	5702.2
1849.852	5659.2
1854.156	5653.2
1858.457	5662.2
1862.754	5594.2
1867.047	5662.2
1871.335	5630.2
1875.62	5627.2
1879.9	5585.2
1884.177	5518.2
1888.449	5470.2
1892.718	5454.2
1896.982	5372.2
1901.243	5331.2
1905.499	5293.2
1909.752	5272.2
1914	5234.2
1918.245	5290.2
1922.485	5297.2
1926.722	5355.2
1930.954	5460.2
1935.183	5456.2
1939.408	5516.2
1943.628	5543.2
1947.845	5578.2
1952.058	5578.2
1956.267	5560.2
1960.472	5491.2
1964.673	5374.2
1968.87	5325.2
1973.063	5215.2
1977.252	5199.2
1981.438	5113.2
1985.619	5041.2
1989.797	5010.2
1993.971	4987.2
1998.14	4977.2
2002.306	4966.2
2006.469	4956.2
2010.627	4934.2
2014.781	4888.2
2018.932	4862.2
2023.078	4796.2
2027.221	4710.2
2031.36	4656.2
2035.495	4612.2
2039.627	4545.2
2043.754	4470.2
2047.878	4428.2
2051.998	4384.2
2056.114	4388.2
2060.226	4367.2
2064.334	4366.2
2068.439	4409.2
2072.54	4420.2
2076.637	4441.2
2080.73	4472.2
2084.82	4506.2
2088.906	4499.2
2092.988	4505.2
2097.066	4509.2
2101.14	4489.2
2105.211	4467.2
2109.278	4445.2
2113.342	4418.2
2117.401	4356.2
2121.457	4369.2
2125.509	4361.2
2129.558	4327.2
2133.602	4284.2
2137.643	4264.2
2141.681	4233.2
2145.714	4227.2
2149.744	4196.2
2153.77	4133.2
2157.793	4107.2
2161.812	4081.2
2165.827	4015.2
2169.838	3951.2
2173.846	3884.2
2177.851	3840.2
2181.851	3773.2
2185.848	3720.2
2189.841	3692.2
2193.831	3667.2
2197.817	3662.2
2201.799	3610.2
2205.778	3601.2
2209.753	3600.2
2213.725	3544.2
2217.693	3553.2
2221.657	3558.2
2225.618	3569.2
2229.575	3524.2
2233.529	3484.2
2237.479	3441.2
2241.425	3422.2
2245.368	3376.2
2249.307	3336.2
2253.243	3275.2
2257.175	3269.2
2261.104	3194.2
2265.029	3149.2
2268.95	3132.2
2272.868	3099.2
2276.783	3043.2
2280.694	3020.2
2284.601	2994.2
2288.505	2990.2
2292.405	2932.2
2296.302	2926.2
2300.195	2874.2
2304.085	2848.2
2307.971	2809.2
2311.854	2770.2
2315.734	2723.2
2319.609	2696.2
2323.482	2619.2
2327.351	2623.2
2331.216	2612.2
2335.078	2611.2
2338.937	2614.2
2342.792	2581.2
2346.643	2561.2
2350.492	2579.2
2354.336	2558.2
2358.178	2576.2
2362.015	2579.2
2365.85	2581.2
2369.681	2600.2
2373.508	2588.2
2377.333	2591.2
2381.153	2554.2
2384.971	2573.2
2388.785	2525.2
2392.595	2512.2
2396.402	2501.2
2400.206	2471.2
2404.007	2462.2
2407.804	2441.2
2411.597	2422.2
2415.388	2390.2
2419.174	2403.2
2422.958	2367.2
2426.738	2355.2
2430.515	2326.2
2434.289	2327.2
2438.059	2283.2
2441.825	2281.2
2445.589	2254.2
2449.349	2234.2
2453.106	2213.2
2456.859	2180.2
2460.61	2139.2
2464.356	2109.2
2468.1	2075.2
2471.84	2087.2
2475.577	2060.2
2479.311	2061.2
2483.041	2035.2
2486.768	2029.2
2490.492	2028.2
2494.213	2008.2
2497.93	1983.2
2501.644	1982.2
2505.355	1980.2
2509.062	1968.2
2512.766	1953.2
2516.467	1938.2
2520.165	1922.2
2523.859	1913.2
2527.551	1907.2
2531.239	1906.2
2534.923	1898.2
2538.605	1856.2
2542.283	1855.2
2545.958	1874.2
2549.63	1863.2
2553.299	1859.2
2556.964	1841.2
2560.626	1854.2
2564.285	1838.2
2567.941	1839.2
2571.594	1816.2
2575.243	1826.2
2578.89	1821.2
2582.533	1786.2
2586.173	1771.2
2589.809	1760.2
2593.443	1762.2
2597.073	1715.2
2600.701	1723.2
2604.325	1691.2
2607.946	1707.2
2611.564	1672.2
2615.178	1675.2
2618.79	1652.2
2622.398	1642.2
2626.004	1634.2
2629.606	1615.2
2633.205	1583.2
2636.801	1559.2
2640.394	1569.2
2643.983	1523.2
2647.57	1491.2
2651.153	1486.2
2654.734	1467.2
2658.311	1448.2
2661.885	1414.2
2665.456	1395.2
2669.025	1389.2
2672.589	1371.2
2676.151	1327.2
2679.71	1328.2
2683.266	1323.2
2686.819	1267.2
2690.368	1258.2
2693.915	1228.2
2697.458	1211.2
2700.999	1182.2
2704.536	1175.2
2708.071	1134.2
2711.602	1115.2
2715.13	1088.2
2718.656	1042.2
2722.178	1050.2
2725.697	1024.2
2729.214	1013.2
2732.727	1005.2
2736.237	998.2
2739.744	995.2
2743.249	994.2
2746.75	1006.2
2750.248	1012.2
2753.743	1027.2
2757.236	1038.2
2760.725	1051.2
2764.211	1054.2
2767.695	1058.2
2771.175	1057.2
2774.652	1051.2
2778.127	1047.2
2781.598	1024.2
2785.067	1034.2
2788.532	1030.2
2791.995	1016.2
2795.455	1021.2
2798.911	1017.2
2802.365	1039.2
2805.816	1026.2
2809.264	1026.2
2812.709	1021.2
2816.151	1022.2
2819.59	1035.2
2823.026	1021.2
2826.46	1022.2
2829.89	1023.2
2833.318	1024.2
2836.742	1049.2
2840.164	1045.2
2843.583	1065.2
2846.999	1067.2
2850.412	1086.2
2853.822	1091.2
2857.229	1110.2
2860.634	1119.2
2864.035	1154.2
2867.434	1169.2
2870.83	1165.2
2874.223	1219.2
2877.613	1243.2
2881	1231.2
2884.385	1251.2
2887.766	1254.2
2891.145	1246.2
2894.521	1258.2
2897.894	1232.2
2901.264	1240.2
2904.631	1251.2
2907.996	1246.2
2911.358	1259.2
2914.717	1261.2
2918.073	1272.2
2921.426	1290.2
2924.777	1306.2
2928.124	1336.2
2931.469	1337.2
2934.811	1379.2
2938.15	1396.2
2941.487	1395.2
2944.821	1425.2
2948.152	1411.2
2951.48	1400.2
2954.805	1400.2
2958.128	1387.2
2961.447	1352.2
2964.765	1349.2
2968.079	1361.2
2971.39	1381.2
2974.699	1400.2
2978.005	1407.2
2981.308	1432.2
2984.609	1452.2
2987.907	1487.2
2991.202	1509.2
2994.494	1537.2
2997.784	1566.2
3001.07	1599.2
3004.355	1641.2
3007.636	1633.2
3010.915	1676.2
3014.191	1688.2
3017.464	1704.2
3020.734	1708.2
3024.002	1719.2
3027.267	1735.2
3030.53	1744.2
3033.789	1777.2
3037.046	1785.2
3040.301	1820.2
3043.552	1857.2
3046.801	1899.2
3050.048	1927.2
3053.291	1973.2
3056.532	2027.2
3059.771	2078.2
3063.006	2151.2
3066.239	2221.2
3069.469	2264.2
3072.697	2348.2
3075.922	2422.2
3079.144	2445.2
3082.364	2533.2
3085.581	2562.2
3088.795	2618.2
3092.007	2690.2
3095.216	2745.2
3098.423	2798.2
3101.627	2838.2
3104.828	2935.2
3108.026	2988.2
3111.222	3043.2
3114.416	3103.2
3117.607	3224.2
3120.795	3257.2
3123.98	3353.2
3127.163	3404.2
3130.344	3479.2
3133.521	3599.2
3136.696	3662.2
3139.869	3742.2
3143.039	3815.2
3146.206	3847.2
3149.371	3911.2
3152.533	3938.2
3155.693	3979.2
3158.85	3987.2
3162.005	3995.2
3165.157	4025.2
3168.306	4031.2
3171.453	4050.2
3174.597	4078.2
3177.739	4071.2
3180.878	4074.2
3184.014	4051.2
3187.149	4072.2
3190.28	4077.2
3193.409	4111.2
3196.536	4116.2
3199.659	4102.2
3202.781	4113.2
3205.9	4092.2
3209.016	4096.2
3212.13	4072.2
3215.241	4033.2
3218.35	4005.2
3221.456	3949.2
3224.56	3936.2
3227.661	3890.2
3230.76	3844.2
3233.856	3854.2
3236.95	3780.2
3240.041	3732.2
3243.13	3707.2
3246.216	3679.2
3249.3	3665.2
3252.382	3667.2
3255.46	3612.2
3258.537	3641.2
3261.611	3650.2
3264.682	3603.2
3267.751	3620.2
3270.818	3617.2
3273.882	3590.2
3276.943	3583.2
3280.002	3558.2
3283.059	3541.2
3286.113	3499.2
3289.165	3431.2
3292.214	3368.2
3295.261	3336.2
3298.306	3283.2
3301.348	3217.2
3304.387	3167.2
3307.425	3130.2
3310.459	3080.2
3313.492	3034.2
3316.521	2998.2
3319.549	2917.2
3322.574	2926.2
3325.597	2907.2
3328.617	2885.2
3331.635	2877.2
3334.65	2870.2
3337.663	2832.2
3340.674	2815.2
3343.682	2819.2
3346.688	2790.2
3349.691	2787.2
3352.692	2767.2
3355.691	2781.2
3358.687	2741.2
3361.681	2699.2
3364.673	2672.2
3367.662	2632.2
3370.649	2592.2
3373.633	2554.2
3376.615	2540.2
3379.595	2474.2
3382.572	2444.2
3385.547	2394.2
3388.52	2376.2
3391.49	2330.2
3394.458	2311.2
3397.424	2287.2
3400.387	2252.2
3403.348	2203.2
3406.307	2169.2
3409.263	2159.2
3412.217	2132.2
3415.168	2097.2
3418.118	2105.2
3421.065	2036.2
3424.009	2024.2
3426.951	1982.2
3429.891	1968.2
3432.829	1907.2
3435.764	1880.2
3438.697	1832.2
3441.628	1784.2
3444.557	1715.2
3447.483	1669.2
3450.407	1623.2
3453.328	1557.2
3456.247	1513.2
3459.164	1458.2
3462.079	1420.2
3464.991	1341.2
3467.902	1301.2
3470.809	1262.2
3473.715	1192.2
3476.618	1171.2
3479.519	1129.2
3482.418	1092.2
3485.315	1051.2
3488.209	999.2
3491.101	977.2
3493.99	952.2
3496.878	901.2
3499.763	873.2
3502.646	838.2
3505.527	790.2
3508.405	757.2
3511.281	714.2
3514.155	659.2
3517.027	635.2
3519.897	595.2
3522.764	552.2
3525.629	512.2
3528.492	466.2
3531.352	426.2
3534.211	373.2
3537.067	352.2
3539.921	311.2
3542.773	292.2
3545.622	240.2
3548.469	204.2
3551.315	177.2
3554.157	164.2
3556.998	126.2
3559.837	113.2
3562.673	68.2
3565.507	50.2
3568.339	39.2
3571.169	18.2
3573.996	-10.8
3576.822	-26.8
3579.645	-48.8
3582.466	-76.8
3585.285	-89.8
3588.101	-112.8
3590.916	-134.8
3593.728	-150.8
3596.538	-149.8
3599.346	-178.8
3602.152	-182.8
3604.956	-208.8
3607.757	-223.8
3610.556	-246.8
3613.354	-254.8
3616.149	-268.8
3618.942	-281.8
3621.732	-285.8
3624.521	-299.8
3627.307	-321.8
3630.092	-323.8
3632.874	-334.8
3635.654	-343.8
3638.432	-355.8
3641.208	-362.8
3643.982	-368.8
3646.753	-376.8
3649.523	-390.8
3652.29	-410.8
3655.055	-405.8
3657.818	-416.8
3660.579	-429.8
3663.338	-431.8
3666.095	-454.8
3668.849	-465.8
3671.602	-469.8
3674.352	-465.8
3677.101	-481.8
3679.847	-485.8
3682.591	-496.8
3685.333	-503.8
3688.073	-505.8
3690.811	-507.8
3693.547	-514.8
3696.281	-522.8
3699.013	-522.8
3701.742	-534.8
3704.47	-532.8
3707.195	-544.8
3709.919	-539.8
3712.64	-547.8
3715.359	-547.8
3718.076	-554.8
3720.792	-563.8
3723.505	-561.8
3726.216	-572.8
3728.925	-570.8
3731.632	-578.8
3734.336	-578.8
3737.039	-587.8
3739.74	-579.8
3742.439	-576.8
3745.136	-596.8
3747.83	-589.8
3750.523	-584.8
3753.213	-594.8
3755.902	-592.8
3758.589	-593.8
3761.273	-591.8
3763.956	-603.8
3766.636	-596.8
3769.315	-602.8
3771.991	-607.8
3774.665	-602.8
3777.338	-603.8
3780.008	-606.8
3782.677	-606.8
3785.343	-612.8
3788.007	-603.8
3790.67	-612.8
3793.33	-615.8
3795.989	-617.8
3798.645	-623.8
3801.299	-626.8
3803.952	-621.8
3806.602	-627.8
3809.251	-632.8
3811.897	-616.8
3814.542	-618.8
3817.184	-622.8
3819.825	-622.8
3822.463	-623.8
3825.1	-624.8
3827.735	-634.8
3830.367	-632.8
3832.998	-630.8
3835.627	-633.8
3838.253	-634.8
3840.878	-631.8
3843.501	-634.8
3846.122	-627.8
3848.741	-632.8
3851.358	-636.8
3853.973	-635.8
3856.586	-636.8
3859.197	-644.8
3861.806	-633.8
3864.414	-632.8
3867.019	-630.8
3869.622	-633.8
3872.224	-636.8
3874.823	-621.8
3877.421	-594.8
3880.016	-585.8
3882.61	-541.8
3885.202	-543.8
3887.792	-573.8
3890.38	-598.8
3892.966	-618.8
3895.55	-633.8
3898.132	-635.8
3900.713	-642.8
3903.291	-649.8
3905.868	-643.8
3908.442	-644.8
3911.015	-648.8
3913.586	-646.8
3916.155	-644.8
3918.722	-644.8
3921.287	-645.8
3923.85	-646.8
3926.411	-639.8
3928.971	-647.8
3931.528	-651.8
3934.084	-649.8
3936.638	-649.8
3939.19	-651.8
3941.74	-657.8
3944.288	-657.8
3946.834	-654.8
3949.378	-657.8
3951.921	-657.8
3954.462	-655.8
3957	-651.8
3959.537	-644.8
3962.072	-648.8
3964.606	-647.8
3967.137	-653.8
3969.667	-651.8
3972.194	-643.8
3974.72	-646.8
3977.244	-642.8
3979.766	-641.8
3982.286	-640.8
3984.805	-634.8
3987.321	-635.8
3989.836	-633.8
3992.349	-634.8
3994.86	-632.8
3997.369	-641.8
3999.877	-632.8
4002.382	-633.8
4004.886	-640.8
4007.388	-642.8
4009.888	-634.8
4012.386	-641.8
4014.883	-633.8
4017.377	-640.8
4019.87	-637.8
4022.361	-646.8
4024.85	-642.8
4027.338	-641.8
4029.823	-643.8
4032.307	-643.8
4034.789	-642.8
4037.269	-648.8
4039.747	-642.8
4042.224	-637.8
4044.699	-641.8
4047.172	-641.8
4049.643	-640.8
4052.112	-640.8
4054.58	-631.8
4057.046	-646.8
4059.51	-645.8
4061.972	-643.8
4064.432	-640.8
4066.891	-646.8
4069.348	-645.8
4071.803	-645.8
4074.256	-645.8
4076.708	-644.8
4079.158	-642.8
4081.606	-637.8
4084.052	-636.8
4086.497	-645.8
4088.939	-638.8
4091.38	-634.8
4093.819	-638.8
4096.257	-667.8
4098.693	-675.8
4101.127	-673.8
4103.559	-675.8
4105.989	-404.8
4108.418	-392.8
4110.845	-365.8
4113.27	-345.8
4115.694	-290.8
4118.115	-250.8
4120.535	-636.8
4122.954	-647.8
4125.37	-636.8
4127.785	-635.8
4130.198	-648.8
4132.609	-637.8
4135.019	-676.8
4137.427	-677.8
4139.833	-672.8
4142.237	-669.8
