Data from 2018-2-7_conc=3_RamanShift_10.txt Node
Date: Tue Feb 13 12:26:14 IST 2018
User: aro
Spectrometer: QEPB0276
Trigger mode: 0
Integration Time (sec): 3.000000E1
Scans to average: 1
Electric dark correction enabled: true
Nonlinearity correction enabled: false
Boxcar width: 0
XAxis mode: Raman Shifts
Number of Pixels in Spectrum: 1044
>>>>>Begin Spectral Data<<<<<
160.701	-154
166.742	33
172.777	570
178.805	2193
184.826	5988
190.841	12391
196.849	19656
202.85	24567
208.845	26225
214.833	25913
220.815	25459
226.789	25224
232.758	25118
238.719	24995
244.674	24583
250.623	24143
256.565	23574
262.5	23123
268.429	22743
274.351	22409
280.267	22115
286.176	21804
292.079	21642
297.975	21395
303.865	21214
309.748	21070
315.625	20967
321.495	20834
327.359	20741
333.217	20679
339.068	20694
344.912	20608
350.751	20642
356.583	20632
362.408	20608
368.227	20631
374.04	20586
379.847	20637
385.647	20813
391.44	20875
397.228	20867
403.009	20994
408.784	21025
414.553	21118
420.315	21197
426.071	21174
431.821	21189
437.565	21161
443.302	21175
449.033	21081
454.758	21054
460.477	20938
466.189	20974
471.896	20964
477.596	20904
483.29	20813
488.978	20813
494.66	20707
500.335	20636
506.005	20402
511.668	20120
517.325	19977
522.977	19855
528.622	19653
534.261	19480
539.894	19466
545.521	19325
551.141	19314
556.756	19259
562.365	19189
567.968	19133
573.565	19056
579.155	18951
584.74	18870
590.319	18822
595.892	18779
601.459	18636
607.02	18571
612.575	18485
618.124	18382
623.667	18330
629.204	18230
634.735	18095
640.261	17999
645.781	17945
651.294	17933
656.802	17933
662.304	17907
667.8	17905
673.29	17866
678.775	17846
684.254	17799
689.726	17730
695.193	17672
700.655	17575
706.11	17494
711.56	17422
717.004	17322
722.442	17293
727.874	17222
733.301	17129
738.722	17061
744.137	17017
749.547	17091
754.951	17024
760.349	17118
765.741	17029
771.128	17079
776.509	17155
781.885	17112
787.254	17096
792.618	17009
797.977	16881
803.33	16753
808.677	16699
814.019	16587
819.355	16530
824.686	16439
830.011	16345
835.33	16394
840.644	16404
845.952	16470
851.255	16489
856.552	16530
861.844	16453
867.13	16465
872.41	16373
877.686	16342
882.955	16168
888.219	15997
893.478	15851
898.731	15661
903.979	15515
909.221	15388
914.458	15314
919.69	15364
924.916	15403
930.136	15499
935.351	15471
940.561	15477
945.766	15438
950.965	15418
956.158	15261
961.347	15136
966.529	14970
971.707	14731
976.879	14574
982.046	14461
987.208	14413
992.364	14382
997.515	14494
1002.66	14653
1007.801	14839
1012.936	14888
1018.066	14902
1023.19	14941
1028.309	14918
1033.423	14874
1038.532	14824
1043.636	14675
1048.734	14474
1053.827	14268
1058.915	14169
1063.998	14045
1069.075	14068
1074.147	14050
1079.214	14141
1084.276	14169
1089.333	14345
1094.385	14342
1099.431	14385
1104.472	14347
1109.509	14314
1114.54	14134
1119.565	13949
1124.586	13789
1129.602	13671
1134.613	13588
1139.618	13523
1144.619	13494
1149.614	13478
1154.604	13492
1159.589	13577
1164.57	13537
1169.545	13587
1174.515	13585
1179.48	13484
1184.44	13433
1189.395	13365
1194.345	13241
1199.29	13202
1204.23	13193
1209.165	13195
1214.095	13263
1219.021	13325
1223.941	13425
1228.856	13492
1233.766	13568
1238.672	13587
1243.572	13530
1248.467	13450
1253.358	13302
1258.244	13113
1263.124	12924
1268	12739
1272.871	12592
1277.737	12466
1282.599	12465
1287.455	12409
1292.306	12414
1297.153	12489
1301.995	12545
1306.832	12594
1311.664	12614
1316.491	12522
1321.314	12401
1326.132	12205
1330.945	11974
1335.753	11656
1340.556	11414
1345.354	11154
1350.148	10983
1354.937	10959
1359.722	10953
1364.501	11008
1369.276	11155
1374.046	11266
1378.811	11412
1383.572	11545
1388.327	11578
1393.079	11517
1397.825	11414
1402.567	11244
1407.304	11104
1412.036	10968
1416.764	10876
1421.487	10812
1426.205	10758
1430.919	10740
1435.628	10738
1440.333	10774
1445.032	10792
1449.727	10780
1454.418	10762
1459.104	10633
1463.785	10439
1468.462	10208
1473.134	9996
1477.802	9788
1482.465	9629
1487.123	9569
1491.777	9552
1496.426	9550
1501.071	9651
1505.711	9824
1510.347	10025
1514.978	10200
1519.604	10324
1524.226	10439
1528.844	10429
1533.457	10438
1538.065	10384
1542.669	10301
1547.269	10216
1551.864	10145
1556.454	10138
1561.041	10130
1565.622	10110
1570.199	10116
1574.772	10197
1579.34	10295
1583.904	10274
1588.464	10341
1593.019	10285
1597.569	10276
1602.115	10212
1606.657	10153
1611.195	10077
1615.728	9996
1620.256	9983
1624.78	9962
1629.3	9991
1633.816	9991
1638.327	10071
1642.834	10067
1647.336	10132
1651.834	10112
1656.328	10131
1660.817	10054
1665.302	9944
1669.783	9765
1674.259	9519
1678.732	9259
1683.199	8928
1687.663	8641
1692.122	8416
1696.577	8272
1701.028	8302
1705.474	8401
1709.917	8474
1714.355	8474
1718.788	8444
1723.218	8270
1727.643	8168
1732.064	7985
1736.481	7837
1740.893	7628
1745.301	7413
1749.705	7233
1754.105	7015
1758.501	6808
1762.893	6640
1767.28	6438
1771.663	6296
1776.042	6161
1780.417	6155
1784.787	6141
1789.154	6221
1793.516	6332
1797.874	6469
1802.228	6614
1806.578	6638
1810.924	6690
1815.266	6594
1819.603	6490
1823.937	6386
1828.266	6306
1832.591	6203
1836.913	6131
1841.23	6043
1845.543	6016
1849.852	6009
1854.156	5965
1858.457	5974
1862.754	5940
1867.047	5970
1871.335	5901
1875.62	5915
1879.9	5863
1884.177	5813
1888.449	5793
1892.718	5684
1896.982	5619
1901.243	5578
1905.499	5545
1909.752	5542
1914	5545
1918.245	5575
1922.485	5593
1926.722	5668
1930.954	5741
1935.183	5806
1939.408	5859
1943.628	5923
1947.845	5906
1952.058	5913
1956.267	5840
1960.472	5815
1964.673	5679
1968.87	5588
1973.063	5541
1977.252	5435
1981.438	5402
1985.619	5326
1989.797	5323
1993.971	5263
1998.14	5238
2002.306	5202
2006.469	5210
2010.627	5169
2014.781	5140
2018.932	5096
2023.078	5036
2027.221	4960
2031.36	4889
2035.495	4812
2039.627	4717
2043.754	4684
2047.878	4627
2051.998	4603
2056.114	4592
2060.226	4578
2064.334	4581
2068.439	4613
2072.54	4644
2076.637	4661
2080.73	4678
2084.82	4727
2088.906	4726
2092.988	4729
2097.066	4747
2101.14	4690
2105.211	4670
2109.278	4643
2113.342	4637
2117.401	4611
2121.457	4570
2125.509	4548
2129.558	4522
2133.602	4504
2137.643	4475
2141.681	4477
2145.714	4446
2149.744	4422
2153.77	4388
2157.793	4316
2161.812	4273
2165.827	4207
2169.838	4123
2173.846	4101
2177.851	4047
2181.851	3964
2185.848	3916
2189.841	3862
2193.831	3825
2197.817	3800
2201.799	3787
2205.778	3786
2209.753	3772
2213.725	3749
2217.693	3728
2221.657	3723
2225.618	3737
2229.575	3708
2233.529	3674
2237.479	3619
2241.425	3608
2245.368	3523
2249.307	3493
2253.243	3453
2257.175	3414
2261.104	3353
2265.029	3302
2268.95	3285
2272.868	3236
2276.783	3225
2280.694	3164
2284.601	3150
2288.505	3112
2292.405	3114
2296.302	3092
2300.195	3053
2304.085	2984
2307.971	2970
2311.854	2927
2315.734	2873
2319.609	2832
2323.482	2785
2327.351	2777
2331.216	2768
2335.078	2763
2338.937	2731
2342.792	2732
2346.643	2728
2350.492	2706
2354.336	2730
2358.178	2716
2362.015	2748
2365.85	2750
2369.681	2722
2373.508	2743
2377.333	2748
2381.153	2728
2384.971	2722
2388.785	2697
2392.595	2658
2396.402	2659
2400.206	2645
2404.007	2617
2407.804	2594
2411.597	2565
2415.388	2582
2419.174	2549
2422.958	2517
2426.738	2523
2430.515	2504
2434.289	2505
2438.059	2451
2441.825	2447
2445.589	2422
2449.349	2380
2453.106	2358
2456.859	2333
2460.61	2289
2464.356	2273
2468.1	2260
2471.84	2215
2475.577	2198
2479.311	2193
2483.041	2163
2486.768	2174
2490.492	2157
2494.213	2146
2497.93	2155
2501.644	2127
2505.355	2100
2509.062	2115
2512.766	2118
2516.467	2093
2520.165	2098
2523.859	2058
2527.551	2038
2531.239	2027
2534.923	2006
2538.605	2020
2542.283	2019
2545.958	1979
2549.63	1987
2553.299	1993
2556.964	1991
2560.626	1977
2564.285	1968
2567.941	1959
2571.594	1953
2575.243	1942
2578.89	1939
2582.533	1908
2586.173	1899
2589.809	1870
2593.443	1867
2597.073	1861
2600.701	1839
2604.325	1811
2607.946	1811
2611.564	1798
2615.178	1788
2618.79	1775
2622.398	1764
2626.004	1752
2629.606	1716
2633.205	1715
2636.801	1686
2640.394	1656
2643.983	1616
2647.57	1600
2651.153	1576
2654.734	1571
2658.311	1539
2661.885	1531
2665.456	1495
2669.025	1475
2672.589	1468
2676.151	1443
2679.71	1426
2683.266	1389
2686.819	1375
2690.368	1349
2693.915	1314
2697.458	1295
2700.999	1265
2704.536	1225
2708.071	1203
2711.602	1181
2715.13	1150
2718.656	1119
2722.178	1105
2725.697	1088
2729.214	1063
2732.727	1063
2736.237	1053
2739.744	1065
2743.249	1063
2746.75	1058
2750.248	1076
2753.743	1094
2757.236	1113
2760.725	1097
2764.211	1122
2767.695	1111
2771.175	1114
2774.652	1112
2778.127	1110
2781.598	1102
2785.067	1131
2788.532	1086
2791.995	1091
2795.455	1088
2798.911	1094
2802.365	1093
2805.816	1097
2809.264	1082
2812.709	1093
2816.151	1073
2819.59	1105
2823.026	1078
2826.46	1088
2829.89	1096
2833.318	1098
2836.742	1109
2840.164	1117
2843.583	1098
2846.999	1101
2850.412	1134
2853.822	1140
2857.229	1147
2860.634	1163
2864.035	1189
2867.434	1219
2870.83	1233
2874.223	1245
2877.613	1261
2881	1273
2884.385	1301
2887.766	1277
2891.145	1280
2894.521	1283
2897.894	1268
2901.264	1258
2904.631	1251
2907.996	1260
2911.358	1272
2914.717	1274
2918.073	1300
2921.426	1294
2924.777	1308
2928.124	1328
2931.469	1351
2934.811	1373
2938.15	1380
2941.487	1397
2944.821	1412
2948.152	1418
2951.48	1394
2954.805	1373
2958.128	1355
2961.447	1365
2964.765	1317
2968.079	1345
2971.39	1339
2974.699	1364
2978.005	1403
2981.308	1421
2984.609	1435
2987.907	1457
2991.202	1490
2994.494	1534
2997.784	1554
3001.07	1586
3004.355	1614
3007.636	1614
3010.915	1628
3014.191	1671
3017.464	1667
3020.734	1660
3024.002	1691
3027.267	1695
3030.53	1701
3033.789	1727
3037.046	1749
3040.301	1773
3043.552	1801
3046.801	1842
3050.048	1877
3053.291	1934
3056.532	1976
3059.771	2022
3063.006	2072
3066.239	2157
3069.469	2222
3072.697	2264
3075.922	2336
3079.144	2365
3082.364	2419
3085.581	2440
3088.795	2511
3092.007	2598
3095.216	2621
3098.423	2704
3101.627	2726
3104.828	2826
3108.026	2869
3111.222	2939
3114.416	3016
3117.607	3066
3120.795	3148
3123.98	3204
3127.163	3307
3130.344	3348
3133.521	3424
3136.696	3488
3139.869	3593
3143.039	3634
3146.206	3674
3149.371	3730
3152.533	3789
3155.693	3782
3158.85	3792
3162.005	3821
3165.157	3819
3168.306	3842
3171.453	3832
3174.597	3852
3177.739	3862
3180.878	3860
3184.014	3879
3187.149	3873
3190.28	3870
3193.409	3882
3196.536	3909
3199.659	3868
3202.781	3897
3205.9	3894
3209.016	3883
3212.13	3856
3215.241	3824
3218.35	3804
3221.456	3740
3224.56	3710
3227.661	3665
3230.76	3657
3233.856	3597
3236.95	3572
3240.041	3525
3243.13	3501
3246.216	3522
3249.3	3447
3252.382	3446
3255.46	3436
3258.537	3429
3261.611	3419
3264.682	3437
3267.751	3409
3270.818	3407
3273.882	3374
3276.943	3365
3280.002	3353
3283.059	3300
3286.113	3307
3289.165	3240
3292.214	3186
3295.261	3121
3298.306	3091
3301.348	3044
3304.387	2971
3307.425	2930
3310.459	2895
3313.492	2839
3316.521	2794
3319.549	2801
3322.574	2743
3325.597	2723
3328.617	2710
3331.635	2685
3334.65	2668
3337.663	2646
3340.674	2634
3343.682	2635
3346.688	2596
3349.691	2608
3352.692	2591
3355.691	2570
3358.687	2547
3361.681	2535
3364.673	2502
3367.662	2442
3370.649	2398
3373.633	2391
3376.615	2356
3379.595	2304
3382.572	2257
3385.547	2230
3388.52	2212
3391.49	2161
3394.458	2143
3397.424	2117
3400.387	2104
3403.348	2074
3406.307	2026
3409.263	2014
3412.217	1984
3415.168	1951
3418.118	1947
3421.065	1915
3424.009	1890
3426.951	1844
3429.891	1808
3432.829	1779
3435.764	1740
3438.697	1705
3441.628	1638
3444.557	1602
3447.483	1540
3450.407	1496
3453.328	1447
3456.247	1404
3459.164	1334
3462.079	1284
3464.991	1247
3467.902	1199
3470.809	1152
3473.715	1102
3476.618	1091
3479.519	1027
3482.418	997
3485.315	967
3488.209	925
3491.101	884
3493.99	863
3496.878	816
3499.763	792
3502.646	756
3505.527	707
3508.405	680
3511.281	639
3514.155	611
3517.027	555
3519.897	542
3522.764	490
3525.629	444
3528.492	400
3531.352	362
3534.211	333
3537.067	300
3539.921	266
3542.773	246
3545.622	201
3548.469	179
3551.315	152
3554.157	118
3556.998	96
3559.837	60
3562.673	48
3565.507	45
3568.339	19
3571.169	-18
3573.996	-30
3576.822	-62
3579.645	-62
3582.466	-86
3585.285	-108
3588.101	-120
3590.916	-143
3593.728	-173
3596.538	-180
3599.346	-190
3602.152	-208
3604.956	-226
3607.757	-237
3610.556	-244
3613.354	-258
3616.149	-275
3618.942	-288
3621.732	-295
3624.521	-318
3627.307	-324
3630.092	-328
3632.874	-343
3635.654	-355
3638.432	-356
3641.208	-363
3643.982	-379
3646.753	-379
3649.523	-394
3652.29	-401
3655.055	-403
3657.818	-415
3660.579	-425
3663.338	-430
3666.095	-443
3668.849	-456
3671.602	-456
3674.352	-466
3677.101	-474
3679.847	-486
3682.591	-492
3685.333	-488
3688.073	-497
3690.811	-504
3693.547	-506
3696.281	-515
3699.013	-512
3701.742	-527
3704.47	-528
3707.195	-534
3709.919	-536
3712.64	-533
3715.359	-540
3718.076	-537
3720.792	-550
3723.505	-550
3726.216	-564
3728.925	-555
3731.632	-569
3734.336	-568
3737.039	-573
3739.74	-576
3742.439	-578
3745.136	-575
3747.83	-576
3750.523	-569
3753.213	-590
3755.902	-582
3758.589	-582
3761.273	-575
3763.956	-587
3766.636	-587
3769.315	-589
3771.991	-592
3774.665	-597
3777.338	-593
3780.008	-592
3782.677	-598
3785.343	-598
3788.007	-590
3790.67	-604
3793.33	-601
3795.989	-606
3798.645	-611
3801.299	-614
3803.952	-610
3806.602	-605
3809.251	-613
3811.897	-612
3814.542	-609
3817.184	-612
3819.825	-607
3822.463	-611
3825.1	-615
3827.735	-615
3830.367	-616
3832.998	-623
3835.627	-625
3838.253	-626
3840.878	-618
3843.501	-622
3846.122	-617
3848.741	-621
3851.358	-627
3853.973	-619
3856.586	-622
3859.197	-628
3861.806	-628
3864.414	-616
3867.019	-624
3869.622	-626
3872.224	-623
3874.823	-612
3877.421	-590
3880.016	-573
3882.61	-542
3885.202	-538
3887.792	-566
3890.38	-587
3892.966	-606
3895.55	-620
3898.132	-631
3900.713	-635
3903.291	-632
3905.868	-639
3908.442	-636
3911.015	-633
3913.586	-640
3916.155	-636
3918.722	-632
3921.287	-637
3923.85	-633
3926.411	-638
3928.971	-638
3931.528	-640
3934.084	-635
3936.638	-639
3939.19	-647
3941.74	-643
3944.288	-644
3946.834	-644
3949.378	-638
3951.921	-644
3954.462	-639
3957	-635
3959.537	-629
3962.072	-633
3964.606	-632
3967.137	-644
3969.667	-635
3972.194	-630
3974.72	-632
3977.244	-628
3979.766	-628
3982.286	-627
3984.805	-623
3987.321	-623
3989.836	-633
3992.349	-626
3994.86	-625
3997.369	-633
3999.877	-623
4002.382	-619
4004.886	-630
4007.388	-625
4009.888	-620
4012.386	-623
4014.883	-624
4017.377	-623
4019.87	-620
4022.361	-625
4024.85	-625
4027.338	-631
4029.823	-626
4032.307	-633
4034.789	-633
4037.269	-634
4039.747	-631
4042.224	-625
4044.699	-631
4047.172	-628
4049.643	-634
4052.112	-627
4054.58	-626
4057.046	-631
4059.51	-631
4061.972	-631
4064.432	-625
4066.891	-624
4069.348	-625
4071.803	-629
4074.256	-626
4076.708	-629
4079.158	-624
4081.606	-623
4084.052	-623
4086.497	-629
4088.939	-621
4091.38	-624
4093.819	-627
4096.257	-664
4098.693	-663
4101.127	-661
4103.559	-664
4105.989	-398
4108.418	-372
4110.845	-354
4113.27	-340
4115.694	-289
4118.115	-243
4120.535	-631
4122.954	-628
4125.37	-626
4127.785	-630
4130.198	-630
4132.609	-622
4135.019	-663
4137.427	-662
4139.833	-661
4142.237	-656
