Data from 2018-2-7_conc=6_RamanShift_11.txt Node
Date: Tue Feb 13 14:34:13 IST 2018
User: aro
Spectrometer: QEPB0276
Trigger mode: 0
Integration Time (sec): 3.000000E1
Scans to average: 1
Electric dark correction enabled: true
Nonlinearity correction enabled: false
Boxcar width: 0
XAxis mode: Raman Shifts
Number of Pixels in Spectrum: 1044
>>>>>Begin Spectral Data<<<<<
160.701	-161.8
166.742	26.2
172.777	585.2
178.805	2248.2
184.826	6130.2
190.841	12692.2
196.849	20140.2
202.85	25338.2
208.845	26895.2
214.833	26534.2
220.815	25999.2
226.789	25712.2
232.758	25663.2
238.719	25354.2
244.674	25027.2
250.623	24553.2
256.565	23965.2
262.5	23441.2
268.429	22912.2
274.351	22547.2
280.267	22255.2
286.176	21944.2
292.079	21660.2
297.975	21513.2
303.865	21271.2
309.748	21154.2
315.625	20936.2
321.495	20822.2
327.359	20763.2
333.217	20686.2
339.068	20716.2
344.912	20718.2
350.751	20647.2
356.583	20625.2
362.408	20583.2
368.227	20594.2
374.04	20648.2
379.847	20626.2
385.647	20755.2
391.44	20833.2
397.228	20881.2
403.009	20950.2
408.784	21065.2
414.553	21153.2
420.315	21186.2
426.071	21158.2
431.821	21108.2
437.565	21129.2
443.302	21102.2
449.033	21099.2
454.758	21022.2
460.477	20959.2
466.189	20941.2
471.896	20920.2
477.596	20826.2
483.29	20785.2
488.978	20769.2
494.66	20660.2
500.335	20491.2
506.005	20230.2
511.668	20006.2
517.325	19763.2
522.977	19573.2
528.622	19411.2
534.261	19300.2
539.894	19218.2
545.521	19121.2
551.141	19068.2
556.756	18998.2
562.365	18903.2
567.968	18851.2
573.565	18724.2
579.155	18620.2
584.74	18562.2
590.319	18509.2
595.892	18449.2
601.459	18290.2
607.02	18289.2
612.575	18121.2
618.124	18037.2
623.667	17899.2
629.204	17851.2
634.735	17757.2
640.261	17675.2
645.781	17590.2
651.294	17559.2
656.802	17601.2
662.304	17524.2
667.8	17476.2
673.29	17444.2
678.775	17406.2
684.254	17316.2
689.726	17330.2
695.193	17260.2
700.655	17122.2
706.11	17057.2
711.56	16980.2
717.004	16902.2
722.442	16801.2
727.874	16756.2
733.301	16714.2
738.722	16645.2
744.137	16599.2
749.547	16604.2
754.951	16589.2
760.349	16615.2
765.741	16605.2
771.128	16603.2
776.509	16672.2
781.885	16622.2
787.254	16543.2
792.618	16504.2
797.977	16305.2
803.33	16245.2
808.677	16197.2
814.019	16103.2
819.355	15969.2
824.686	15918.2
830.011	15922.2
835.33	15854.2
840.644	15942.2
845.952	15874.2
851.255	15963.2
856.552	15965.2
861.844	15957.2
867.13	15897.2
872.41	15802.2
877.686	15724.2
882.955	15566.2
888.219	15435.2
893.478	15253.2
898.731	15105.2
903.979	14900.2
909.221	14816.2
914.458	14756.2
919.69	14810.2
924.916	14832.2
930.136	14832.2
935.351	14808.2
940.561	14858.2
945.766	14845.2
950.965	14752.2
956.158	14613.2
961.347	14488.2
966.529	14278.2
971.707	14088.2
976.879	13942.2
982.046	13823.2
987.208	13796.2
992.364	13765.2
997.515	13845.2
1002.66	13960.2
1007.801	14173.2
1012.936	14240.2
1018.066	14285.2
1023.19	14229.2
1028.309	14282.2
1033.423	14232.2
1038.532	14113.2
1043.636	13986.2
1048.734	13803.2
1053.827	13654.2
1058.915	13507.2
1063.998	13439.2
1069.075	13344.2
1074.147	13390.2
1079.214	13413.2
1084.276	13529.2
1089.333	13608.2
1094.385	13661.2
1099.431	13648.2
1104.472	13713.2
1109.509	13621.2
1114.54	13427.2
1119.565	13265.2
1124.586	13138.2
1129.602	12922.2
1134.613	12921.2
1139.618	12823.2
1144.619	12812.2
1149.614	12822.2
1154.604	12756.2
1159.589	12830.2
1164.57	12843.2
1169.545	12875.2
1174.515	12870.2
1179.48	12790.2
1184.44	12694.2
1189.395	12574.2
1194.345	12497.2
1199.29	12432.2
1204.23	12450.2
1209.165	12532.2
1214.095	12515.2
1219.021	12626.2
1223.941	12712.2
1228.856	12769.2
1233.766	12785.2
1238.672	12802.2
1243.572	12796.2
1248.467	12650.2
1253.358	12576.2
1258.244	12368.2
1263.124	12200.2
1268	12009.2
1272.871	11825.2
1277.737	11793.2
1282.599	11697.2
1287.455	11731.2
1292.306	11728.2
1297.153	11741.2
1301.995	11842.2
1306.832	11826.2
1311.664	11867.2
1316.491	11822.2
1321.314	11676.2
1326.132	11482.2
1330.945	11275.2
1335.753	10992.2
1340.556	10692.2
1345.354	10541.2
1350.148	10340.2
1354.937	10224.2
1359.722	10280.2
1364.501	10294.2
1369.276	10398.2
1374.046	10529.2
1378.811	10598.2
1383.572	10693.2
1388.327	10808.2
1393.079	10757.2
1397.825	10605.2
1402.567	10490.2
1407.304	10370.2
1412.036	10252.2
1416.764	10199.2
1421.487	10145.2
1426.205	10058.2
1430.919	10040.2
1435.628	10014.2
1440.333	10030.2
1445.032	10075.2
1449.727	10093.2
1454.418	10076.2
1459.104	9977.2
1463.785	9760.2
1468.462	9562.2
1473.134	9359.2
1477.802	9166.2
1482.465	8965.2
1487.123	8888.2
1491.777	8839.2
1496.426	8901.2
1501.071	8979.2
1505.711	9070.2
1510.347	9207.2
1514.978	9440.2
1519.604	9505.2
1524.226	9625.2
1528.844	9599.2
1533.457	9611.2
1538.065	9510.2
1542.669	9512.2
1547.269	9397.2
1551.864	9437.2
1556.454	9386.2
1561.041	9371.2
1565.622	9398.2
1570.199	9396.2
1574.772	9440.2
1579.34	9531.2
1583.904	9642.2
1588.464	9628.2
1593.019	9645.2
1597.569	9598.2
1602.115	9587.2
1606.657	9535.2
1611.195	9510.2
1615.728	9446.2
1620.256	9396.2
1624.78	9356.2
1629.3	9429.2
1633.816	9454.2
1638.327	9482.2
1642.834	9534.2
1647.336	9564.2
1651.834	9596.2
1656.328	9583.2
1660.817	9492.2
1665.302	9401.2
1669.783	9217.2
1674.259	8981.2
1678.732	8674.2
1683.199	8420.2
1687.663	8115.2
1692.122	7877.2
1696.577	7746.2
1701.028	7661.2
1705.474	7731.2
1709.917	7756.2
1714.355	7747.2
1718.788	7695.2
1723.218	7597.2
1727.643	7450.2
1732.064	7298.2
1736.481	7168.2
1740.893	6957.2
1745.301	6788.2
1749.705	6605.2
1754.105	6409.2
1758.501	6217.2
1762.893	6044.2
1767.28	5903.2
1771.663	5752.2
1776.042	5664.2
1780.417	5605.2
1784.787	5584.2
1789.154	5671.2
1793.516	5707.2
1797.874	5846.2
1802.228	5941.2
1806.578	5956.2
1810.924	5935.2
1815.266	5925.2
1819.603	5849.2
1823.937	5759.2
1828.266	5658.2
1832.591	5577.2
1836.913	5482.2
1841.23	5447.2
1845.543	5408.2
1849.852	5415.2
1854.156	5376.2
1858.457	5371.2
1862.754	5332.2
1867.047	5358.2
1871.335	5327.2
1875.62	5317.2
1879.9	5328.2
1884.177	5295.2
1888.449	5201.2
1892.718	5149.2
1896.982	5132.2
1901.243	5063.2
1905.499	5043.2
1909.752	4994.2
1914	4996.2
1918.245	5016.2
1922.485	5021.2
1926.722	5087.2
1930.954	5156.2
1935.183	5168.2
1939.408	5222.2
1943.628	5252.2
1947.845	5276.2
1952.058	5286.2
1956.267	5224.2
1960.472	5184.2
1964.673	5088.2
1968.87	4996.2
1973.063	4951.2
1977.252	4892.2
1981.438	4834.2
1985.619	4781.2
1989.797	4747.2
1993.971	4725.2
1998.14	4712.2
2002.306	4712.2
2006.469	4669.2
2010.627	4632.2
2014.781	4606.2
2018.932	4563.2
2023.078	4557.2
2027.221	4487.2
2031.36	4433.2
2035.495	4351.2
2039.627	4294.2
2043.754	4243.2
2047.878	4170.2
2051.998	4181.2
2056.114	4162.2
2060.226	4140.2
2064.334	4147.2
2068.439	4169.2
2072.54	4169.2
2076.637	4237.2
2080.73	4234.2
2084.82	4253.2
2088.906	4284.2
2092.988	4257.2
2097.066	4261.2
2101.14	4207.2
2105.211	4200.2
2109.278	4175.2
2113.342	4140.2
2117.401	4125.2
2121.457	4095.2
2125.509	4100.2
2129.558	4039.2
2133.602	4057.2
2137.643	4023.2
2141.681	3983.2
2145.714	3990.2
2149.744	3989.2
2153.77	3948.2
2157.793	3870.2
2161.812	3844.2
2165.827	3764.2
2169.838	3701.2
2173.846	3675.2
2177.851	3587.2
2181.851	3542.2
2185.848	3509.2
2189.841	3467.2
2193.831	3431.2
2197.817	3394.2
2201.799	3389.2
2205.778	3379.2
2209.753	3348.2
2213.725	3354.2
2217.693	3317.2
2221.657	3340.2
2225.618	3336.2
2229.575	3284.2
2233.529	3265.2
2237.479	3222.2
2241.425	3176.2
2245.368	3133.2
2249.307	3095.2
2253.243	3045.2
2257.175	3017.2
2261.104	2963.2
2265.029	2944.2
2268.95	2919.2
2272.868	2885.2
2276.783	2835.2
2280.694	2809.2
2284.601	2770.2
2288.505	2759.2
2292.405	2752.2
2296.302	2715.2
2300.195	2685.2
2304.085	2645.2
2307.971	2591.2
2311.854	2568.2
2315.734	2523.2
2319.609	2488.2
2323.482	2448.2
2327.351	2440.2
2331.216	2419.2
2335.078	2424.2
2338.937	2406.2
2342.792	2369.2
2346.643	2385.2
2350.492	2372.2
2354.336	2373.2
2358.178	2365.2
2362.015	2390.2
2365.85	2377.2
2369.681	2403.2
2373.508	2398.2
2377.333	2378.2
2381.153	2383.2
2384.971	2385.2
2388.785	2344.2
2392.595	2357.2
2396.402	2304.2
2400.206	2265.2
2404.007	2248.2
2407.804	2258.2
2411.597	2228.2
2415.388	2231.2
2419.174	2208.2
2422.958	2214.2
2426.738	2174.2
2430.515	2146.2
2434.289	2142.2
2438.059	2122.2
2441.825	2109.2
2445.589	2094.2
2449.349	2055.2
2453.106	2031.2
2456.859	2001.2
2460.61	1962.2
2464.356	1941.2
2468.1	1908.2
2471.84	1885.2
2475.577	1871.2
2479.311	1886.2
2483.041	1876.2
2486.768	1848.2
2490.492	1871.2
2494.213	1839.2
2497.93	1838.2
2501.644	1807.2
2505.355	1809.2
2509.062	1817.2
2512.766	1782.2
2516.467	1775.2
2520.165	1780.2
2523.859	1750.2
2527.551	1738.2
2531.239	1749.2
2534.923	1730.2
2538.605	1711.2
2542.283	1708.2
2545.958	1688.2
2549.63	1680.2
2553.299	1676.2
2556.964	1663.2
2560.626	1682.2
2564.285	1667.2
2567.941	1666.2
2571.594	1652.2
2575.243	1633.2
2578.89	1643.2
2582.533	1616.2
2586.173	1610.2
2589.809	1594.2
2593.443	1592.2
2597.073	1564.2
2600.701	1539.2
2604.325	1537.2
2607.946	1536.2
2611.564	1503.2
2615.178	1512.2
2618.79	1498.2
2622.398	1497.2
2626.004	1470.2
2629.606	1445.2
2633.205	1416.2
2636.801	1402.2
2640.394	1385.2
2643.983	1372.2
2647.57	1332.2
2651.153	1336.2
2654.734	1311.2
2658.311	1279.2
2661.885	1257.2
2665.456	1252.2
2669.025	1239.2
2672.589	1204.2
2676.151	1197.2
2679.71	1191.2
2683.266	1165.2
2686.819	1148.2
2690.368	1111.2
2693.915	1098.2
2697.458	1076.2
2700.999	1057.2
2704.536	1023.2
2708.071	1006.2
2711.602	961.2
2715.13	958.2
2718.656	950.2
2722.178	928.2
2725.697	902.2
2729.214	886.2
2732.727	888.2
2736.237	909.2
2739.744	898.2
2743.249	892.2
2746.75	891.2
2750.248	903.2
2753.743	895.2
2757.236	916.2
2760.725	936.2
2764.211	945.2
2767.695	940.2
2771.175	930.2
2774.652	928.2
2778.127	930.2
2781.598	917.2
2785.067	930.2
2788.532	914.2
2791.995	906.2
2795.455	916.2
2798.911	905.2
2802.365	913.2
2805.816	931.2
2809.264	909.2
2812.709	897.2
2816.151	910.2
2819.59	915.2
2823.026	902.2
2826.46	911.2
2829.89	901.2
2833.318	942.2
2836.742	927.2
2840.164	941.2
2843.583	941.2
2846.999	950.2
2850.412	972.2
2853.822	970.2
2857.229	987.2
2860.634	1015.2
2864.035	1037.2
2867.434	1041.2
2870.83	1096.2
2874.223	1114.2
2877.613	1115.2
2881	1139.2
2884.385	1140.2
2887.766	1154.2
2891.145	1148.2
2894.521	1129.2
2897.894	1154.2
2901.264	1154.2
2904.631	1164.2
2907.996	1162.2
2911.358	1166.2
2914.717	1177.2
2918.073	1178.2
2921.426	1191.2
2924.777	1214.2
2928.124	1256.2
2931.469	1264.2
2934.811	1306.2
2938.15	1304.2
2941.487	1328.2
2944.821	1324.2
2948.152	1332.2
2951.48	1322.2
2954.805	1304.2
2958.128	1282.2
2961.447	1291.2
2964.765	1310.2
2968.079	1290.2
2971.39	1294.2
2974.699	1302.2
2978.005	1354.2
2981.308	1363.2
2984.609	1390.2
2987.907	1407.2
2991.202	1422.2
2994.494	1486.2
2997.784	1511.2
3001.07	1521.2
3004.355	1547.2
3007.636	1559.2
3010.915	1619.2
3014.191	1623.2
3017.464	1607.2
3020.734	1633.2
3024.002	1652.2
3027.267	1683.2
3030.53	1661.2
3033.789	1715.2
3037.046	1711.2
3040.301	1755.2
3043.552	1787.2
3046.801	1834.2
3050.048	1867.2
3053.291	1923.2
3056.532	1994.2
3059.771	2042.2
3063.006	2100.2
3066.239	2172.2
3069.469	2234.2
3072.697	2294.2
3075.922	2348.2
3079.144	2425.2
3082.364	2458.2
3085.581	2530.2
3088.795	2586.2
3092.007	2639.2
3095.216	2695.2
3098.423	2725.2
3101.627	2775.2
3104.828	2856.2
3108.026	2914.2
3111.222	3021.2
3114.416	3065.2
3117.607	3136.2
3120.795	3210.2
3123.98	3294.2
3127.163	3384.2
3130.344	3453.2
3133.521	3525.2
3136.696	3638.2
3139.869	3687.2
3143.039	3755.2
3146.206	3791.2
3149.371	3845.2
3152.533	3896.2
3155.693	3932.2
3158.85	3945.2
3162.005	3976.2
3165.157	4008.2
3168.306	3978.2
3171.453	4007.2
3174.597	4022.2
3177.739	4039.2
3180.878	4022.2
3184.014	4059.2
3187.149	4036.2
3190.28	4049.2
3193.409	4057.2
3196.536	4071.2
3199.659	4058.2
3202.781	4076.2
3205.9	4057.2
3209.016	4079.2
3212.13	4060.2
3215.241	4036.2
3218.35	4008.2
3221.456	3939.2
3224.56	3874.2
3227.661	3847.2
3230.76	3807.2
3233.856	3783.2
3236.95	3738.2
3240.041	3695.2
3243.13	3687.2
3246.216	3647.2
3249.3	3635.2
3252.382	3620.2
3255.46	3582.2
3258.537	3581.2
3261.611	3612.2
3264.682	3581.2
3267.751	3592.2
3270.818	3558.2
3273.882	3575.2
3276.943	3561.2
3280.002	3536.2
3283.059	3455.2
3286.113	3450.2
3289.165	3401.2
3292.214	3369.2
3295.261	3298.2
3298.306	3240.2
3301.348	3205.2
3304.387	3143.2
3307.425	3112.2
3310.459	3062.2
3313.492	3003.2
3316.521	2973.2
3319.549	2943.2
3322.574	2908.2
3325.597	2868.2
3328.617	2855.2
3331.635	2862.2
3334.65	2853.2
3337.663	2810.2
3340.674	2808.2
3343.682	2788.2
3346.688	2791.2
3349.691	2759.2
3352.692	2751.2
3355.691	2743.2
3358.687	2722.2
3361.681	2679.2
3364.673	2644.2
3367.662	2598.2
3370.649	2571.2
3373.633	2538.2
3376.615	2491.2
3379.595	2467.2
3382.572	2433.2
3385.547	2402.2
3388.52	2344.2
3391.49	2311.2
3394.458	2283.2
3397.424	2250.2
3400.387	2222.2
3403.348	2186.2
3406.307	2168.2
3409.263	2156.2
3412.217	2114.2
3415.168	2083.2
3418.118	2049.2
3421.065	2051.2
3424.009	2011.2
3426.951	1993.2
3429.891	1924.2
3432.829	1888.2
3435.764	1846.2
3438.697	1813.2
3441.628	1770.2
3444.557	1721.2
3447.483	1644.2
3450.407	1617.2
3453.328	1547.2
3456.247	1512.2
3459.164	1459.2
3462.079	1406.2
3464.991	1338.2
3467.902	1279.2
3470.809	1220.2
3473.715	1215.2
3476.618	1166.2
3479.519	1118.2
3482.418	1081.2
3485.315	1050.2
3488.209	990.2
3491.101	971.2
3493.99	929.2
3496.878	881.2
3499.763	858.2
3502.646	811.2
3505.527	776.2
3508.405	740.2
3511.281	700.2
3514.155	665.2
3517.027	620.2
3519.897	591.2
3522.764	550.2
3525.629	479.2
3528.492	459.2
3531.352	430.2
3534.211	371.2
3537.067	337.2
3539.921	292.2
3542.773	277.2
3545.622	235.2
3548.469	205.2
3551.315	164.2
3554.157	143.2
3556.998	121.2
3559.837	83.2
3562.673	78.2
3565.507	52.2
3568.339	34.2
3571.169	12.2
3573.996	-1.8
3576.822	-24.8
3579.645	-40.8
3582.466	-66.8
3585.285	-93.8
3588.101	-106.8
3590.916	-121.8
3593.728	-148.8
3596.538	-169.8
3599.346	-179.8
3602.152	-192.8
3604.956	-205.8
3607.757	-220.8
3610.556	-242.8
3613.354	-258.8
3616.149	-268.8
3618.942	-286.8
3621.732	-297.8
3624.521	-302.8
3627.307	-317.8
3630.092	-326.8
3632.874	-340.8
3635.654	-352.8
3638.432	-354.8
3641.208	-361.8
3643.982	-377.8
3646.753	-379.8
3649.523	-399.8
3652.29	-404.8
3655.055	-404.8
3657.818	-418.8
3660.579	-430.8
3663.338	-438.8
3666.095	-447.8
3668.849	-470.8
3671.602	-471.8
3674.352	-469.8
3677.101	-479.8
3679.847	-489.8
3682.591	-497.8
3685.333	-496.8
3688.073	-505.8
3690.811	-503.8
3693.547	-510.8
3696.281	-530.8
3699.013	-524.8
3701.742	-527.8
3704.47	-535.8
3707.195	-542.8
3709.919	-544.8
3712.64	-546.8
3715.359	-553.8
3718.076	-555.8
3720.792	-556.8
3723.505	-561.8
3726.216	-568.8
3728.925	-570.8
3731.632	-584.8
3734.336	-579.8
3737.039	-585.8
3739.74	-591.8
3742.439	-581.8
3745.136	-589.8
3747.83	-596.8
3750.523	-587.8
3753.213	-595.8
3755.902	-590.8
3758.589	-595.8
3761.273	-595.8
3763.956	-598.8
3766.636	-600.8
3769.315	-604.8
3771.991	-606.8
3774.665	-606.8
3777.338	-610.8
3780.008	-606.8
3782.677	-607.8
3785.343	-620.8
3788.007	-606.8
3790.67	-613.8
3793.33	-621.8
3795.989	-625.8
3798.645	-620.8
3801.299	-628.8
3803.952	-626.8
3806.602	-623.8
3809.251	-629.8
3811.897	-620.8
3814.542	-620.8
3817.184	-629.8
3819.825	-626.8
3822.463	-623.8
3825.1	-628.8
3827.735	-632.8
3830.367	-627.8
3832.998	-628.8
3835.627	-633.8
3838.253	-632.8
3840.878	-634.8
3843.501	-639.8
3846.122	-631.8
3848.741	-637.8
3851.358	-637.8
3853.973	-631.8
3856.586	-633.8
3859.197	-636.8
3861.806	-636.8
3864.414	-633.8
3867.019	-635.8
3869.622	-638.8
3872.224	-635.8
3874.823	-618.8
3877.421	-599.8
3880.016	-578.8
3882.61	-539.8
3885.202	-542.8
3887.792	-571.8
3890.38	-602.8
3892.966	-620.8
3895.55	-629.8
3898.132	-639.8
3900.713	-646.8
3903.291	-649.8
3905.868	-644.8
3908.442	-646.8
3911.015	-642.8
3913.586	-644.8
3916.155	-644.8
3918.722	-647.8
3921.287	-649.8
3923.85	-647.8
3926.411	-648.8
3928.971	-650.8
3931.528	-652.8
3934.084	-648.8
3936.638	-654.8
3939.19	-651.8
3941.74	-658.8
3944.288	-657.8
3946.834	-661.8
3949.378	-656.8
3951.921	-655.8
3954.462	-652.8
3957	-650.8
3959.537	-645.8
3962.072	-649.8
3964.606	-642.8
3967.137	-650.8
3969.667	-643.8
3972.194	-642.8
3974.72	-638.8
3977.244	-640.8
3979.766	-640.8
3982.286	-642.8
3984.805	-636.8
3987.321	-636.8
3989.836	-644.8
3992.349	-638.8
3994.86	-640.8
3997.369	-649.8
3999.877	-636.8
4002.382	-635.8
4004.886	-640.8
4007.388	-636.8
4009.888	-636.8
4012.386	-639.8
4014.883	-639.8
4017.377	-640.8
4019.87	-637.8
4022.361	-639.8
4024.85	-636.8
4027.338	-637.8
4029.823	-634.8
4032.307	-638.8
4034.789	-639.8
4037.269	-645.8
4039.747	-645.8
4042.224	-639.8
4044.699	-642.8
4047.172	-644.8
4049.643	-636.8
4052.112	-642.8
4054.58	-634.8
4057.046	-649.8
4059.51	-648.8
4061.972	-644.8
4064.432	-634.8
4066.891	-642.8
4069.348	-641.8
4071.803	-651.8
4074.256	-641.8
4076.708	-641.8
4079.158	-636.8
4081.606	-642.8
4084.052	-636.8
4086.497	-640.8
4088.939	-631.8
4091.38	-633.8
4093.819	-635.8
4096.257	-672.8
4098.693	-675.8
4101.127	-672.8
4103.559	-675.8
4105.989	-403.8
4108.418	-380.8
4110.845	-361.8
4113.27	-325.8
4115.694	-286.8
4118.115	-234.8
4120.535	-639.8
4122.954	-648.8
4125.37	-643.8
4127.785	-636.8
4130.198	-648.8
4132.609	-636.8
4135.019	-678.8
4137.427	-672.8
4139.833	-674.8
4142.237	-671.8
