Data from 2018-2-7_conc=4_RamanShift_05.txt Node
Date: Tue Feb 13 13:31:13 IST 2018
User: aro
Spectrometer: QEPB0276
Trigger mode: 0
Integration Time (sec): 3.000000E1
Scans to average: 1
Electric dark correction enabled: true
Nonlinearity correction enabled: false
Boxcar width: 0
XAxis mode: Raman Shifts
Number of Pixels in Spectrum: 1044
>>>>>Begin Spectral Data<<<<<
160.701	-170.9
166.742	12.1
172.777	576.1
178.805	2247.1
184.826	6062.1
190.841	12479.1
196.849	19568.1
202.85	24376.1
208.845	25773.1
214.833	25481.1
220.815	24937.1
226.789	24694.1
232.758	24561.1
238.719	24239.1
244.674	23843.1
250.623	23412.1
256.565	22862.1
262.5	22370.1
268.429	21816.1
274.351	21447.1
280.267	21124.1
286.176	20812.1
292.079	20606.1
297.975	20328.1
303.865	20127.1
309.748	20009.1
315.625	19785.1
321.495	19702.1
327.359	19622.1
333.217	19547.1
339.068	19515.1
344.912	19511.1
350.751	19520.1
356.583	19474.1
362.408	19401.1
368.227	19458.1
374.04	19429.1
379.847	19542.1
385.647	19573.1
391.44	19651.1
397.228	19771.1
403.009	19843.1
408.784	19894.1
414.553	19980.1
420.315	19946.1
426.071	19994.1
431.821	20028.1
437.565	19991.1
443.302	19910.1
449.033	19946.1
454.758	19940.1
460.477	19787.1
466.189	19757.1
471.896	19754.1
477.596	19663.1
483.29	19563.1
488.978	19621.1
494.66	19488.1
500.335	19368.1
506.005	19155.1
511.668	18885.1
517.325	18722.1
522.977	18510.1
528.622	18413.1
534.261	18225.1
539.894	18153.1
545.521	18070.1
551.141	18050.1
556.756	17946.1
562.365	17878.1
567.968	17888.1
573.565	17741.1
579.155	17651.1
584.74	17616.1
590.319	17483.1
595.892	17462.1
601.459	17373.1
607.02	17273.1
612.575	17231.1
618.124	17107.1
623.667	16941.1
629.204	16891.1
634.735	16786.1
640.261	16757.1
645.781	16681.1
651.294	16679.1
656.802	16604.1
662.304	16579.1
667.8	16615.1
673.29	16548.1
678.775	16475.1
684.254	16427.1
689.726	16332.1
695.193	16308.1
700.655	16243.1
706.11	16213.1
711.56	16070.1
717.004	16005.1
722.442	15902.1
727.874	15874.1
733.301	15780.1
738.722	15797.1
744.137	15732.1
749.547	15710.1
754.951	15720.1
760.349	15706.1
765.741	15707.1
771.128	15776.1
776.509	15720.1
781.885	15741.1
787.254	15651.1
792.618	15602.1
797.977	15521.1
803.33	15418.1
808.677	15323.1
814.019	15217.1
819.355	15105.1
824.686	15022.1
830.011	15046.1
835.33	15078.1
840.644	15079.1
845.952	15050.1
851.255	15091.1
856.552	15126.1
861.844	15101.1
867.13	15048.1
872.41	14945.1
877.686	14918.1
882.955	14759.1
888.219	14691.1
893.478	14486.1
898.731	14287.1
903.979	14148.1
909.221	14012.1
914.458	13995.1
919.69	14009.1
924.916	14042.1
930.136	14034.1
935.351	14054.1
940.561	14041.1
945.766	14055.1
950.965	13967.1
956.158	13828.1
961.347	13732.1
966.529	13497.1
971.707	13332.1
976.879	13189.1
982.046	13076.1
987.208	13007.1
992.364	13071.1
997.515	13116.1
1002.66	13260.1
1007.801	13388.1
1012.936	13498.1
1018.066	13475.1
1023.19	13489.1
1028.309	13488.1
1033.423	13445.1
1038.532	13349.1
1043.636	13209.1
1048.734	13093.1
1053.827	12906.1
1058.915	12818.1
1063.998	12708.1
1069.075	12663.1
1074.147	12669.1
1079.214	12667.1
1084.276	12773.1
1089.333	12885.1
1094.385	12943.1
1099.431	12981.1
1104.472	12969.1
1109.509	12843.1
1114.54	12761.1
1119.565	12567.1
1124.586	12383.1
1129.602	12262.1
1134.613	12188.1
1139.618	12138.1
1144.619	12079.1
1149.614	12079.1
1154.604	12107.1
1159.589	12099.1
1164.57	12170.1
1169.545	12168.1
1174.515	12167.1
1179.48	12098.1
1184.44	11990.1
1189.395	11953.1
1194.345	11878.1
1199.29	11784.1
1204.23	11802.1
1209.165	11858.1
1214.095	11868.1
1219.021	11961.1
1223.941	12040.1
1228.856	12099.1
1233.766	12115.1
1238.672	12115.1
1243.572	12134.1
1248.467	12007.1
1253.358	11885.1
1258.244	11771.1
1263.124	11519.1
1268	11347.1
1272.871	11233.1
1277.737	11158.1
1282.599	11091.1
1287.455	11088.1
1292.306	11107.1
1297.153	11156.1
1301.995	11182.1
1306.832	11187.1
1311.664	11279.1
1316.491	11223.1
1321.314	11095.1
1326.132	10923.1
1330.945	10721.1
1335.753	10480.1
1340.556	10188.1
1345.354	9950.1
1350.148	9834.1
1354.937	9747.1
1359.722	9755.1
1364.501	9773.1
1369.276	9860.1
1374.046	9875.1
1378.811	10030.1
1383.572	10169.1
1388.327	10240.1
1393.079	10133.1
1397.825	10020.1
1402.567	9933.1
1407.304	9821.1
1412.036	9758.1
1416.764	9663.1
1421.487	9625.1
1426.205	9561.1
1430.919	9551.1
1435.628	9509.1
1440.333	9566.1
1445.032	9588.1
1449.727	9603.1
1454.418	9559.1
1459.104	9447.1
1463.785	9276.1
1468.462	9067.1
1473.134	8900.1
1477.802	8695.1
1482.465	8514.1
1487.123	8437.1
1491.777	8410.1
1496.426	8404.1
1501.071	8480.1
1505.711	8594.1
1510.347	8755.1
1514.978	8882.1
1519.604	9001.1
1524.226	9103.1
1528.844	9110.1
1533.457	9066.1
1538.065	9087.1
1542.669	8995.1
1547.269	8959.1
1551.864	8912.1
1556.454	8871.1
1561.041	8908.1
1565.622	8913.1
1570.199	8931.1
1574.772	8974.1
1579.34	9060.1
1583.904	9114.1
1588.464	9159.1
1593.019	9150.1
1597.569	9133.1
1602.115	9116.1
1606.657	9059.1
1611.195	9070.1
1615.728	8968.1
1620.256	8951.1
1624.78	8960.1
1629.3	8962.1
1633.816	9012.1
1638.327	9019.1
1642.834	9050.1
1647.336	9102.1
1651.834	9137.1
1656.328	9088.1
1660.817	9035.1
1665.302	8907.1
1669.783	8735.1
1674.259	8505.1
1678.732	8291.1
1683.199	7959.1
1687.663	7691.1
1692.122	7436.1
1696.577	7244.1
1701.028	7226.1
1705.474	7240.1
1709.917	7315.1
1714.355	7334.1
1718.788	7273.1
1723.218	7170.1
1727.643	7067.1
1732.064	6908.1
1736.481	6738.1
1740.893	6556.1
1745.301	6394.1
1749.705	6198.1
1754.105	6019.1
1758.501	5838.1
1762.893	5654.1
1767.28	5491.1
1771.663	5396.1
1776.042	5324.1
1780.417	5237.1
1784.787	5223.1
1789.154	5262.1
1793.516	5342.1
1797.874	5424.1
1802.228	5530.1
1806.578	5576.1
1810.924	5588.1
1815.266	5542.1
1819.603	5468.1
1823.937	5401.1
1828.266	5299.1
1832.591	5215.1
1836.913	5152.1
1841.23	5131.1
1845.543	5089.1
1849.852	5032.1
1854.156	4995.1
1858.457	5011.1
1862.754	5046.1
1867.047	4997.1
1871.335	5029.1
1875.62	4988.1
1879.9	4959.1
1884.177	4935.1
1888.449	4849.1
1892.718	4824.1
1896.982	4749.1
1901.243	4696.1
1905.499	4645.1
1909.752	4649.1
1914	4631.1
1918.245	4636.1
1922.485	4689.1
1926.722	4726.1
1930.954	4776.1
1935.183	4816.1
1939.408	4875.1
1943.628	4928.1
1947.845	4893.1
1952.058	4901.1
1956.267	4903.1
1960.472	4845.1
1964.673	4731.1
1968.87	4669.1
1973.063	4630.1
1977.252	4544.1
1981.438	4480.1
1985.619	4457.1
1989.797	4460.1
1993.971	4413.1
1998.14	4380.1
2002.306	4358.1
2006.469	4339.1
2010.627	4340.1
2014.781	4313.1
2018.932	4257.1
2023.078	4258.1
2027.221	4181.1
2031.36	4091.1
2035.495	4043.1
2039.627	3985.1
2043.754	3940.1
2047.878	3926.1
2051.998	3857.1
2056.114	3838.1
2060.226	3855.1
2064.334	3853.1
2068.439	3870.1
2072.54	3917.1
2076.637	3932.1
2080.73	3949.1
2084.82	3974.1
2088.906	3973.1
2092.988	3981.1
2097.066	3983.1
2101.14	3960.1
2105.211	3928.1
2109.278	3896.1
2113.342	3868.1
2117.401	3833.1
2121.457	3822.1
2125.509	3809.1
2129.558	3801.1
2133.602	3759.1
2137.643	3723.1
2141.681	3715.1
2145.714	3718.1
2149.744	3682.1
2153.77	3652.1
2157.793	3592.1
2161.812	3580.1
2165.827	3516.1
2169.838	3470.1
2173.846	3397.1
2177.851	3325.1
2181.851	3285.1
2185.848	3246.1
2189.841	3232.1
2193.831	3230.1
2197.817	3165.1
2201.799	3168.1
2205.778	3146.1
2209.753	3119.1
2213.725	3110.1
2217.693	3098.1
2221.657	3086.1
2225.618	3085.1
2229.575	3062.1
2233.529	3032.1
2237.479	2993.1
2241.425	2974.1
2245.368	2946.1
2249.307	2877.1
2253.243	2822.1
2257.175	2816.1
2261.104	2775.1
2265.029	2730.1
2268.95	2691.1
2272.868	2675.1
2276.783	2639.1
2280.694	2611.1
2284.601	2601.1
2288.505	2580.1
2292.405	2538.1
2296.302	2527.1
2300.195	2487.1
2304.085	2464.1
2307.971	2440.1
2311.854	2398.1
2315.734	2357.1
2319.609	2332.1
2323.482	2282.1
2327.351	2252.1
2331.216	2253.1
2335.078	2270.1
2338.937	2240.1
2342.792	2248.1
2346.643	2220.1
2350.492	2220.1
2354.336	2224.1
2358.178	2245.1
2362.015	2244.1
2365.85	2262.1
2369.681	2266.1
2373.508	2256.1
2377.333	2259.1
2381.153	2242.1
2384.971	2212.1
2388.785	2211.1
2392.595	2196.1
2396.402	2179.1
2400.206	2160.1
2404.007	2125.1
2407.804	2101.1
2411.597	2092.1
2415.388	2102.1
2419.174	2088.1
2422.958	2071.1
2426.738	2075.1
2430.515	2025.1
2434.289	2021.1
2438.059	2008.1
2441.825	1971.1
2445.589	1955.1
2449.349	1947.1
2453.106	1905.1
2456.859	1886.1
2460.61	1853.1
2464.356	1827.1
2468.1	1826.1
2471.84	1779.1
2475.577	1751.1
2479.311	1764.1
2483.041	1743.1
2486.768	1750.1
2490.492	1731.1
2494.213	1718.1
2497.93	1713.1
2501.644	1720.1
2505.355	1707.1
2509.062	1686.1
2512.766	1688.1
2516.467	1683.1
2520.165	1647.1
2523.859	1625.1
2527.551	1619.1
2531.239	1623.1
2534.923	1616.1
2538.605	1586.1
2542.283	1590.1
2545.958	1591.1
2549.63	1557.1
2553.299	1562.1
2556.964	1563.1
2560.626	1550.1
2564.285	1534.1
2567.941	1541.1
2571.594	1534.1
2575.243	1534.1
2578.89	1511.1
2582.533	1504.1
2586.173	1500.1
2589.809	1465.1
2593.443	1476.1
2597.073	1457.1
2600.701	1441.1
2604.325	1415.1
2607.946	1399.1
2611.564	1403.1
2615.178	1415.1
2618.79	1375.1
2622.398	1371.1
2626.004	1373.1
2629.606	1346.1
2633.205	1323.1
2636.801	1310.1
2640.394	1304.1
2643.983	1269.1
2647.57	1241.1
2651.153	1230.1
2654.734	1210.1
2658.311	1189.1
2661.885	1168.1
2665.456	1161.1
2669.025	1156.1
2672.589	1142.1
2676.151	1111.1
2679.71	1115.1
2683.266	1083.1
2686.819	1081.1
2690.368	1038.1
2693.915	1021.1
2697.458	1004.1
2700.999	975.1
2704.536	950.1
2708.071	921.1
2711.602	899.1
2715.13	893.1
2718.656	857.1
2722.178	831.1
2725.697	829.1
2729.214	810.1
2732.727	805.1
2736.237	804.1
2739.744	790.1
2743.249	784.1
2746.75	791.1
2750.248	785.1
2753.743	803.1
2757.236	830.1
2760.725	837.1
2764.211	845.1
2767.695	847.1
2771.175	853.1
2774.652	844.1
2778.127	840.1
2781.598	847.1
2785.067	817.1
2788.532	834.1
2791.995	816.1
2795.455	838.1
2798.911	838.1
2802.365	837.1
2805.816	830.1
2809.264	817.1
2812.709	830.1
2816.151	833.1
2819.59	833.1
2823.026	811.1
2826.46	837.1
2829.89	847.1
2833.318	838.1
2836.742	862.1
2840.164	871.1
2843.583	854.1
2846.999	886.1
2850.412	883.1
2853.822	903.1
2857.229	918.1
2860.634	949.1
2864.035	965.1
2867.434	972.1
2870.83	999.1
2874.223	1002.1
2877.613	1037.1
2881	1073.1
2884.385	1084.1
2887.766	1045.1
2891.145	1071.1
2894.521	1053.1
2897.894	1070.1
2901.264	1076.1
2904.631	1078.1
2907.996	1098.1
2911.358	1094.1
2914.717	1097.1
2918.073	1091.1
2921.426	1149.1
2924.777	1144.1
2928.124	1176.1
2931.469	1193.1
2934.811	1223.1
2938.15	1242.1
2941.487	1250.1
2944.821	1248.1
2948.152	1250.1
2951.48	1247.1
2954.805	1238.1
2958.128	1223.1
2961.447	1212.1
2964.765	1219.1
2968.079	1216.1
2971.39	1229.1
2974.699	1259.1
2978.005	1273.1
2981.308	1289.1
2984.609	1295.1
2987.907	1354.1
2991.202	1380.1
2994.494	1406.1
2997.784	1417.1
3001.07	1441.1
3004.355	1486.1
3007.636	1507.1
3010.915	1524.1
3014.191	1540.1
3017.464	1561.1
3020.734	1562.1
3024.002	1584.1
3027.267	1591.1
3030.53	1612.1
3033.789	1627.1
3037.046	1661.1
3040.301	1668.1
3043.552	1705.1
3046.801	1774.1
3050.048	1810.1
3053.291	1841.1
3056.532	1912.1
3059.771	1983.1
3063.006	2036.1
3066.239	2080.1
3069.469	2163.1
3072.697	2224.1
3075.922	2278.1
3079.144	2320.1
3082.364	2404.1
3085.581	2433.1
3088.795	2506.1
3092.007	2566.1
3095.216	2611.1
3098.423	2653.1
3101.627	2698.1
3104.828	2763.1
3108.026	2838.1
3111.222	2910.1
3114.416	2990.1
3117.607	3060.1
3120.795	3118.1
3123.98	3218.1
3127.163	3293.1
3130.344	3362.1
3133.521	3458.1
3136.696	3534.1
3139.869	3573.1
3143.039	3687.1
3146.206	3707.1
3149.371	3790.1
3152.533	3813.1
3155.693	3824.1
3158.85	3866.1
3162.005	3867.1
3165.157	3861.1
3168.306	3895.1
3171.453	3898.1
3174.597	3915.1
3177.739	3913.1
3180.878	3909.1
3184.014	3937.1
3187.149	3942.1
3190.28	3917.1
3193.409	3946.1
3196.536	3955.1
3199.659	3975.1
3202.781	3965.1
3205.9	3962.1
3209.016	3953.1
3212.13	3912.1
3215.241	3907.1
3218.35	3890.1
3221.456	3834.1
3224.56	3777.1
3227.661	3740.1
3230.76	3702.1
3233.856	3647.1
3236.95	3636.1
3240.041	3568.1
3243.13	3576.1
3246.216	3551.1
3249.3	3533.1
3252.382	3524.1
3255.46	3528.1
3258.537	3497.1
3261.611	3501.1
3264.682	3497.1
3267.751	3493.1
3270.818	3483.1
3273.882	3474.1
3276.943	3468.1
3280.002	3445.1
3283.059	3416.1
3286.113	3355.1
3289.165	3316.1
3292.214	3268.1
3295.261	3223.1
3298.306	3138.1
3301.348	3108.1
3304.387	3038.1
3307.425	3010.1
3310.459	2976.1
3313.492	2919.1
3316.521	2850.1
3319.549	2873.1
3322.574	2830.1
3325.597	2790.1
3328.617	2800.1
3331.635	2760.1
3334.65	2760.1
3337.663	2752.1
3340.674	2720.1
3343.682	2711.1
3346.688	2703.1
3349.691	2676.1
3352.692	2666.1
3355.691	2666.1
3358.687	2629.1
3361.681	2602.1
3364.673	2585.1
3367.662	2549.1
3370.649	2486.1
3373.633	2463.1
3376.615	2414.1
3379.595	2382.1
3382.572	2342.1
3385.547	2316.1
3388.52	2294.1
3391.49	2242.1
3394.458	2196.1
3397.424	2162.1
3400.387	2141.1
3403.348	2134.1
3406.307	2112.1
3409.263	2095.1
3412.217	2045.1
3415.168	2047.1
3418.118	2027.1
3421.065	2013.1
3424.009	1964.1
3426.951	1912.1
3429.891	1875.1
3432.829	1842.1
3435.764	1807.1
3438.697	1747.1
3441.628	1698.1
3444.557	1642.1
3447.483	1606.1
3450.407	1546.1
3453.328	1503.1
3456.247	1440.1
3459.164	1401.1
3462.079	1351.1
3464.991	1289.1
3467.902	1236.1
3470.809	1197.1
3473.715	1125.1
3476.618	1101.1
3479.519	1073.1
3482.418	1020.1
3485.315	984.1
3488.209	950.1
3491.101	922.1
3493.99	883.1
3496.878	856.1
3499.763	826.1
3502.646	780.1
3505.527	746.1
3508.405	717.1
3511.281	661.1
3514.155	628.1
3517.027	597.1
3519.897	546.1
3522.764	512.1
3525.629	476.1
3528.492	419.1
3531.352	382.1
3534.211	352.1
3537.067	322.1
3539.921	282.1
3542.773	257.1
3545.622	216.1
3548.469	199.1
3551.315	154.1
3554.157	134.1
3556.998	95.1
3559.837	77.1
3562.673	60.1
3565.507	39.1
3568.339	19.1
3571.169	-1.9
3573.996	-28.9
3576.822	-39.9
3579.645	-64.9
3582.466	-82.9
3585.285	-93.9
3588.101	-108.9
3590.916	-127.9
3593.728	-160.9
3596.538	-175.9
3599.346	-188.9
3602.152	-202.9
3604.956	-224.9
3607.757	-238.9
3610.556	-247.9
3613.354	-264.9
3616.149	-280.9
3618.942	-281.9
3621.732	-301.9
3624.521	-306.9
3627.307	-322.9
3630.092	-333.9
3632.874	-338.9
3635.654	-347.9
3638.432	-355.9
3641.208	-361.9
3643.982	-376.9
3646.753	-382.9
3649.523	-394.9
3652.29	-411.9
3655.055	-408.9
3657.818	-421.9
3660.579	-434.9
3663.338	-427.9
3666.095	-453.9
3668.849	-468.9
3671.602	-470.9
3674.352	-479.9
3677.101	-488.9
3679.847	-498.9
3682.591	-491.9
3685.333	-497.9
3688.073	-500.9
3690.811	-509.9
3693.547	-515.9
3696.281	-524.9
3699.013	-520.9
3701.742	-530.9
3704.47	-532.9
3707.195	-547.9
3709.919	-541.9
3712.64	-545.9
3715.359	-547.9
3718.076	-553.9
3720.792	-556.9
3723.505	-556.9
3726.216	-569.9
3728.925	-568.9
3731.632	-577.9
3734.336	-575.9
3737.039	-585.9
3739.74	-580.9
3742.439	-581.9
3745.136	-581.9
3747.83	-583.9
3750.523	-579.9
3753.213	-590.9
3755.902	-590.9
3758.589	-589.9
3761.273	-588.9
3763.956	-603.9
3766.636	-599.9
3769.315	-602.9
3771.991	-601.9
3774.665	-602.9
3777.338	-604.9
3780.008	-604.9
3782.677	-603.9
3785.343	-609.9
3788.007	-603.9
3790.67	-611.9
3793.33	-609.9
3795.989	-607.9
3798.645	-619.9
3801.299	-619.9
3803.952	-616.9
3806.602	-621.9
3809.251	-624.9
3811.897	-617.9
3814.542	-615.9
3817.184	-622.9
3819.825	-623.9
3822.463	-617.9
3825.1	-631.9
3827.735	-626.9
3830.367	-627.9
3832.998	-627.9
3835.627	-626.9
3838.253	-628.9
3840.878	-629.9
3843.501	-628.9
3846.122	-622.9
3848.741	-623.9
3851.358	-629.9
3853.973	-631.9
3856.586	-630.9
3859.197	-633.9
3861.806	-633.9
3864.414	-626.9
3867.019	-626.9
3869.622	-632.9
3872.224	-627.9
3874.823	-611.9
3877.421	-594.9
3880.016	-580.9
3882.61	-542.9
3885.202	-553.9
3887.792	-571.9
3890.38	-602.9
3892.966	-617.9
3895.55	-624.9
3898.132	-632.9
3900.713	-641.9
3903.291	-638.9
3905.868	-644.9
3908.442	-641.9
3911.015	-647.9
3913.586	-636.9
3916.155	-640.9
3918.722	-638.9
3921.287	-642.9
3923.85	-639.9
3926.411	-640.9
3928.971	-643.9
3931.528	-643.9
3934.084	-633.9
3936.638	-642.9
3939.19	-648.9
3941.74	-655.9
3944.288	-645.9
3946.834	-650.9
3949.378	-645.9
3951.921	-645.9
3954.462	-652.9
3957	-644.9
3959.537	-639.9
3962.072	-643.9
3964.606	-643.9
3967.137	-653.9
3969.667	-642.9
3972.194	-637.9
3974.72	-644.9
3977.244	-636.9
3979.766	-636.9
3982.286	-629.9
3984.805	-624.9
3987.321	-630.9
3989.836	-635.9
3992.349	-634.9
3994.86	-625.9
3997.369	-643.9
3999.877	-631.9
4002.382	-628.9
4004.886	-638.9
4007.388	-636.9
4009.888	-635.9
4012.386	-631.9
4014.883	-631.9
4017.377	-631.9
4019.87	-626.9
4022.361	-635.9
4024.85	-633.9
4027.338	-632.9
4029.823	-629.9
4032.307	-632.9
4034.789	-637.9
4037.269	-642.9
4039.747	-633.9
4042.224	-634.9
4044.699	-630.9
4047.172	-635.9
4049.643	-634.9
4052.112	-641.9
4054.58	-632.9
4057.046	-645.9
4059.51	-632.9
4061.972	-642.9
4064.432	-635.9
4066.891	-629.9
4069.348	-635.9
4071.803	-633.9
4074.256	-634.9
4076.708	-632.9
4079.158	-629.9
4081.606	-631.9
4084.052	-633.9
4086.497	-640.9
4088.939	-633.9
4091.38	-629.9
4093.819	-634.9
4096.257	-666.9
4098.693	-667.9
4101.127	-669.9
4103.559	-667.9
4105.989	-398.9
4108.418	-387.9
4110.845	-368.9
4113.27	-343.9
4115.694	-296.9
4118.115	-256.9
4120.535	-635.9
4122.954	-642.9
4125.37	-636.9
4127.785	-636.9
4130.198	-638.9
4132.609	-630.9
4135.019	-671.9
4137.427	-665.9
4139.833	-662.9
4142.237	-663.9
