Data from 2018-2-7_conc=0_RamanShift_12.txt Node
Date: Tue Feb 13 11:19:44 IST 2018
User: aro
Spectrometer: QEPB0276
Trigger mode: 0
Integration Time (sec): 3.000000E1
Scans to average: 1
Electric dark correction enabled: true
Nonlinearity correction enabled: false
Boxcar width: 0
XAxis mode: Raman Shifts
Number of Pixels in Spectrum: 1044
>>>>>Begin Spectral Data<<<<<
160.701	-174.4
166.742	24.6
172.777	590.6
178.805	2283.6
184.826	6157.6
190.841	12671.6
196.849	19994.6
202.85	24969.6
208.845	26423.6
214.833	26151.6
220.815	25666.6
226.789	25436.6
232.758	25337.6
238.719	25113.6
244.674	24764.6
250.623	24295.6
256.565	23852.6
262.5	23296.6
268.429	22829.6
274.351	22510.6
280.267	22194.6
286.176	21917.6
292.079	21710.6
297.975	21409.6
303.865	21330.6
309.748	21045.6
315.625	20891.6
321.495	20817.6
327.359	20798.6
333.217	20753.6
339.068	20623.6
344.912	20630.6
350.751	20636.6
356.583	20591.6
362.408	20585.6
368.227	20594.6
374.04	20593.6
379.847	20645.6
385.647	20711.6
391.44	20852.6
397.228	20856.6
403.009	20963.6
408.784	21037.6
414.553	21109.6
420.315	21209.6
426.071	21178.6
431.821	21157.6
437.565	21163.6
443.302	21074.6
449.033	21070.6
454.758	21031.6
460.477	20943.6
466.189	20958.6
471.896	20915.6
477.596	20861.6
483.29	20843.6
488.978	20760.6
494.66	20660.6
500.335	20579.6
506.005	20385.6
511.668	20244.6
517.325	19920.6
522.977	19798.6
528.622	19642.6
534.261	19474.6
539.894	19387.6
545.521	19336.6
551.141	19257.6
556.756	19196.6
562.365	19181.6
567.968	19060.6
573.565	18947.6
579.155	18955.6
584.74	18858.6
590.319	18757.6
595.892	18673.6
601.459	18636.6
607.02	18558.6
612.575	18457.6
618.124	18309.6
623.667	18216.6
629.204	18127.6
634.735	18048.6
640.261	17977.6
645.781	17889.6
651.294	17866.6
656.802	17933.6
662.304	17806.6
667.8	17811.6
673.29	17823.6
678.775	17792.6
684.254	17721.6
689.726	17631.6
695.193	17606.6
700.655	17557.6
706.11	17423.6
711.56	17390.6
717.004	17261.6
722.442	17202.6
727.874	17108.6
733.301	17060.6
738.722	17023.6
744.137	17011.6
749.547	16984.6
754.951	16980.6
760.349	16977.6
765.741	16980.6
771.128	16965.6
776.509	16997.6
781.885	17029.6
787.254	16956.6
792.618	16885.6
797.977	16795.6
803.33	16667.6
808.677	16605.6
814.019	16450.6
819.355	16393.6
824.686	16376.6
830.011	16282.6
835.33	16326.6
840.644	16304.6
845.952	16369.6
851.255	16374.6
856.552	16400.6
861.844	16327.6
867.13	16359.6
872.41	16255.6
877.686	16206.6
882.955	16059.6
888.219	15972.6
893.478	15717.6
898.731	15574.6
903.979	15404.6
909.221	15313.6
914.458	15259.6
919.69	15207.6
924.916	15316.6
930.136	15376.6
935.351	15379.6
940.561	15360.6
945.766	15367.6
950.965	15283.6
956.158	15156.6
961.347	14991.6
966.529	14816.6
971.707	14601.6
976.879	14432.6
982.046	14302.6
987.208	14359.6
992.364	14273.6
997.515	14407.6
1002.66	14543.6
1007.801	14648.6
1012.936	14816.6
1018.066	14824.6
1023.19	14801.6
1028.309	14752.6
1033.423	14754.6
1038.532	14689.6
1043.636	14535.6
1048.734	14374.6
1053.827	14163.6
1058.915	14043.6
1063.998	13956.6
1069.075	13889.6
1074.147	13885.6
1079.214	14030.6
1084.276	14100.6
1089.333	14187.6
1094.385	14215.6
1099.431	14291.6
1104.472	14245.6
1109.509	14154.6
1114.54	14041.6
1119.565	13836.6
1124.586	13625.6
1129.602	13533.6
1134.613	13506.6
1139.618	13358.6
1144.619	13363.6
1149.614	13353.6
1154.604	13373.6
1159.589	13434.6
1164.57	13441.6
1169.545	13468.6
1174.515	13471.6
1179.48	13395.6
1184.44	13287.6
1189.395	13172.6
1194.345	13114.6
1199.29	13039.6
1204.23	13003.6
1209.165	13089.6
1214.095	13150.6
1219.021	13208.6
1223.941	13274.6
1228.856	13348.6
1233.766	13419.6
1238.672	13433.6
1243.572	13383.6
1248.467	13348.6
1253.358	13193.6
1258.244	12995.6
1263.124	12801.6
1268	12609.6
1272.871	12429.6
1277.737	12369.6
1282.599	12274.6
1287.455	12354.6
1292.306	12298.6
1297.153	12417.6
1301.995	12447.6
1306.832	12508.6
1311.664	12479.6
1316.491	12428.6
1321.314	12275.6
1326.132	12111.6
1330.945	11846.6
1335.753	11531.6
1340.556	11306.6
1345.354	11047.6
1350.148	10927.6
1354.937	10842.6
1359.722	10922.6
1364.501	10889.6
1369.276	11047.6
1374.046	11214.6
1378.811	11362.6
1383.572	11480.6
1388.327	11445.6
1393.079	11397.6
1397.825	11229.6
1402.567	11103.6
1407.304	10991.6
1412.036	10860.6
1416.764	10804.6
1421.487	10717.6
1426.205	10665.6
1430.919	10661.6
1435.628	10651.6
1440.333	10649.6
1445.032	10687.6
1449.727	10743.6
1454.418	10697.6
1459.104	10550.6
1463.785	10341.6
1468.462	10143.6
1473.134	9928.6
1477.802	9734.6
1482.465	9591.6
1487.123	9481.6
1491.777	9486.6
1496.426	9521.6
1501.071	9652.6
1505.711	9815.6
1510.347	10008.6
1514.978	10128.6
1519.604	10280.6
1524.226	10392.6
1528.844	10381.6
1533.457	10336.6
1538.065	10337.6
1542.669	10242.6
1547.269	10187.6
1551.864	10110.6
1556.454	10088.6
1561.041	10027.6
1565.622	10022.6
1570.199	10075.6
1574.772	10118.6
1579.34	10188.6
1583.904	10272.6
1588.464	10300.6
1593.019	10307.6
1597.569	10263.6
1602.115	10207.6
1606.657	10107.6
1611.195	10086.6
1615.728	9951.6
1620.256	9944.6
1624.78	9920.6
1629.3	9962.6
1633.816	9949.6
1638.327	10050.6
1642.834	10053.6
1647.336	10134.6
1651.834	10114.6
1656.328	10137.6
1660.817	10098.6
1665.302	9965.6
1669.783	9745.6
1674.259	9554.6
1678.732	9312.6
1683.199	8966.6
1687.663	8618.6
1692.122	8416.6
1696.577	8295.6
1701.028	8343.6
1705.474	8392.6
1709.917	8439.6
1714.355	8534.6
1718.788	8376.6
1723.218	8238.6
1727.643	8154.6
1732.064	7991.6
1736.481	7776.6
1740.893	7597.6
1745.301	7393.6
1749.705	7215.6
1754.105	6995.6
1758.501	6778.6
1762.893	6575.6
1767.28	6453.6
1771.663	6280.6
1776.042	6227.6
1780.417	6132.6
1784.787	6199.6
1789.154	6283.6
1793.516	6380.6
1797.874	6500.6
1802.228	6629.6
1806.578	6669.6
1810.924	6650.6
1815.266	6588.6
1819.603	6519.6
1823.937	6398.6
1828.266	6261.6
1832.591	6178.6
1836.913	6096.6
1841.23	6053.6
1845.543	5965.6
1849.852	5984.6
1854.156	5954.6
1858.457	5941.6
1862.754	5951.6
1867.047	5915.6
1871.335	5954.6
1875.62	5894.6
1879.9	5893.6
1884.177	5847.6
1888.449	5827.6
1892.718	5746.6
1896.982	5683.6
1901.243	5613.6
1905.499	5590.6
1909.752	5590.6
1914	5581.6
1918.245	5586.6
1922.485	5652.6
1926.722	5731.6
1930.954	5785.6
1935.183	5841.6
1939.408	5901.6
1943.628	5943.6
1947.845	5904.6
1952.058	5944.6
1956.267	5878.6
1960.472	5803.6
1964.673	5687.6
1968.87	5618.6
1973.063	5547.6
1977.252	5483.6
1981.438	5442.6
1985.619	5359.6
1989.797	5331.6
1993.971	5294.6
1998.14	5265.6
2002.306	5233.6
2006.469	5192.6
2010.627	5165.6
2014.781	5140.6
2018.932	5091.6
2023.078	5065.6
2027.221	4954.6
2031.36	4900.6
2035.495	4829.6
2039.627	4766.6
2043.754	4702.6
2047.878	4665.6
2051.998	4641.6
2056.114	4628.6
2060.226	4610.6
2064.334	4662.6
2068.439	4651.6
2072.54	4684.6
2076.637	4699.6
2080.73	4742.6
2084.82	4785.6
2088.906	4789.6
2092.988	4779.6
2097.066	4769.6
2101.14	4772.6
2105.211	4680.6
2109.278	4692.6
2113.342	4656.6
2117.401	4620.6
2121.457	4573.6
2125.509	4576.6
2129.558	4554.6
2133.602	4529.6
2137.643	4491.6
2141.681	4447.6
2145.714	4495.6
2149.744	4425.6
2153.77	4395.6
2157.793	4359.6
2161.812	4318.6
2165.827	4246.6
2169.838	4174.6
2173.846	4125.6
2177.851	4035.6
2181.851	3967.6
2185.848	3926.6
2189.841	3879.6
2193.831	3824.6
2197.817	3810.6
2201.799	3817.6
2205.778	3764.6
2209.753	3774.6
2213.725	3727.6
2217.693	3759.6
2221.657	3723.6
2225.618	3736.6
2229.575	3727.6
2233.529	3668.6
2237.479	3629.6
2241.425	3591.6
2245.368	3532.6
2249.307	3491.6
2253.243	3437.6
2257.175	3397.6
2261.104	3338.6
2265.029	3316.6
2268.95	3298.6
2272.868	3266.6
2276.783	3215.6
2280.694	3200.6
2284.601	3152.6
2288.505	3145.6
2292.405	3095.6
2296.302	3068.6
2300.195	3041.6
2304.085	2987.6
2307.971	2973.6
2311.854	2920.6
2315.734	2893.6
2319.609	3515.6
2323.482	2937.6
2327.351	2771.6
2331.216	2761.6
2335.078	2739.6
2338.937	2720.6
2342.792	2691.6
2346.643	2703.6
2350.492	2697.6
2354.336	2701.6
2358.178	2701.6
2362.015	2706.6
2365.85	2710.6
2369.681	2725.6
2373.508	2722.6
2377.333	2713.6
2381.153	2701.6
2384.971	2680.6
2388.785	2654.6
2392.595	2645.6
2396.402	2609.6
2400.206	2585.6
2404.007	2598.6
2407.804	2589.6
2411.597	2541.6
2415.388	2543.6
2419.174	2500.6
2422.958	2472.6
2426.738	2492.6
2430.515	2465.6
2434.289	2439.6
2438.059	2429.6
2441.825	2413.6
2445.589	2379.6
2449.349	2334.6
2453.106	2318.6
2456.859	2265.6
2460.61	2277.6
2464.356	2240.6
2468.1	2228.6
2471.84	2189.6
2475.577	2164.6
2479.311	2183.6
2483.041	2132.6
2486.768	2131.6
2490.492	2119.6
2494.213	2146.6
2497.93	2099.6
2501.644	2117.6
2505.355	2110.6
2509.062	2064.6
2512.766	2073.6
2516.467	2071.6
2520.165	2060.6
2523.859	2037.6
2527.551	2030.6
2531.239	2016.6
2534.923	1991.6
2538.605	1985.6
2542.283	1969.6
2545.958	1993.6
2549.63	1990.6
2553.299	1967.6
2556.964	1972.6
2560.626	1974.6
2564.285	1960.6
2567.941	1951.6
2571.594	1955.6
2575.243	1914.6
2578.89	1927.6
2582.533	1895.6
2586.173	1890.6
2589.809	1857.6
2593.443	1864.6
2597.073	1818.6
2600.701	1813.6
2604.325	1797.6
2607.946	1790.6
2611.564	1779.6
2615.178	1776.6
2618.79	1783.6
2622.398	1726.6
2626.004	1737.6
2629.606	1707.6
2633.205	1679.6
2636.801	1659.6
2640.394	1633.6
2643.983	1612.6
2647.57	1597.6
2651.153	1564.6
2654.734	1550.6
2658.311	1497.6
2661.885	1490.6
2665.456	1502.6
2669.025	1438.6
2672.589	1440.6
2676.151	1434.6
2679.71	1400.6
2683.266	1374.6
2686.819	1359.6
2690.368	1333.6
2693.915	1300.6
2697.458	1273.6
2700.999	1253.6
2704.536	1218.6
2708.071	1193.6
2711.602	1159.6
2715.13	1158.6
2718.656	1113.6
2722.178	1100.6
2725.697	1070.6
2729.214	1074.6
2732.727	1063.6
2736.237	1058.6
2739.744	1055.6
2743.249	1063.6
2746.75	1082.6
2750.248	1075.6
2753.743	1088.6
2757.236	1119.6
2760.725	1116.6
2764.211	1129.6
2767.695	1130.6
2771.175	1128.6
2774.652	1113.6
2778.127	1125.6
2781.598	1113.6
2785.067	1093.6
2788.532	1104.6
2791.995	1091.6
2795.455	1109.6
2798.911	1109.6
2802.365	1092.6
2805.816	1084.6
2809.264	1100.6
2812.709	1071.6
2816.151	1067.6
2819.59	1104.6
2823.026	1087.6
2826.46	1080.6
2829.89	1091.6
2833.318	1094.6
2836.742	1101.6
2840.164	1103.6
2843.583	1122.6
2846.999	1108.6
2850.412	1143.6
2853.822	1158.6
2857.229	1147.6
2860.634	1162.6
2864.035	1202.6
2867.434	1209.6
2870.83	1229.6
2874.223	1254.6
2877.613	1276.6
2881	1266.6
2884.385	1290.6
2887.766	1292.6
2891.145	1287.6
2894.521	1268.6
2897.894	1274.6
2901.264	1249.6
2904.631	1255.6
2907.996	1258.6
2911.358	1274.6
2914.717	1293.6
2918.073	1295.6
2921.426	1317.6
2924.777	1320.6
2928.124	1342.6
2931.469	1385.6
2934.811	1375.6
2938.15	1388.6
2941.487	1420.6
2944.821	1424.6
2948.152	1418.6
2951.48	1413.6
2954.805	1393.6
2958.128	1370.6
2961.447	1396.6
2964.765	1378.6
2968.079	1371.6
2971.39	1371.6
2974.699	1401.6
2978.005	1424.6
2981.308	1435.6
2984.609	1471.6
2987.907	1500.6
2991.202	1532.6
2994.494	1568.6
2997.784	1580.6
3001.07	1620.6
3004.355	1634.6
3007.636	1658.6
3010.915	1681.6
3014.191	1679.6
3017.464	1697.6
3020.734	1694.6
3024.002	1704.6
3027.267	1741.6
3030.53	1736.6
3033.789	1772.6
3037.046	1788.6
3040.301	1804.6
3043.552	1854.6
3046.801	1899.6
3050.048	1927.6
3053.291	1967.6
3056.532	2026.6
3059.771	2075.6
3063.006	2149.6
3066.239	2204.6
3069.469	2273.6
3072.697	2318.6
3075.922	2372.6
3079.144	2437.6
3082.364	2498.6
3085.581	2535.6
3088.795	2592.6
3092.007	2629.6
3095.216	2702.6
3098.423	2735.6
3101.627	2820.6
3104.828	2871.6
3108.026	2948.6
3111.222	3008.6
3114.416	3049.6
3117.607	3149.6
3120.795	3247.6
3123.98	3284.6
3127.163	3392.6
3130.344	3452.6
3133.521	3523.6
3136.696	3599.6
3139.869	3675.6
3143.039	3741.6
3146.206	3767.6
3149.371	3840.6
3152.533	3879.6
3155.693	3902.6
3158.85	3894.6
3162.005	3935.6
3165.157	3946.6
3168.306	3938.6
3171.453	3965.6
3174.597	3958.6
3177.739	3982.6
3180.878	3953.6
3184.014	4007.6
3187.149	3979.6
3190.28	3988.6
3193.409	4002.6
3196.536	3994.6
3199.659	4003.6
3202.781	3996.6
3205.9	4002.6
3209.016	3982.6
3212.13	3950.6
3215.241	3928.6
3218.35	3895.6
3221.456	3856.6
3224.56	3803.6
3227.661	3785.6
3230.76	3729.6
3233.856	3706.6
3236.95	3652.6
3240.041	3616.6
3243.13	3598.6
3246.216	3590.6
3249.3	3547.6
3252.382	3563.6
3255.46	3523.6
3258.537	3534.6
3261.611	3507.6
3264.682	3532.6
3267.751	3525.6
3270.818	3521.6
3273.882	3507.6
3276.943	3461.6
3280.002	3449.6
3283.059	3413.6
3286.113	3365.6
3289.165	3330.6
3292.214	3269.6
3295.261	3223.6
3298.306	3170.6
3301.348	3129.6
3304.387	3069.6
3307.425	3038.6
3310.459	2958.6
3313.492	2944.6
3316.521	2920.6
3319.549	2892.6
3322.574	2831.6
3325.597	2834.6
3328.617	2783.6
3331.635	2751.6
3334.65	2733.6
3337.663	2747.6
3340.674	2715.6
3343.682	2723.6
3346.688	2695.6
3349.691	2719.6
3352.692	2690.6
3355.691	2668.6
3358.687	2634.6
3361.681	2613.6
3364.673	2561.6
3367.662	2523.6
3370.649	2484.6
3373.633	2449.6
3376.615	2424.6
3379.595	2418.6
3382.572	2350.6
3385.547	2292.6
3388.52	2278.6
3391.49	2238.6
3394.458	2196.6
3397.424	2166.6
3400.387	2139.6
3403.348	2109.6
3406.307	2100.6
3409.263	2089.6
3412.217	2054.6
3415.168	2013.6
3418.118	1994.6
3421.065	1964.6
3424.009	1944.6
3426.951	1913.6
3429.891	1868.6
3432.829	1863.6
3435.764	1778.6
3438.697	1755.6
3441.628	1706.6
3444.557	1646.6
3447.483	1576.6
3450.407	1538.6
3453.328	1487.6
3456.247	1432.6
3459.164	1401.6
3462.079	1331.6
3464.991	1280.6
3467.902	1237.6
3470.809	1209.6
3473.715	1147.6
3476.618	1096.6
3479.519	1067.6
3482.418	1051.6
3485.315	988.6
3488.209	942.6
3491.101	920.6
3493.99	889.6
3496.878	856.6
3499.763	818.6
3502.646	783.6
3505.527	744.6
3508.405	718.6
3511.281	669.6
3514.155	636.6
3517.027	583.6
3519.897	551.6
3522.764	510.6
3525.629	478.6
3528.492	426.6
3531.352	392.6
3534.211	359.6
3537.067	308.6
3539.921	270.6
3542.773	243.6
3545.622	212.6
3548.469	187.6
3551.315	159.6
3554.157	138.6
3556.998	92.6
3559.837	82.6
3562.673	63.6
3565.507	35.6
3568.339	5.6
3571.169	-12.4
3573.996	-19.4
3576.822	-35.4
3579.645	-74.4
3582.466	-86.4
3585.285	-103.4
3588.101	-124.4
3590.916	-135.4
3593.728	-161.4
3596.538	-182.4
3599.346	-193.4
3602.152	-212.4
3604.956	-228.4
3607.757	-228.4
3610.556	-249.4
3613.354	-277.4
3616.149	-275.4
3618.942	-299.4
3621.732	-303.4
3624.521	-319.4
3627.307	-325.4
3630.092	-341.4
3632.874	-344.4
3635.654	-360.4
3638.432	-369.4
3641.208	-377.4
3643.982	-386.4
3646.753	-385.4
3649.523	-394.4
3652.29	-406.4
3655.055	-412.4
3657.818	-424.4
3660.579	-429.4
3663.338	-443.4
3666.095	-451.4
3668.849	-466.4
3671.602	-475.4
3674.352	-484.4
3677.101	-488.4
3679.847	-501.4
3682.591	-498.4
3685.333	-510.4
3688.073	-511.4
3690.811	-511.4
3693.547	-514.4
3696.281	-529.4
3699.013	-528.4
3701.742	-537.4
3704.47	-534.4
3707.195	-550.4
3709.919	-546.4
3712.64	-551.4
3715.359	-554.4
3718.076	-555.4
3720.792	-566.4
3723.505	-567.4
3726.216	-572.4
3728.925	-576.4
3731.632	-578.4
3734.336	-582.4
3737.039	-584.4
3739.74	-588.4
3742.439	-582.4
3745.136	-585.4
3747.83	-589.4
3750.523	-595.4
3753.213	-603.4
3755.902	-597.4
3758.589	-595.4
3761.273	-599.4
3763.956	-604.4
3766.636	-606.4
3769.315	-604.4
3771.991	-610.4
3774.665	-607.4
3777.338	-605.4
3780.008	-606.4
3782.677	-609.4
3785.343	-613.4
3788.007	-606.4
3790.67	-617.4
3793.33	-626.4
3795.989	-622.4
3798.645	-625.4
3801.299	-625.4
3803.952	-628.4
3806.602	-630.4
3809.251	-630.4
3811.897	-618.4
3814.542	-618.4
3817.184	-620.4
3819.825	-623.4
3822.463	-625.4
3825.1	-631.4
3827.735	-627.4
3830.367	-637.4
3832.998	-634.4
3835.627	-639.4
3838.253	-639.4
3840.878	-638.4
3843.501	-637.4
3846.122	-632.4
3848.741	-636.4
3851.358	-639.4
3853.973	-637.4
3856.586	-640.4
3859.197	-642.4
3861.806	-637.4
3864.414	-631.4
3867.019	-633.4
3869.622	-637.4
3872.224	-639.4
3874.823	-626.4
3877.421	-609.4
3880.016	-592.4
3882.61	-570.4
3885.202	-564.4
3887.792	-593.4
3890.38	-613.4
3892.966	-626.4
3895.55	-635.4
3898.132	-639.4
3900.713	-642.4
3903.291	-649.4
3905.868	-651.4
3908.442	-649.4
3911.015	-652.4
3913.586	-651.4
3916.155	-655.4
3918.722	-655.4
3921.287	-650.4
3923.85	-654.4
3926.411	-652.4
3928.971	-649.4
3931.528	-653.4
3934.084	-646.4
3936.638	-654.4
3939.19	-655.4
3941.74	-654.4
3944.288	-659.4
3946.834	-656.4
3949.378	-657.4
3951.921	-656.4
3954.462	-656.4
3957	-652.4
3959.537	-650.4
3962.072	-651.4
3964.606	-649.4
3967.137	-657.4
3969.667	-653.4
3972.194	-650.4
3974.72	-647.4
3977.244	-648.4
3979.766	-642.4
3982.286	-642.4
3984.805	-633.4
3987.321	-643.4
3989.836	-640.4
3992.349	-643.4
3994.86	-641.4
3997.369	-643.4
3999.877	-640.4
4002.382	-642.4
4004.886	-646.4
4007.388	-637.4
4009.888	-636.4
4012.386	-640.4
4014.883	-638.4
4017.377	-640.4
4019.87	-636.4
4022.361	-636.4
4024.85	-643.4
4027.338	-641.4
4029.823	-637.4
4032.307	-648.4
4034.789	-651.4
4037.269	-650.4
4039.747	-650.4
4042.224	-641.4
4044.699	-641.4
4047.172	-645.4
4049.643	-638.4
4052.112	-642.4
4054.58	-639.4
4057.046	-647.4
4059.51	-642.4
4061.972	-647.4
4064.432	-643.4
4066.891	-645.4
4069.348	-652.4
4071.803	-648.4
4074.256	-646.4
4076.708	-645.4
4079.158	-647.4
4081.606	-645.4
4084.052	-642.4
4086.497	-641.4
4088.939	-637.4
4091.38	-634.4
4093.819	-639.4
4096.257	-675.4
4098.693	-678.4
4101.127	-678.4
4103.559	-680.4
4105.989	-407.4
4108.418	-388.4
4110.845	-372.4
4113.27	-352.4
4115.694	-292.4
4118.115	-254.4
4120.535	-638.4
4122.954	-643.4
4125.37	-643.4
4127.785	-643.4
4130.198	-649.4
4132.609	-641.4
4135.019	-681.4
4137.427	-681.4
4139.833	-680.4
4142.237	-681.4
