Data from 2018-2-7_conc=4_RamanShift_15.txt Node
Date: Tue Feb 13 13:39:43 IST 2018
User: aro
Spectrometer: QEPB0276
Trigger mode: 0
Integration Time (sec): 3.000000E1
Scans to average: 1
Electric dark correction enabled: true
Nonlinearity correction enabled: false
Boxcar width: 0
XAxis mode: Raman Shifts
Number of Pixels in Spectrum: 1044
>>>>>Begin Spectral Data<<<<<
160.701	-162
166.742	23
172.777	588
178.805	2255
184.826	6152
190.841	12654
196.849	19961
202.85	24985
208.845	26525
214.833	26155
220.815	25778
226.789	25555
232.758	25510
238.719	25280
244.674	24977
250.623	24382
256.565	24023
262.5	23498
268.429	23113
274.351	22731
280.267	22511
286.176	22181
292.079	21972
297.975	21819
303.865	21557
309.748	21505
315.625	21303
321.495	21170
327.359	21166
333.217	21086
339.068	21018
344.912	21028
350.751	20956
356.583	20979
362.408	20996
368.227	20945
374.04	20980
379.847	21045
385.647	21129
391.44	21218
397.228	21286
403.009	21336
408.784	21370
414.553	21486
420.315	21549
426.071	21619
431.821	21541
437.565	21488
443.302	21426
449.033	21403
454.758	21424
460.477	21330
466.189	21334
471.896	21195
477.596	21215
483.29	21206
488.978	21139
494.66	21159
500.335	20950
506.005	20754
511.668	20517
517.325	20264
522.977	20049
528.622	20012
534.261	19835
539.894	19705
545.521	19698
551.141	19547
556.756	19508
562.365	19410
567.968	19429
573.565	19339
579.155	19224
584.74	19170
590.319	19136
595.892	18997
601.459	18976
607.02	18920
612.575	18798
618.124	18611
623.667	18556
629.204	18441
634.735	18337
640.261	18340
645.781	18217
651.294	18228
656.802	18204
662.304	18201
667.8	18163
673.29	18137
678.775	18036
684.254	18012
689.726	17876
695.193	17861
700.655	17840
706.11	17766
711.56	17639
717.004	17533
722.442	17479
727.874	17426
733.301	17340
738.722	17355
744.137	17313
749.547	17267
754.951	17317
760.349	17270
765.741	17339
771.128	17260
776.509	17302
781.885	17283
787.254	17277
792.618	17204
797.977	17163
803.33	16966
808.677	16833
814.019	16854
819.355	16731
824.686	16641
830.011	16634
835.33	16614
840.644	16583
845.952	16663
851.255	16640
856.552	16690
861.844	16663
867.13	16646
872.41	16591
877.686	16498
882.955	16347
888.219	16249
893.478	16035
898.731	15864
903.979	15704
909.221	15622
914.458	15515
919.69	15527
924.916	15575
930.136	15645
935.351	15658
940.561	15682
945.766	15655
950.965	15487
956.158	15454
961.347	15282
966.529	15121
971.707	14888
976.879	14757
982.046	14606
987.208	14617
992.364	14607
997.515	14674
1002.66	14842
1007.801	14965
1012.936	15053
1018.066	15073
1023.19	15101
1028.309	15060
1033.423	15039
1038.532	14937
1043.636	14822
1048.734	14655
1053.827	14497
1058.915	14304
1063.998	14227
1069.075	14169
1074.147	14213
1079.214	14289
1084.276	14322
1089.333	14422
1094.385	14489
1099.431	14578
1104.472	14498
1109.509	14433
1114.54	14283
1119.565	14092
1124.586	13916
1129.602	13797
1134.613	13729
1139.618	13603
1144.619	13581
1149.614	13589
1154.604	13596
1159.589	13641
1164.57	13668
1169.545	13723
1174.515	13729
1179.48	13634
1184.44	13546
1189.395	13455
1194.345	13397
1199.29	13307
1204.23	13250
1209.165	13392
1214.095	13473
1219.021	13484
1223.941	13560
1228.856	13633
1233.766	13649
1238.672	13636
1243.572	13642
1248.467	13621
1253.358	13403
1258.244	13264
1263.124	13041
1268	12846
1272.871	12686
1277.737	12578
1282.599	12539
1287.455	12538
1292.306	12557
1297.153	12609
1301.995	12675
1306.832	12690
1311.664	12726
1316.491	12680
1321.314	12533
1326.132	12359
1330.945	12157
1335.753	11810
1340.556	11536
1345.354	11320
1350.148	11111
1354.937	11035
1359.722	11046
1364.501	11044
1369.276	11203
1374.046	11358
1378.811	11467
1383.572	11654
1388.327	11685
1393.079	11616
1397.825	11471
1402.567	11307
1407.304	11199
1412.036	11036
1416.764	10958
1421.487	10926
1426.205	10839
1430.919	10823
1435.628	10839
1440.333	10830
1445.032	10851
1449.727	10938
1454.418	10856
1459.104	10773
1463.785	10541
1468.462	10327
1473.134	10084
1477.802	9948
1482.465	9713
1487.123	9658
1491.777	9608
1496.426	9709
1501.071	9775
1505.711	9937
1510.347	10104
1514.978	10258
1519.604	10400
1524.226	10517
1528.844	10534
1533.457	10474
1538.065	10465
1542.669	10383
1547.269	10294
1551.864	10251
1556.454	10226
1561.041	10214
1565.622	10179
1570.199	10233
1574.772	10278
1579.34	10345
1583.904	10396
1588.464	10408
1593.019	10398
1597.569	10351
1602.115	10320
1606.657	10228
1611.195	10186
1615.728	10106
1620.256	10089
1624.78	10074
1629.3	10091
1633.816	10087
1638.327	10163
1642.834	10194
1647.336	10258
1651.834	10235
1656.328	10239
1660.817	10174
1665.302	10044
1669.783	9897
1674.259	9676
1678.732	9427
1683.199	9098
1687.663	8787
1692.122	8458
1696.577	8358
1701.028	8315
1705.474	8426
1709.917	8520
1714.355	8537
1718.788	8540
1723.218	8402
1727.643	8245
1732.064	8078
1736.481	7934
1740.893	7766
1745.301	7490
1749.705	7300
1754.105	7106
1758.501	6911
1762.893	6735
1767.28	6568
1771.663	6428
1776.042	6274
1780.417	6213
1784.787	6219
1789.154	6261
1793.516	6386
1797.874	6513
1802.228	6631
1806.578	6673
1810.924	6708
1815.266	6633
1819.603	6542
1823.937	6430
1828.266	6349
1832.591	6248
1836.913	6166
1841.23	6108
1845.543	6121
1849.852	6006
1854.156	6038
1858.457	6029
1862.754	6026
1867.047	6021
1871.335	5964
1875.62	5971
1879.9	5958
1884.177	5884
1888.449	5843
1892.718	5798
1896.982	5728
1901.243	5666
1905.499	5651
1909.752	5607
1914	5596
1918.245	5635
1922.485	5639
1926.722	5725
1930.954	5797
1935.183	5838
1939.408	5922
1943.628	5947
1947.845	5936
1952.058	5946
1956.267	5887
1960.472	5846
1964.673	5758
1968.87	5648
1973.063	5555
1977.252	5484
1981.438	5426
1985.619	5378
1989.797	5321
1993.971	5326
1998.14	5276
2002.306	5273
2006.469	5199
2010.627	5204
2014.781	5189
2018.932	5112
2023.078	5050
2027.221	4991
2031.36	4944
2035.495	4836
2039.627	4785
2043.754	4748
2047.878	4704
2051.998	4618
2056.114	4648
2060.226	4609
2064.334	4641
2068.439	4627
2072.54	4652
2076.637	4694
2080.73	4751
2084.82	4752
2088.906	4766
2092.988	4761
2097.066	4755
2101.14	4706
2105.211	4664
2109.278	4650
2113.342	4660
2117.401	4611
2121.457	4590
2125.509	4573
2129.558	4543
2133.602	4517
2137.643	4494
2141.681	4470
2145.714	4451
2149.744	4416
2153.77	4422
2157.793	4359
2161.812	4310
2165.827	4214
2169.838	4188
2173.846	4128
2177.851	4028
2181.851	3976
2185.848	3913
2189.841	3873
2193.831	3850
2197.817	3823
2201.799	3815
2205.778	3790
2209.753	3775
2213.725	3746
2217.693	3755
2221.657	3733
2225.618	3733
2229.575	3721
2233.529	3689
2237.479	3635
2241.425	3620
2245.368	3566
2249.307	3501
2253.243	3460
2257.175	3418
2261.104	3385
2265.029	3327
2268.95	3291
2272.868	3263
2276.783	3218
2280.694	3202
2284.601	3172
2288.505	3138
2292.405	3096
2296.302	3060
2300.195	3043
2304.085	2985
2307.971	2949
2311.854	2943
2315.734	2895
2319.609	2840
2323.482	2798
2327.351	2802
2331.216	2787
2335.078	2758
2338.937	2729
2342.792	2733
2346.643	2740
2350.492	2722
2354.336	2728
2358.178	2721
2362.015	2745
2365.85	2738
2369.681	2742
2373.508	2743
2377.333	2742
2381.153	2727
2384.971	2734
2388.785	2709
2392.595	2681
2396.402	2677
2400.206	2645
2404.007	2602
2407.804	2632
2411.597	2564
2415.388	2593
2419.174	2570
2422.958	2544
2426.738	2522
2430.515	2503
2434.289	2492
2438.059	2459
2441.825	2436
2445.589	2438
2449.349	2403
2453.106	2357
2456.859	2362
2460.61	2311
2464.356	2276
2468.1	2232
2471.84	2221
2475.577	2226
2479.311	2213
2483.041	2198
2486.768	2167
2490.492	2171
2494.213	2160
2497.93	2139
2501.644	2134
2505.355	2123
2509.062	2098
2512.766	2099
2516.467	2069
2520.165	2089
2523.859	2087
2527.551	2030
2531.239	2051
2534.923	2013
2538.605	2000
2542.283	2017
2545.958	1981
2549.63	1986
2553.299	1991
2556.964	1987
2560.626	2007
2564.285	1979
2567.941	1953
2571.594	1937
2575.243	1958
2578.89	1924
2582.533	1906
2586.173	1914
2589.809	1883
2593.443	1853
2597.073	1842
2600.701	1846
2604.325	1822
2607.946	1814
2611.564	1771
2615.178	1796
2618.79	1767
2622.398	1759
2626.004	1763
2629.606	1713
2633.205	1698
2636.801	1668
2640.394	1665
2643.983	1621
2647.57	1594
2651.153	1585
2654.734	1551
2658.311	1529
2661.885	1517
2665.456	1484
2669.025	1465
2672.589	1458
2676.151	1450
2679.71	1437
2683.266	1392
2686.819	1400
2690.368	1336
2693.915	1322
2697.458	1283
2700.999	1272
2704.536	1240
2708.071	1205
2711.602	1194
2715.13	1150
2718.656	1135
2722.178	1117
2725.697	1081
2729.214	1083
2732.727	1063
2736.237	1071
2739.744	1065
2743.249	1056
2746.75	1056
2750.248	1071
2753.743	1066
2757.236	1085
2760.725	1091
2764.211	1106
2767.695	1120
2771.175	1118
2774.652	1102
2778.127	1077
2781.598	1079
2785.067	1095
2788.532	1098
2791.995	1071
2795.455	1085
2798.911	1087
2802.365	1080
2805.816	1072
2809.264	1097
2812.709	1065
2816.151	1060
2819.59	1091
2823.026	1064
2826.46	1072
2829.89	1072
2833.318	1062
2836.742	1074
2840.164	1096
2843.583	1105
2846.999	1107
2850.412	1120
2853.822	1144
2857.229	1130
2860.634	1162
2864.035	1197
2867.434	1205
2870.83	1209
2874.223	1240
2877.613	1249
2881	1279
2884.385	1306
2887.766	1273
2891.145	1263
2894.521	1249
2897.894	1261
2901.264	1265
2904.631	1251
2907.996	1272
2911.358	1259
2914.717	1279
2918.073	1284
2921.426	1301
2924.777	1313
2928.124	1332
2931.469	1353
2934.811	1381
2938.15	1369
2941.487	1398
2944.821	1394
2948.152	1377
2951.48	1378
2954.805	1376
2958.128	1348
2961.447	1343
2964.765	1330
2968.079	1353
2971.39	1348
2974.699	1371
2978.005	1371
2981.308	1404
2984.609	1425
2987.907	1457
2991.202	1477
2994.494	1520
2997.784	1539
3001.07	1565
3004.355	1581
3007.636	1617
3010.915	1636
3014.191	1634
3017.464	1643
3020.734	1662
3024.002	1693
3027.267	1682
3030.53	1708
3033.789	1719
3037.046	1744
3040.301	1753
3043.552	1808
3046.801	1826
3050.048	1874
3053.291	1923
3056.532	1977
3059.771	2018
3063.006	2067
3066.239	2119
3069.469	2195
3072.697	2322
3075.922	2309
3079.144	2355
3082.364	2430
3085.581	2461
3088.795	2542
3092.007	2540
3095.216	2619
3098.423	2681
3101.627	2737
3104.828	2800
3108.026	2867
3111.222	2928
3114.416	2966
3117.607	3071
3120.795	3111
3123.98	3198
3127.163	3259
3130.344	3367
3133.521	3441
3136.696	3502
3139.869	3556
3143.039	3629
3146.206	3695
3149.371	3726
3152.533	3747
3155.693	3787
3158.85	3785
3162.005	3833
3165.157	3827
3168.306	3856
3171.453	3856
3174.597	3864
3177.739	3890
3180.878	3877
3184.014	3891
3187.149	3877
3190.28	3856
3193.409	3884
3196.536	3891
3199.659	3902
3202.781	3898
3205.9	3898
3209.016	3889
3212.13	3865
3215.241	3804
3218.35	3815
3221.456	3757
3224.56	3731
3227.661	3675
3230.76	3638
3233.856	3610
3236.95	3558
3240.041	3529
3243.13	3519
3246.216	3477
3249.3	3467
3252.382	3459
3255.46	3420
3258.537	3431
3261.611	3433
3264.682	3419
3267.751	3436
3270.818	3425
3273.882	3388
3276.943	3385
3280.002	3361
3283.059	3322
3286.113	3284
3289.165	3255
3292.214	3200
3295.261	3148
3298.306	3111
3301.348	3053
3304.387	3004
3307.425	2939
3310.459	2915
3313.492	2859
3316.521	2819
3319.549	2812
3322.574	2742
3325.597	2731
3328.617	2740
3331.635	2722
3334.65	2679
3337.663	2665
3340.674	2670
3343.682	2658
3346.688	2648
3349.691	2623
3352.692	2628
3355.691	2590
3358.687	2570
3361.681	2530
3364.673	2508
3367.662	2463
3370.649	2444
3373.633	2427
3376.615	2366
3379.595	2341
3382.572	2305
3385.547	2266
3388.52	2250
3391.49	2174
3394.458	2157
3397.424	2120
3400.387	2086
3403.348	2072
3406.307	2058
3409.263	2022
3412.217	2016
3415.168	1975
3418.118	1958
3421.065	1930
3424.009	1899
3426.951	1859
3429.891	1821
3432.829	1788
3435.764	1754
3438.697	1707
3441.628	1653
3444.557	1602
3447.483	1563
3450.407	1513
3453.328	1450
3456.247	1415
3459.164	1361
3462.079	1303
3464.991	1257
3467.902	1194
3470.809	1175
3473.715	1113
3476.618	1094
3479.519	1056
3482.418	999
3485.315	976
3488.209	927
3491.101	916
3493.99	865
3496.878	828
3499.763	787
3502.646	769
3505.527	726
3508.405	686
3511.281	632
3514.155	601
3517.027	553
3519.897	520
3522.764	474
3525.629	443
3528.492	414
3531.352	375
3534.211	325
3537.067	304
3539.921	267
3542.773	258
3545.622	206
3548.469	169
3551.315	143
3554.157	109
3556.998	86
3559.837	66
3562.673	50
3565.507	19
3568.339	4
3571.169	-20
3573.996	-45
3576.822	-43
3579.645	-75
3582.466	-94
3585.285	-116
3588.101	-124
3590.916	-144
3593.728	-176
3596.538	-182
3599.346	-211
3602.152	-219
3604.956	-246
3607.757	-248
3610.556	-265
3613.354	-275
3616.149	-284
3618.942	-295
3621.732	-309
3624.521	-322
3627.307	-326
3630.092	-346
3632.874	-354
3635.654	-352
3638.432	-371
3641.208	-370
3643.982	-385
3646.753	-389
3649.523	-412
3652.29	-408
3655.055	-418
3657.818	-431
3660.579	-437
3663.338	-443
3666.095	-457
3668.849	-471
3671.602	-475
3674.352	-482
3677.101	-485
3679.847	-495
3682.591	-493
3685.333	-504
3688.073	-511
3690.811	-514
3693.547	-520
3696.281	-524
3699.013	-530
3701.742	-539
3704.47	-541
3707.195	-546
3709.919	-547
3712.64	-548
3715.359	-552
3718.076	-553
3720.792	-566
3723.505	-565
3726.216	-571
3728.925	-573
3731.632	-578
3734.336	-585
3737.039	-589
3739.74	-587
3742.439	-591
3745.136	-596
3747.83	-591
3750.523	-587
3753.213	-591
3755.902	-594
3758.589	-592
3761.273	-599
3763.956	-604
3766.636	-606
3769.315	-605
3771.991	-604
3774.665	-602
3777.338	-611
3780.008	-601
3782.677	-612
3785.343	-614
3788.007	-603
3790.67	-613
3793.33	-619
3795.989	-616
3798.645	-623
3801.299	-627
3803.952	-626
3806.602	-622
3809.251	-634
3811.897	-622
3814.542	-621
3817.184	-631
3819.825	-627
3822.463	-622
3825.1	-632
3827.735	-627
3830.367	-630
3832.998	-632
3835.627	-636
3838.253	-637
3840.878	-633
3843.501	-637
3846.122	-627
3848.741	-636
3851.358	-634
3853.973	-630
3856.586	-633
3859.197	-638
3861.806	-631
3864.414	-634
3867.019	-635
3869.622	-640
3872.224	-636
3874.823	-625
3877.421	-599
3880.016	-587
3882.61	-553
3885.202	-553
3887.792	-582
3890.38	-607
3892.966	-625
3895.55	-633
3898.132	-637
3900.713	-647
3903.291	-648
3905.868	-649
3908.442	-647
3911.015	-646
3913.586	-651
3916.155	-646
3918.722	-642
3921.287	-645
3923.85	-648
3926.411	-647
3928.971	-654
3931.528	-652
3934.084	-648
3936.638	-654
3939.19	-659
3941.74	-659
3944.288	-654
3946.834	-659
3949.378	-658
3951.921	-656
3954.462	-652
3957	-647
3959.537	-647
3962.072	-647
3964.606	-637
3967.137	-649
3969.667	-648
3972.194	-640
3974.72	-642
3977.244	-640
3979.766	-646
3982.286	-645
3984.805	-632
3987.321	-636
3989.836	-637
3992.349	-644
3994.86	-637
3997.369	-646
3999.877	-644
4002.382	-638
4004.886	-639
4007.388	-644
4009.888	-637
4012.386	-637
4014.883	-641
4017.377	-643
4019.87	-633
4022.361	-641
4024.85	-637
4027.338	-639
4029.823	-639
4032.307	-644
4034.789	-641
4037.269	-645
4039.747	-646
4042.224	-637
4044.699	-643
4047.172	-643
4049.643	-639
4052.112	-644
4054.58	-636
4057.046	-646
4059.51	-640
4061.972	-645
4064.432	-646
4066.891	-643
4069.348	-642
4071.803	-647
4074.256	-644
4076.708	-641
4079.158	-642
4081.606	-635
4084.052	-637
4086.497	-643
4088.939	-639
4091.38	-636
4093.819	-635
4096.257	-670
4098.693	-674
4101.127	-675
4103.559	-679
4105.989	-405
4108.418	-383
4110.845	-357
4113.27	-336
4115.694	-290
4118.115	-248
4120.535	-633
4122.954	-646
4125.37	-637
4127.785	-642
4130.198	-639
4132.609	-640
4135.019	-679
4137.427	-674
4139.833	-675
4142.237	-676
