Data from 2018-2-7_conc=0_RamanShift_06.txt Node
Date: Tue Feb 13 11:14:14 IST 2018
User: aro
Spectrometer: QEPB0276
Trigger mode: 0
Integration Time (sec): 3.000000E1
Scans to average: 1
Electric dark correction enabled: true
Nonlinearity correction enabled: false
Boxcar width: 0
XAxis mode: Raman Shifts
Number of Pixels in Spectrum: 1044
>>>>>Begin Spectral Data<<<<<
160.701	-169.9
166.742	25.1
172.777	580.1
178.805	2153.1
184.826	5821.1
190.841	11933.1
196.849	18718.1
202.85	23309.1
208.845	24713.1
214.833	24374.1
220.815	23943.1
226.789	23775.1
232.758	23605.1
238.719	23487.1
244.674	23050.1
250.623	22690.1
256.565	22203.1
262.5	21767.1
268.429	21288.1
274.351	20957.1
280.267	20619.1
286.176	20481.1
292.079	20303.1
297.975	20031.1
303.865	19851.1
309.748	19659.1
315.625	19630.1
321.495	19500.1
327.359	19327.1
333.217	19344.1
339.068	19330.1
344.912	19260.1
350.751	19316.1
356.583	19266.1
362.408	19198.1
368.227	19204.1
374.04	19272.1
379.847	19317.1
385.647	19375.1
391.44	19436.1
397.228	19571.1
403.009	19573.1
408.784	19688.1
414.553	19752.1
420.315	19823.1
426.071	19822.1
431.821	19791.1
437.565	19771.1
443.302	19789.1
449.033	19742.1
454.758	19681.1
460.477	19635.1
466.189	19589.1
471.896	19521.1
477.596	19507.1
483.29	19416.1
488.978	19409.1
494.66	19362.1
500.335	19225.1
506.005	19017.1
511.668	18816.1
517.325	18541.1
522.977	18399.1
528.622	18249.1
534.261	18149.1
539.894	18027.1
545.521	17979.1
551.141	17924.1
556.756	17894.1
562.365	17778.1
567.968	17769.1
573.565	17693.1
579.155	17565.1
584.74	17530.1
590.319	17437.1
595.892	17414.1
601.459	17306.1
607.02	17241.1
612.575	17189.1
618.124	17051.1
623.667	16978.1
629.204	16865.1
634.735	16825.1
640.261	16682.1
645.781	16668.1
651.294	16705.1
656.802	16605.1
662.304	16554.1
667.8	16575.1
673.29	16569.1
678.775	16514.1
684.254	16450.1
689.726	16407.1
695.193	16355.1
700.655	16234.1
706.11	16168.1
711.56	16090.1
717.004	16012.1
722.442	15996.1
727.874	15966.1
733.301	15877.1
738.722	15849.1
744.137	15843.1
749.547	15837.1
754.951	15750.1
760.349	15777.1
765.741	15802.1
771.128	15776.1
776.509	15773.1
781.885	15786.1
787.254	15750.1
792.618	15736.1
797.977	15644.1
803.33	15496.1
808.677	15454.1
814.019	15383.1
819.355	15245.1
824.686	15181.1
830.011	15171.1
835.33	15194.1
840.644	15195.1
845.952	15238.1
851.255	15212.1
856.552	15283.1
861.844	15265.1
867.13	15228.1
872.41	15130.1
877.686	15068.1
882.955	14960.1
888.219	14806.1
893.478	14697.1
898.731	14499.1
903.979	14331.1
909.221	14267.1
914.458	14176.1
919.69	14176.1
924.916	14205.1
930.136	14251.1
935.351	14266.1
940.561	14255.1
945.766	14264.1
950.965	14145.1
956.158	14048.1
961.347	13872.1
966.529	13717.1
971.707	13600.1
976.879	13395.1
982.046	13322.1
987.208	13245.1
992.364	13303.1
997.515	13353.1
1002.66	13439.1
1007.801	13671.1
1012.936	13725.1
1018.066	13715.1
1023.19	13774.1
1028.309	13747.1
1033.423	13671.1
1038.532	13639.1
1043.636	13549.1
1048.734	13328.1
1053.827	13177.1
1058.915	13061.1
1063.998	12931.1
1069.075	12910.1
1074.147	12914.1
1079.214	12975.1
1084.276	13054.1
1089.333	13100.1
1094.385	13176.1
1099.431	13266.1
1104.472	13233.1
1109.509	13178.1
1114.54	13004.1
1119.565	12838.1
1124.586	12699.1
1129.602	12561.1
1134.613	12474.1
1139.618	12395.1
1144.619	12397.1
1149.614	12321.1
1154.604	12426.1
1159.589	12414.1
1164.57	12412.1
1169.545	12473.1
1174.515	12459.1
1179.48	12417.1
1184.44	12375.1
1189.395	12240.1
1194.345	12116.1
1199.29	12089.1
1204.23	12091.1
1209.165	12159.1
1214.095	12216.1
1219.021	12256.1
1223.941	12327.1
1228.856	12390.1
1233.766	12448.1
1238.672	12468.1
1243.572	12452.1
1248.467	12379.1
1253.358	12201.1
1258.244	12024.1
1263.124	11894.1
1268	11689.1
1272.871	11562.1
1277.737	11474.1
1282.599	11391.1
1287.455	11414.1
1292.306	11429.1
1297.153	11478.1
1301.995	11420.1
1306.832	11538.1
1311.664	11501.1
1316.491	11500.1
1321.314	11396.1
1326.132	11214.1
1330.945	10984.1
1335.753	10671.1
1340.556	10454.1
1345.354	10244.1
1350.148	10098.1
1354.937	10097.1
1359.722	10136.1
1364.501	10167.1
1369.276	10290.1
1374.046	10390.1
1378.811	10527.1
1383.572	10658.1
1388.327	10622.1
1393.079	10534.1
1397.825	10412.1
1402.567	10256.1
1407.304	10174.1
1412.036	10087.1
1416.764	10032.1
1421.487	9936.1
1426.205	9881.1
1430.919	9848.1
1435.628	9832.1
1440.333	9823.1
1445.032	9905.1
1449.727	9912.1
1454.418	9905.1
1459.104	9820.1
1463.785	9638.1
1468.462	9389.1
1473.134	9223.1
1477.802	9017.1
1482.465	8858.1
1487.123	8774.1
1491.777	8756.1
1496.426	8834.1
1501.071	8949.1
1505.711	9082.1
1510.347	9212.1
1514.978	9391.1
1519.604	9482.1
1524.226	9626.1
1528.844	9563.1
1533.457	9567.1
1538.065	9510.1
1542.669	9449.1
1547.269	9389.1
1551.864	9303.1
1556.454	9277.1
1561.041	9299.1
1565.622	9268.1
1570.199	9283.1
1574.772	9348.1
1579.34	9429.1
1583.904	9431.1
1588.464	9469.1
1593.019	9481.1
1597.569	9439.1
1602.115	9360.1
1606.657	9334.1
1611.195	9304.1
1615.728	9243.1
1620.256	9193.1
1624.78	9172.1
1629.3	9190.1
1633.816	9235.1
1638.327	9272.1
1642.834	9300.1
1647.336	9348.1
1651.834	9391.1
1656.328	9374.1
1660.817	9266.1
1665.302	9208.1
1669.783	9053.1
1674.259	8796.1
1678.732	8532.1
1683.199	8267.1
1687.663	8004.1
1692.122	7797.1
1696.577	7684.1
1701.028	7687.1
1705.474	7704.1
1709.917	7787.1
1714.355	7797.1
1718.788	7733.1
1723.218	7606.1
1727.643	7499.1
1732.064	7310.1
1736.481	7145.1
1740.893	6997.1
1745.301	6801.1
1749.705	6615.1
1754.105	6391.1
1758.501	6223.1
1762.893	6084.1
1767.28	5918.1
1771.663	5828.1
1776.042	5716.1
1780.417	5704.1
1784.787	5698.1
1789.154	5800.1
1793.516	5900.1
1797.874	6010.1
1802.228	6087.1
1806.578	6099.1
1810.924	6124.1
1815.266	6054.1
1819.603	5963.1
1823.937	5869.1
1828.266	5786.1
1832.591	5677.1
1836.913	5623.1
1841.23	5601.1
1845.543	5523.1
1849.852	5475.1
1854.156	5495.1
1858.457	5473.1
1862.754	5463.1
1867.047	5460.1
1871.335	5408.1
1875.62	5433.1
1879.9	5411.1
1884.177	5383.1
1888.449	5353.1
1892.718	5262.1
1896.982	5200.1
1901.243	5164.1
1905.499	5141.1
1909.752	5151.1
1914	5141.1
1918.245	5145.1
1922.485	5195.1
1926.722	5264.1
1930.954	5305.1
1935.183	5353.1
1939.408	5413.1
1943.628	5452.1
1947.845	5430.1
1952.058	5430.1
1956.267	5376.1
1960.472	5337.1
1964.673	5216.1
1968.87	5176.1
1973.063	5101.1
1977.252	4995.1
1981.438	4960.1
1985.619	4916.1
1989.797	4877.1
1993.971	4830.1
1998.14	4833.1
2002.306	4816.1
2006.469	4789.1
2010.627	4751.1
2014.781	4719.1
2018.932	4700.1
2023.078	4640.1
2027.221	4557.1
2031.36	4527.1
2035.495	4433.1
2039.627	4379.1
2043.754	4332.1
2047.878	4282.1
2051.998	4246.1
2056.114	4249.1
2060.226	4283.1
2064.334	4271.1
2068.439	4261.1
2072.54	4293.1
2076.637	4317.1
2080.73	4348.1
2084.82	4373.1
2088.906	4394.1
2092.988	4398.1
2097.066	4394.1
2101.14	4360.1
2105.211	4304.1
2109.278	4321.1
2113.342	4276.1
2117.401	4253.1
2121.457	4226.1
2125.509	4182.1
2129.558	4176.1
2133.602	4137.1
2137.643	4084.1
2141.681	4117.1
2145.714	4087.1
2149.744	4086.1
2153.77	4043.1
2157.793	3983.1
2161.812	3907.1
2165.827	3876.1
2169.838	3805.1
2173.846	3769.1
2177.851	3697.1
2181.851	3666.1
2185.848	3587.1
2189.841	3564.1
2193.831	3502.1
2197.817	3517.1
2201.799	3477.1
2205.778	3471.1
2209.753	3453.1
2213.725	3450.1
2217.693	3423.1
2221.657	3419.1
2225.618	3399.1
2229.575	3406.1
2233.529	3352.1
2237.479	3337.1
2241.425	3293.1
2245.368	3256.1
2249.307	3185.1
2253.243	3152.1
2257.175	3156.1
2261.104	3067.1
2265.029	3035.1
2268.95	2974.1
2272.868	2977.1
2276.783	2937.1
2280.694	2935.1
2284.601	2887.1
2288.505	2872.1
2292.405	2819.1
2296.302	2810.1
2300.195	2788.1
2304.085	2725.1
2307.971	2717.1
2311.854	2679.1
2315.734	2632.1
2319.609	2570.1
2323.482	2556.1
2327.351	2523.1
2331.216	2510.1
2335.078	2483.1
2338.937	2480.1
2342.792	2463.1
2346.643	2458.1
2350.492	2466.1
2354.336	2473.1
2358.178	2451.1
2362.015	2493.1
2365.85	2481.1
2369.681	2491.1
2373.508	2472.1
2377.333	2464.1
2381.153	2455.1
2384.971	2449.1
2388.785	2456.1
2392.595	2438.1
2396.402	2398.1
2400.206	2372.1
2404.007	2352.1
2407.804	2336.1
2411.597	2318.1
2415.388	2323.1
2419.174	2298.1
2422.958	2273.1
2426.738	2250.1
2430.515	2244.1
2434.289	2227.1
2438.059	2188.1
2441.825	2191.1
2445.589	2169.1
2449.349	2145.1
2453.106	2098.1
2456.859	2097.1
2460.61	2043.1
2464.356	2054.1
2468.1	2013.1
2471.84	1982.1
2475.577	1968.1
2479.311	1962.1
2483.041	1969.1
2486.768	1929.1
2490.492	1943.1
2494.213	1925.1
2497.93	1924.1
2501.644	1903.1
2505.355	1901.1
2509.062	1882.1
2512.766	1884.1
2516.467	1872.1
2520.165	1847.1
2523.859	1835.1
2527.551	1847.1
2531.239	1833.1
2534.923	1823.1
2538.605	1817.1
2542.283	1798.1
2545.958	1778.1
2549.63	1817.1
2553.299	1784.1
2556.964	1770.1
2560.626	1803.1
2564.285	1769.1
2567.941	1771.1
2571.594	1749.1
2575.243	1726.1
2578.89	1743.1
2582.533	1714.1
2586.173	1688.1
2589.809	1700.1
2593.443	1657.1
2597.073	1667.1
2600.701	1642.1
2604.325	1634.1
2607.946	1610.1
2611.564	1606.1
2615.178	1588.1
2618.79	1584.1
2622.398	1582.1
2626.004	1554.1
2629.606	1541.1
2633.205	1513.1
2636.801	1483.1
2640.394	1464.1
2643.983	1441.1
2647.57	1413.1
2651.153	1409.1
2654.734	1389.1
2658.311	1365.1
2661.885	1339.1
2665.456	1329.1
2669.025	1307.1
2672.589	1305.1
2676.151	1288.1
2679.71	1261.1
2683.266	1235.1
2686.819	1207.1
2690.368	1200.1
2693.915	1149.1
2697.458	1139.1
2700.999	1129.1
2704.536	1103.1
2708.071	1075.1
2711.602	1043.1
2715.13	1017.1
2718.656	1001.1
2722.178	979.1
2725.697	966.1
2729.214	966.1
2732.727	955.1
2736.237	947.1
2739.744	959.1
2743.249	957.1
2746.75	963.1
2750.248	989.1
2753.743	971.1
2757.236	1009.1
2760.725	1000.1
2764.211	1006.1
2767.695	979.1
2771.175	1005.1
2774.652	999.1
2778.127	982.1
2781.598	976.1
2785.067	968.1
2788.532	970.1
2791.995	971.1
2795.455	969.1
2798.911	957.1
2802.365	981.1
2805.816	971.1
2809.264	988.1
2812.709	972.1
2816.151	967.1
2819.59	967.1
2823.026	969.1
2826.46	957.1
2829.89	966.1
2833.318	954.1
2836.742	978.1
2840.164	979.1
2843.583	1012.1
2846.999	989.1
2850.412	1005.1
2853.822	1017.1
2857.229	1025.1
2860.634	1047.1
2864.035	1064.1
2867.434	1089.1
2870.83	1101.1
2874.223	1134.1
2877.613	1136.1
2881	1150.1
2884.385	1167.1
2887.766	1159.1
2891.145	1147.1
2894.521	1170.1
2897.894	1145.1
2901.264	1148.1
2904.631	1139.1
2907.996	1136.1
2911.358	1138.1
2914.717	1150.1
2918.073	1163.1
2921.426	1189.1
2924.777	1209.1
2928.124	1213.1
2931.469	1245.1
2934.811	1266.1
2938.15	1275.1
2941.487	1304.1
2944.821	1312.1
2948.152	1281.1
2951.48	1283.1
2954.805	1275.1
2958.128	1259.1
2961.447	1248.1
2964.765	1232.1
2968.079	1248.1
2971.39	1251.1
2974.699	1266.1
2978.005	1286.1
2981.308	1314.1
2984.609	1332.1
2987.907	1353.1
2991.202	1376.1
2994.494	1410.1
2997.784	1451.1
3001.07	1476.1
3004.355	1491.1
3007.636	1500.1
3010.915	1521.1
3014.191	1536.1
3017.464	1547.1
3020.734	1556.1
3024.002	1543.1
3027.267	1555.1
3030.53	1560.1
3033.789	1584.1
3037.046	1593.1
3040.301	1626.1
3043.552	1680.1
3046.801	1704.1
3050.048	1732.1
3053.291	1807.1
3056.532	1848.1
3059.771	1900.1
3063.006	1950.1
3066.239	1996.1
3069.469	2053.1
3072.697	2112.1
3075.922	2174.1
3079.144	2231.1
3082.364	2266.1
3085.581	2295.1
3088.795	2382.1
3092.007	2430.1
3095.216	2477.1
3098.423	2529.1
3101.627	2575.1
3104.828	2636.1
3108.026	2693.1
3111.222	2750.1
3114.416	2803.1
3117.607	2887.1
3120.795	2926.1
3123.98	3016.1
3127.163	3101.1
3130.344	3153.1
3133.521	3237.1
3136.696	3283.1
3139.869	3357.1
3143.039	3407.1
3146.206	3435.1
3149.371	3507.1
3152.533	3540.1
3155.693	3538.1
3158.85	3584.1
3162.005	3605.1
3165.157	3606.1
3168.306	3612.1
3171.453	3603.1
3174.597	3635.1
3177.739	3618.1
3180.878	3621.1
3184.014	3630.1
3187.149	3667.1
3190.28	3650.1
3193.409	3659.1
3196.536	3659.1
3199.659	3645.1
3202.781	3674.1
3205.9	3650.1
3209.016	3647.1
3212.13	3631.1
3215.241	3633.1
3218.35	3555.1
3221.456	3552.1
3224.56	3517.1
3227.661	3476.1
3230.76	3443.1
3233.856	3377.1
3236.95	3361.1
3240.041	3333.1
3243.13	3320.1
3246.216	3285.1
3249.3	3272.1
3252.382	3254.1
3255.46	3230.1
3258.537	3234.1
3261.611	3255.1
3264.682	3230.1
3267.751	3231.1
3270.818	3218.1
3273.882	3180.1
3276.943	3198.1
3280.002	3152.1
3283.059	3131.1
3286.113	3092.1
3289.165	3045.1
3292.214	2986.1
3295.261	2953.1
3298.306	2883.1
3301.348	2880.1
3304.387	2814.1
3307.425	2780.1
3310.459	2722.1
3313.492	2709.1
3316.521	2666.1
3319.549	2638.1
3322.574	2582.1
3325.597	2564.1
3328.617	2536.1
3331.635	2540.1
3334.65	2538.1
3337.663	2477.1
3340.674	2482.1
3343.682	2476.1
3346.688	2462.1
3349.691	2448.1
3352.692	2438.1
3355.691	2414.1
3358.687	2406.1
3361.681	2368.1
3364.673	2353.1
3367.662	2304.1
3370.649	2259.1
3373.633	2250.1
3376.615	2201.1
3379.595	2154.1
3382.572	2159.1
3385.547	2118.1
3388.52	2072.1
3391.49	2021.1
3394.458	2028.1
3397.424	1986.1
3400.387	1944.1
3403.348	1938.1
3406.307	1892.1
3409.263	1889.1
3412.217	1876.1
3415.168	1849.1
3418.118	1817.1
3421.065	1783.1
3424.009	1755.1
3426.951	1725.1
3429.891	1700.1
3432.829	1653.1
3435.764	1625.1
3438.697	1592.1
3441.628	1539.1
3444.557	1495.1
3447.483	1448.1
3450.407	1391.1
3453.328	1341.1
3456.247	1314.1
3459.164	1258.1
3462.079	1199.1
3464.991	1158.1
3467.902	1129.1
3470.809	1089.1
3473.715	1034.1
3476.618	1004.1
3479.519	958.1
3482.418	933.1
3485.315	899.1
3488.209	864.1
3491.101	829.1
3493.99	817.1
3496.878	752.1
3499.763	724.1
3502.646	710.1
3505.527	663.1
3508.405	638.1
3511.281	582.1
3514.155	569.1
3517.027	520.1
3519.897	470.1
3522.764	436.1
3525.629	410.1
3528.492	368.1
3531.352	346.1
3534.211	307.1
3537.067	272.1
3539.921	227.1
3542.773	212.1
3545.622	185.1
3548.469	150.1
3551.315	123.1
3554.157	97.1
3556.998	79.1
3559.837	50.1
3562.673	31.1
3565.507	-0.9
3568.339	-6.9
3571.169	-19.9
3573.996	-37.9
3576.822	-62.9
3579.645	-78.9
3582.466	-99.9
3585.285	-116.9
3588.101	-127.9
3590.916	-148.9
3593.728	-163.9
3596.538	-181.9
3599.346	-204.9
3602.152	-209.9
3604.956	-235.9
3607.757	-237.9
3610.556	-261.9
3613.354	-280.9
3616.149	-275.9
3618.942	-288.9
3621.732	-301.9
3624.521	-314.9
3627.307	-315.9
3630.092	-340.9
3632.874	-345.9
3635.654	-350.9
3638.432	-355.9
3641.208	-364.9
3643.982	-371.9
3646.753	-374.9
3649.523	-396.9
3652.29	-401.9
3655.055	-400.9
3657.818	-415.9
3660.579	-423.9
3663.338	-431.9
3666.095	-445.9
3668.849	-446.9
3671.602	-458.9
3674.352	-460.9
3677.101	-470.9
3679.847	-482.9
3682.591	-480.9
3685.333	-490.9
3688.073	-496.9
3690.811	-497.9
3693.547	-505.9
3696.281	-512.9
3699.013	-514.9
3701.742	-520.9
3704.47	-520.9
3707.195	-530.9
3709.919	-525.9
3712.64	-533.9
3715.359	-539.9
3718.076	-531.9
3720.792	-548.9
3723.505	-545.9
3726.216	-546.9
3728.925	-548.9
3731.632	-562.9
3734.336	-561.9
3737.039	-568.9
3739.74	-568.9
3742.439	-559.9
3745.136	-568.9
3747.83	-567.9
3750.523	-565.9
3753.213	-573.9
3755.902	-571.9
3758.589	-576.9
3761.273	-572.9
3763.956	-582.9
3766.636	-577.9
3769.315	-586.9
3771.991	-587.9
3774.665	-581.9
3777.338	-585.9
3780.008	-584.9
3782.677	-591.9
3785.343	-585.9
3788.007	-579.9
3790.67	-593.9
3793.33	-589.9
3795.989	-600.9
3798.645	-596.9
3801.299	-601.9
3803.952	-604.9
3806.602	-605.9
3809.251	-601.9
3811.897	-598.9
3814.542	-597.9
3817.184	-604.9
3819.825	-600.9
3822.463	-595.9
3825.1	-602.9
3827.735	-605.9
3830.367	-603.9
3832.998	-608.9
3835.627	-608.9
3838.253	-613.9
3840.878	-609.9
3843.501	-616.9
3846.122	-612.9
3848.741	-612.9
3851.358	-614.9
3853.973	-605.9
3856.586	-608.9
3859.197	-611.9
3861.806	-611.9
3864.414	-605.9
3867.019	-604.9
3869.622	-609.9
3872.224	-598.9
3874.823	-588.9
3877.421	-569.9
3880.016	-552.9
3882.61	-528.9
3885.202	-522.9
3887.792	-546.9
3890.38	-579.9
3892.966	-600.9
3895.55	-603.9
3898.132	-607.9
3900.713	-616.9
3903.291	-620.9
3905.868	-622.9
3908.442	-620.9
3911.015	-621.9
3913.586	-622.9
3916.155	-624.9
3918.722	-621.9
3921.287	-626.9
3923.85	-624.9
3926.411	-626.9
3928.971	-623.9
3931.528	-623.9
3934.084	-619.9
3936.638	-628.9
3939.19	-628.9
3941.74	-627.9
3944.288	-625.9
3946.834	-623.9
3949.378	-631.9
3951.921	-629.9
3954.462	-628.9
3957	-627.9
3959.537	-628.9
3962.072	-626.9
3964.606	-620.9
3967.137	-628.9
3969.667	-620.9
3972.194	-620.9
3974.72	-618.9
3977.244	-619.9
3979.766	-614.9
3982.286	-616.9
3984.805	-603.9
3987.321	-612.9
3989.836	-616.9
3992.349	-617.9
3994.86	-609.9
3997.369	-617.9
3999.877	-612.9
4002.382	-609.9
4004.886	-612.9
4007.388	-616.9
4009.888	-610.9
4012.386	-612.9
4014.883	-614.9
4017.377	-609.9
4019.87	-609.9
4022.361	-613.9
4024.85	-617.9
4027.338	-620.9
4029.823	-615.9
4032.307	-615.9
4034.789	-617.9
4037.269	-625.9
4039.747	-625.9
4042.224	-605.9
4044.699	-612.9
4047.172	-619.9
4049.643	-612.9
4052.112	-614.9
4054.58	-611.9
4057.046	-619.9
4059.51	-617.9
4061.972	-619.9
4064.432	-618.9
4066.891	-612.9
4069.348	-620.9
4071.803	-620.9
4074.256	-615.9
4076.708	-612.9
4079.158	-615.9
4081.606	-608.9
4084.052	-607.9
4086.497	-617.9
4088.939	-609.9
4091.38	-608.9
4093.819	-611.9
4096.257	-645.9
4098.693	-649.9
4101.127	-649.9
4103.559	-649.9
4105.989	-384.9
4108.418	-365.9
4110.845	-347.9
4113.27	-332.9
4115.694	-288.9
4118.115	-237.9
4120.535	-620.9
4122.954	-620.9
4125.37	-617.9
4127.785	-619.9
4130.198	-616.9
4132.609	-613.9
4135.019	-647.9
4137.427	-646.9
4139.833	-648.9
4142.237	-644.9
