Data from 2018-2-7_conc=0_RamanShift_01.txt Node
Date: Tue Feb 13 11:23:14 IST 2018
User: aro
Spectrometer: QEPB0276
Trigger mode: 0
Integration Time (sec): 3.000000E1
Scans to average: 1
Electric dark correction enabled: true
Nonlinearity correction enabled: false
Boxcar width: 0
XAxis mode: Raman Shifts
Number of Pixels in Spectrum: 1044
>>>>>Begin Spectral Data<<<<<
160.701	-155.2
166.742	21.8
172.777	570.8
178.805	2182.8
184.826	5906.8
190.841	12165.8
196.849	19205.8
202.85	24067.8
208.845	25547.8
214.833	25169.8
220.815	24751.8
226.789	24519.8
232.758	24442.8
238.719	24182.8
244.674	23865.8
250.623	23365.8
256.565	22882.8
262.5	22407.8
268.429	21998.8
274.351	21582.8
280.267	21303.8
286.176	21074.8
292.079	20894.8
297.975	20659.8
303.865	20359.8
309.748	20231.8
315.625	20149.8
321.495	19989.8
327.359	19922.8
333.217	19880.8
339.068	19855.8
344.912	19798.8
350.751	19798.8
356.583	19782.8
362.408	19727.8
368.227	19734.8
374.04	19772.8
379.847	19843.8
385.647	19927.8
391.44	19964.8
397.228	20046.8
403.009	20164.8
408.784	20171.8
414.553	20250.8
420.315	20318.8
426.071	20238.8
431.821	20307.8
437.565	20314.8
443.302	20241.8
449.033	20200.8
454.758	20174.8
460.477	20092.8
466.189	20089.8
471.896	20034.8
477.596	19972.8
483.29	19933.8
488.978	19940.8
494.66	19815.8
500.335	19682.8
506.005	19497.8
511.668	19233.8
517.325	19043.8
522.977	18833.8
528.622	18745.8
534.261	18582.8
539.894	18541.8
545.521	18457.8
551.141	18435.8
556.756	18350.8
562.365	18246.8
567.968	18225.8
573.565	18115.8
579.155	18043.8
584.74	17996.8
590.319	17920.8
595.892	17885.8
601.459	17809.8
607.02	17744.8
612.575	17628.8
618.124	17518.8
623.667	17405.8
629.204	17334.8
634.735	17223.8
640.261	17126.8
645.781	17117.8
651.294	17108.8
656.802	17088.8
662.304	17040.8
667.8	17010.8
673.29	17022.8
678.775	16955.8
684.254	16917.8
689.726	16920.8
695.193	16772.8
700.655	16708.8
706.11	16628.8
711.56	16564.8
717.004	16504.8
722.442	16377.8
727.874	16345.8
733.301	16285.8
738.722	16240.8
744.137	16189.8
749.547	16200.8
754.951	16161.8
760.349	16213.8
765.741	16251.8
771.128	16221.8
776.509	16216.8
781.885	16308.8
787.254	16227.8
792.618	16139.8
797.977	16045.8
803.33	15972.8
808.677	15857.8
814.019	15757.8
819.355	15693.8
824.686	15603.8
830.011	15517.8
835.33	15555.8
840.644	15628.8
845.952	15671.8
851.255	15620.8
856.552	15654.8
861.844	15675.8
867.13	15598.8
872.41	15505.8
877.686	15484.8
882.955	15307.8
888.219	15198.8
893.478	15090.8
898.731	14836.8
903.979	14791.8
909.221	14562.8
914.458	14567.8
919.69	14567.8
924.916	14631.8
930.136	14659.8
935.351	14689.8
940.561	14640.8
945.766	14672.8
950.965	14610.8
956.158	14481.8
961.347	14279.8
966.529	14133.8
971.707	13954.8
976.879	13844.8
982.046	13694.8
987.208	13655.8
992.364	13638.8
997.515	13738.8
1002.66	13894.8
1007.801	14049.8
1012.936	14117.8
1018.066	14131.8
1023.19	14119.8
1028.309	14118.8
1033.423	14160.8
1038.532	14057.8
1043.636	13879.8
1048.734	13696.8
1053.827	13558.8
1058.915	13404.8
1063.998	13293.8
1069.075	13287.8
1074.147	13303.8
1079.214	13353.8
1084.276	13498.8
1089.333	13523.8
1094.385	13552.8
1099.431	13599.8
1104.472	13652.8
1109.509	13601.8
1114.54	13417.8
1119.565	13195.8
1124.586	13060.8
1129.602	12915.8
1134.613	12843.8
1139.618	12819.8
1144.619	12781.8
1149.614	12723.8
1154.604	12798.8
1159.589	12830.8
1164.57	12859.8
1169.545	12901.8
1174.515	12855.8
1179.48	12791.8
1184.44	12743.8
1189.395	12655.8
1194.345	12495.8
1199.29	12438.8
1204.23	12497.8
1209.165	12505.8
1214.095	12561.8
1219.021	12649.8
1223.941	12685.8
1228.856	12808.8
1233.766	12903.8
1238.672	12867.8
1243.572	12880.8
1248.467	12741.8
1253.358	12575.8
1258.244	12422.8
1263.124	12172.8
1268	12103.8
1272.871	11951.8
1277.737	11808.8
1282.599	11787.8
1287.455	11773.8
1292.306	11819.8
1297.153	11844.8
1301.995	11923.8
1306.832	11912.8
1311.664	11897.8
1316.491	11867.8
1321.314	11803.8
1326.132	11578.8
1330.945	11295.8
1335.753	11074.8
1340.556	10825.8
1345.354	10593.8
1350.148	10414.8
1354.937	10374.8
1359.722	10375.8
1364.501	10447.8
1369.276	10557.8
1374.046	10692.8
1378.811	10824.8
1383.572	10962.8
1388.327	10943.8
1393.079	10925.8
1397.825	10750.8
1402.567	10649.8
1407.304	10467.8
1412.036	10400.8
1416.764	10327.8
1421.487	10249.8
1426.205	10224.8
1430.919	10162.8
1435.628	10190.8
1440.333	10180.8
1445.032	10233.8
1449.727	10258.8
1454.418	10176.8
1459.104	10119.8
1463.785	9881.8
1468.462	9719.8
1473.134	9523.8
1477.802	9322.8
1482.465	9160.8
1487.123	9034.8
1491.777	9056.8
1496.426	9088.8
1501.071	9189.8
1505.711	9318.8
1510.347	9488.8
1514.978	9708.8
1519.604	9820.8
1524.226	9881.8
1528.844	9881.8
1533.457	9857.8
1538.065	9833.8
1542.669	9741.8
1547.269	9712.8
1551.864	9612.8
1556.454	9598.8
1561.041	9608.8
1565.622	9608.8
1570.199	9622.8
1574.772	9649.8
1579.34	9751.8
1583.904	9759.8
1588.464	9819.8
1593.019	9814.8
1597.569	9820.8
1602.115	9762.8
1606.657	9639.8
1611.195	9590.8
1615.728	9535.8
1620.256	9494.8
1624.78	9478.8
1629.3	9514.8
1633.816	9568.8
1638.327	9601.8
1642.834	9650.8
1647.336	9717.8
1651.834	9673.8
1656.328	9648.8
1660.817	9625.8
1665.302	9522.8
1669.783	9349.8
1674.259	9159.8
1678.732	8879.8
1683.199	8568.8
1687.663	8254.8
1692.122	8007.8
1696.577	7890.8
1701.028	7893.8
1705.474	7958.8
1709.917	8048.8
1714.355	8062.8
1718.788	8020.8
1723.218	7873.8
1727.643	7794.8
1732.064	7587.8
1736.481	7429.8
1740.893	7283.8
1745.301	7038.8
1749.705	6848.8
1754.105	6684.8
1758.501	6490.8
1762.893	6272.8
1767.28	6139.8
1771.663	5989.8
1776.042	5873.8
1780.417	5841.8
1784.787	5856.8
1789.154	5919.8
1793.516	6008.8
1797.874	6143.8
1802.228	6239.8
1806.578	6316.8
1810.924	6317.8
1815.266	6279.8
1819.603	6178.8
1823.937	6076.8
1828.266	5912.8
1832.591	5890.8
1836.913	5823.8
1841.23	5745.8
1845.543	5728.8
1849.852	5671.8
1854.156	5695.8
1858.457	5661.8
1862.754	5659.8
1867.047	5662.8
1871.335	5630.8
1875.62	5618.8
1879.9	5607.8
1884.177	5575.8
1888.449	5536.8
1892.718	5441.8
1896.982	5381.8
1901.243	5317.8
1905.499	5311.8
1909.752	5249.8
1914	5274.8
1918.245	5314.8
1922.485	5324.8
1926.722	5409.8
1930.954	5483.8
1935.183	5538.8
1939.408	5579.8
1943.628	5579.8
1947.845	5631.8
1952.058	5625.8
1956.267	5587.8
1960.472	5518.8
1964.673	5430.8
1968.87	5353.8
1973.063	5250.8
1977.252	5242.8
1981.438	5143.8
1985.619	5094.8
1989.797	5045.8
1993.971	5023.8
1998.14	4992.8
2002.306	4966.8
2006.469	4921.8
2010.627	4902.8
2014.781	4897.8
2018.932	4836.8
2023.078	4807.8
2027.221	4754.8
2031.36	4681.8
2035.495	4617.8
2039.627	4522.8
2043.754	4460.8
2047.878	4462.8
2051.998	4392.8
2056.114	4405.8
2060.226	4374.8
2064.334	4397.8
2068.439	4396.8
2072.54	4434.8
2076.637	4452.8
2080.73	4517.8
2084.82	4536.8
2088.906	4507.8
2092.988	4562.8
2097.066	4526.8
2101.14	4522.8
2105.211	4484.8
2109.278	4466.8
2113.342	4443.8
2117.401	4402.8
2121.457	4385.8
2125.509	4375.8
2129.558	4341.8
2133.602	4322.8
2137.643	4286.8
2141.681	4264.8
2145.714	4276.8
2149.744	4230.8
2153.77	4177.8
2157.793	4167.8
2161.812	4124.8
2165.827	4033.8
2169.838	4000.8
2173.846	3900.8
2177.851	3863.8
2181.851	3812.8
2185.848	3744.8
2189.841	3741.8
2193.831	3676.8
2197.817	3670.8
2201.799	3642.8
2205.778	3634.8
2209.753	3597.8
2213.725	3595.8
2217.693	3600.8
2221.657	3591.8
2225.618	3548.8
2229.575	3529.8
2233.529	3517.8
2237.479	3488.8
2241.425	3423.8
2245.368	3430.8
2249.307	3335.8
2253.243	3312.8
2257.175	3269.8
2261.104	3222.8
2265.029	3187.8
2268.95	3152.8
2272.868	3116.8
2276.783	3087.8
2280.694	3041.8
2284.601	3020.8
2288.505	3013.8
2292.405	2990.8
2296.302	2937.8
2300.195	2921.8
2304.085	2883.8
2307.971	2817.8
2311.854	2827.8
2315.734	2764.8
2319.609	2722.8
2323.482	2689.8
2327.351	2652.8
2331.216	2662.8
2335.078	2647.8
2338.937	2615.8
2342.792	2620.8
2346.643	2613.8
2350.492	2602.8
2354.336	2617.8
2358.178	2614.8
2362.015	2637.8
2365.85	2635.8
2369.681	2654.8
2373.508	2645.8
2377.333	2619.8
2381.153	2628.8
2384.971	2601.8
2388.785	2603.8
2392.595	2564.8
2396.402	2534.8
2400.206	2536.8
2404.007	2500.8
2407.804	2485.8
2411.597	2478.8
2415.388	2472.8
2419.174	2452.8
2422.958	2430.8
2426.738	2439.8
2430.515	2393.8
2434.289	2379.8
2438.059	2353.8
2441.825	2356.8
2445.589	2316.8
2449.349	2289.8
2453.106	2252.8
2456.859	2227.8
2460.61	2208.8
2464.356	2197.8
2468.1	2156.8
2471.84	2141.8
2475.577	2106.8
2479.311	2103.8
2483.041	2107.8
2486.768	2095.8
2490.492	2079.8
2494.213	2077.8
2497.93	2043.8
2501.644	2060.8
2505.355	2070.8
2509.062	2030.8
2512.766	2004.8
2516.467	2026.8
2520.165	1998.8
2523.859	1986.8
2527.551	1938.8
2531.239	1951.8
2534.923	1957.8
2538.605	1933.8
2542.283	1942.8
2545.958	1935.8
2549.63	1928.8
2553.299	1912.8
2556.964	1921.8
2560.626	1937.8
2564.285	1921.8
2567.941	1919.8
2571.594	1888.8
2575.243	1873.8
2578.89	1873.8
2582.533	1863.8
2586.173	1852.8
2589.809	1820.8
2593.443	1827.8
2597.073	1799.8
2600.701	1775.8
2604.325	1760.8
2607.946	1752.8
2611.564	1739.8
2615.178	1723.8
2618.79	1715.8
2622.398	1684.8
2626.004	1681.8
2629.606	1667.8
2633.205	1651.8
2636.801	1617.8
2640.394	1599.8
2643.983	1567.8
2647.57	1567.8
2651.153	1531.8
2654.734	1503.8
2658.311	1503.8
2661.885	1484.8
2665.456	1443.8
2669.025	1430.8
2672.589	1421.8
2676.151	1383.8
2679.71	1376.8
2683.266	1335.8
2686.819	1319.8
2690.368	1301.8
2693.915	1270.8
2697.458	1244.8
2700.999	1226.8
2704.536	1180.8
2708.071	1167.8
2711.602	1149.8
2715.13	1114.8
2718.656	1086.8
2722.178	1060.8
2725.697	1053.8
2729.214	1036.8
2732.727	1039.8
2736.237	1033.8
2739.744	1031.8
2743.249	1025.8
2746.75	1030.8
2750.248	1049.8
2753.743	1062.8
2757.236	1080.8
2760.725	1080.8
2764.211	1093.8
2767.695	1085.8
2771.175	1097.8
2774.652	1080.8
2778.127	1076.8
2781.598	1062.8
2785.067	1060.8
2788.532	1069.8
2791.995	1077.8
2795.455	1071.8
2798.911	1066.8
2802.365	1054.8
2805.816	1071.8
2809.264	1066.8
2812.709	1068.8
2816.151	1054.8
2819.59	1067.8
2823.026	1060.8
2826.46	1047.8
2829.89	1065.8
2833.318	1068.8
2836.742	1068.8
2840.164	1088.8
2843.583	1077.8
2846.999	1117.8
2850.412	1109.8
2853.822	1115.8
2857.229	1112.8
2860.634	1139.8
2864.035	1159.8
2867.434	1184.8
2870.83	1188.8
2874.223	1230.8
2877.613	1238.8
2881	1253.8
2884.385	1279.8
2887.766	1231.8
2891.145	1260.8
2894.521	1246.8
2897.894	1259.8
2901.264	1238.8
2904.631	1242.8
2907.996	1235.8
2911.358	1241.8
2914.717	1266.8
2918.073	1271.8
2921.426	1293.8
2924.777	1299.8
2928.124	1331.8
2931.469	1347.8
2934.811	1376.8
2938.15	1360.8
2941.487	1380.8
2944.821	1390.8
2948.152	1386.8
2951.48	1361.8
2954.805	1347.8
2958.128	1337.8
2961.447	1356.8
2964.765	1312.8
2968.079	1333.8
2971.39	1329.8
2974.699	1366.8
2978.005	1377.8
2981.308	1417.8
2984.609	1418.8
2987.907	1437.8
2991.202	1483.8
2994.494	1504.8
2997.784	1546.8
3001.07	1577.8
3004.355	1577.8
3007.636	1593.8
3010.915	1626.8
3014.191	1626.8
3017.464	1666.8
3020.734	1668.8
3024.002	1648.8
3027.267	1684.8
3030.53	1682.8
3033.789	1730.8
3037.046	1718.8
3040.301	1756.8
3043.552	1785.8
3046.801	1837.8
3050.048	1856.8
3053.291	1906.8
3056.532	1957.8
3059.771	2041.8
3063.006	2069.8
3066.239	2143.8
3069.469	2183.8
3072.697	2262.8
3075.922	2309.8
3079.144	2380.8
3082.364	2409.8
3085.581	2444.8
3088.795	2512.8
3092.007	2569.8
3095.216	2636.8
3098.423	2683.8
3101.627	2743.8
3104.828	2817.8
3108.026	2851.8
3111.222	2921.8
3114.416	2976.8
3117.607	3036.8
3120.795	3117.8
3123.98	3179.8
3127.163	3246.8
3130.344	3332.8
3133.521	3435.8
3136.696	3468.8
3139.869	3555.8
3143.039	3608.8
3146.206	3676.8
3149.371	3718.8
3152.533	3743.8
3155.693	3775.8
3158.85	3808.8
3162.005	3802.8
3165.157	3809.8
3168.306	3847.8
3171.453	3826.8
3174.597	3837.8
3177.739	3821.8
3180.878	3853.8
3184.014	3878.8
3187.149	3842.8
3190.28	3861.8
3193.409	3867.8
3196.536	3854.8
3199.659	3889.8
3202.781	3876.8
3205.9	3864.8
3209.016	3880.8
3212.13	3841.8
3215.241	3827.8
3218.35	3780.8
3221.456	3741.8
3224.56	3704.8
3227.661	3646.8
3230.76	3632.8
3233.856	3582.8
3236.95	3553.8
3240.041	3501.8
3243.13	3505.8
3246.216	3445.8
3249.3	3441.8
3252.382	3425.8
3255.46	3441.8
3258.537	3408.8
3261.611	3416.8
3264.682	3399.8
3267.751	3401.8
3270.818	3373.8
3273.882	3377.8
3276.943	3349.8
3280.002	3338.8
3283.059	3276.8
3286.113	3254.8
3289.165	3224.8
3292.214	3157.8
3295.261	3131.8
3298.306	3039.8
3301.348	3022.8
3304.387	2961.8
3307.425	2934.8
3310.459	2898.8
3313.492	2839.8
3316.521	2828.8
3319.549	2780.8
3322.574	2748.8
3325.597	2723.8
3328.617	2704.8
3331.635	2671.8
3334.65	2669.8
3337.663	2661.8
3340.674	2640.8
3343.682	2603.8
3346.688	2624.8
3349.691	2595.8
3352.692	2594.8
3355.691	2566.8
3358.687	2540.8
3361.681	2499.8
3364.673	2495.8
3367.662	2453.8
3370.649	2430.8
3373.633	2389.8
3376.615	2333.8
3379.595	2331.8
3382.572	2275.8
3385.547	2229.8
3388.52	2196.8
3391.49	2153.8
3394.458	2135.8
3397.424	2102.8
3400.387	2069.8
3403.348	2070.8
3406.307	2058.8
3409.263	2009.8
3412.217	1999.8
3415.168	1972.8
3418.118	1930.8
3421.065	1926.8
3424.009	1871.8
3426.951	1837.8
3429.891	1804.8
3432.829	1776.8
3435.764	1740.8
3438.697	1692.8
3441.628	1655.8
3444.557	1600.8
3447.483	1548.8
3450.407	1507.8
3453.328	1450.8
3456.247	1398.8
3459.164	1359.8
3462.079	1313.8
3464.991	1246.8
3467.902	1202.8
3470.809	1153.8
3473.715	1093.8
3476.618	1079.8
3479.519	1024.8
3482.418	1023.8
3485.315	951.8
3488.209	928.8
3491.101	912.8
3493.99	844.8
3496.878	814.8
3499.763	783.8
3502.646	757.8
3505.527	720.8
3508.405	702.8
3511.281	645.8
3514.155	619.8
3517.027	584.8
3519.897	537.8
3522.764	515.8
3525.629	456.8
3528.492	415.8
3531.352	376.8
3534.211	360.8
3537.067	306.8
3539.921	283.8
3542.773	247.8
3545.622	215.8
3548.469	176.8
3551.315	145.8
3554.157	126.8
3556.998	108.8
3559.837	78.8
3562.673	71.8
3565.507	43.8
3568.339	23.8
3571.169	1.8
3573.996	-17.2
3576.822	-33.2
3579.645	-51.2
3582.466	-77.2
3585.285	-96.2
3588.101	-125.2
3590.916	-138.2
3593.728	-157.2
3596.538	-175.2
3599.346	-185.2
3602.152	-192.2
3604.956	-218.2
3607.757	-230.2
3610.556	-244.2
3613.354	-258.2
3616.149	-259.2
3618.942	-290.2
3621.732	-285.2
3624.521	-307.2
3627.307	-313.2
3630.092	-324.2
3632.874	-334.2
3635.654	-340.2
3638.432	-350.2
3641.208	-358.2
3643.982	-363.2
3646.753	-374.2
3649.523	-385.2
3652.29	-392.2
3655.055	-399.2
3657.818	-405.2
3660.579	-411.2
3663.338	-425.2
3666.095	-433.2
3668.849	-453.2
3671.602	-459.2
3674.352	-459.2
3677.101	-469.2
3679.847	-482.2
3682.591	-481.2
3685.333	-481.2
3688.073	-490.2
3690.811	-496.2
3693.547	-503.2
3696.281	-503.2
3699.013	-503.2
3701.742	-514.2
3704.47	-516.2
3707.195	-534.2
3709.919	-523.2
3712.64	-534.2
3715.359	-541.2
3718.076	-535.2
3720.792	-547.2
3723.505	-543.2
3726.216	-546.2
3728.925	-545.2
3731.632	-560.2
3734.336	-559.2
3737.039	-568.2
3739.74	-567.2
3742.439	-564.2
3745.136	-571.2
3747.83	-574.2
3750.523	-571.2
3753.213	-581.2
3755.902	-577.2
3758.589	-574.2
3761.273	-579.2
3763.956	-580.2
3766.636	-585.2
3769.315	-581.2
3771.991	-590.2
3774.665	-580.2
3777.338	-585.2
3780.008	-589.2
3782.677	-590.2
3785.343	-591.2
3788.007	-591.2
3790.67	-599.2
3793.33	-599.2
3795.989	-594.2
3798.645	-602.2
3801.299	-606.2
3803.952	-602.2
3806.602	-600.2
3809.251	-601.2
3811.897	-597.2
3814.542	-600.2
3817.184	-604.2
3819.825	-605.2
3822.463	-601.2
3825.1	-605.2
3827.735	-612.2
3830.367	-616.2
3832.998	-612.2
3835.627	-619.2
3838.253	-620.2
3840.878	-611.2
3843.501	-616.2
3846.122	-612.2
3848.741	-615.2
3851.358	-621.2
3853.973	-611.2
3856.586	-614.2
3859.197	-621.2
3861.806	-617.2
3864.414	-614.2
3867.019	-612.2
3869.622	-616.2
3872.224	-612.2
3874.823	-609.2
3877.421	-586.2
3880.016	-572.2
3882.61	-545.2
3885.202	-544.2
3887.792	-561.2
3890.38	-588.2
3892.966	-605.2
3895.55	-613.2
3898.132	-620.2
3900.713	-629.2
3903.291	-620.2
3905.868	-631.2
3908.442	-625.2
3911.015	-627.2
3913.586	-629.2
3916.155	-631.2
3918.722	-625.2
3921.287	-627.2
3923.85	-631.2
3926.411	-627.2
3928.971	-629.2
3931.528	-629.2
3934.084	-622.2
3936.638	-630.2
3939.19	-634.2
3941.74	-642.2
3944.288	-637.2
3946.834	-633.2
3949.378	-638.2
3951.921	-634.2
3954.462	-633.2
3957	-631.2
3959.537	-620.2
3962.072	-628.2
3964.606	-621.2
3967.137	-628.2
3969.667	-624.2
3972.194	-625.2
3974.72	-623.2
3977.244	-623.2
3979.766	-623.2
3982.286	-620.2
3984.805	-612.2
3987.321	-622.2
3989.836	-620.2
3992.349	-621.2
3994.86	-616.2
3997.369	-622.2
3999.877	-615.2
4002.382	-612.2
4004.886	-623.2
4007.388	-619.2
4009.888	-615.2
4012.386	-617.2
4014.883	-620.2
4017.377	-621.2
4019.87	-620.2
4022.361	-624.2
4024.85	-623.2
4027.338	-625.2
4029.823	-621.2
4032.307	-622.2
4034.789	-619.2
4037.269	-631.2
4039.747	-626.2
4042.224	-613.2
4044.699	-622.2
4047.172	-622.2
4049.643	-620.2
4052.112	-617.2
4054.58	-612.2
4057.046	-626.2
4059.51	-626.2
4061.972	-627.2
4064.432	-624.2
4066.891	-620.2
4069.348	-626.2
4071.803	-626.2
4074.256	-615.2
4076.708	-620.2
4079.158	-622.2
4081.606	-615.2
4084.052	-616.2
4086.497	-621.2
4088.939	-616.2
4091.38	-615.2
4093.819	-622.2
4096.257	-654.2
4098.693	-653.2
4101.127	-658.2
4103.559	-657.2
4105.989	-390.2
4108.418	-370.2
4110.845	-352.2
4113.27	-331.2
4115.694	-285.2
4118.115	-236.2
4120.535	-619.2
4122.954	-627.2
4125.37	-629.2
4127.785	-619.2
4130.198	-623.2
4132.609	-621.2
4135.019	-659.2
4137.427	-654.2
4139.833	-654.2
4142.237	-652.2
