Data from 2018-2-7_ethanol_RamanShift_03.txt Node
Date: Tue Feb 13 11:08:14 IST 2018
User: aro
Spectrometer: QEPB0276
Trigger mode: 0
Integration Time (sec): 3.000000E1
Scans to average: 1
Electric dark correction enabled: true
Nonlinearity correction enabled: false
Boxcar width: 0
XAxis mode: Raman Shifts
Number of Pixels in Spectrum: 1044
>>>>>Begin Spectral Data<<<<<
160.701	-54.9
166.742	34.1
172.777	279.1
178.805	988.1
184.826	2602.1
190.841	5254.1
196.849	8145.1
202.85	10042.1
208.845	10565.1
214.833	10418.1
220.815	10258.1
226.789	10214.1
232.758	10271.1
238.719	10286.1
244.674	10270.1
250.623	10221.1
256.565	10242.1
262.5	10221.1
268.429	10250.1
274.351	10213.1
280.267	10186.1
286.176	10039.1
292.079	9866.1
297.975	9624.1
303.865	9369.1
309.748	9222.1
315.625	9008.1
321.495	8875.1
327.359	8784.1
333.217	8678.1
339.068	8633.1
344.912	8595.1
350.751	8594.1
356.583	8613.1
362.408	8668.1
368.227	8769.1
374.04	8857.1
379.847	9057.1
385.647	9226.1
391.44	9513.1
397.228	9862.1
403.009	10393.1
408.784	11162.1
414.553	12460.1
420.315	14546.1
426.071	17520.1
431.821	20702.1
437.565	22795.1
443.302	22539.1
449.033	20293.1
454.758	17437.1
460.477	14939.1
466.189	13001.1
471.896	11618.1
477.596	10637.1
483.29	10026.1
488.978	9563.1
494.66	9252.1
500.335	8940.1
506.005	8576.1
511.668	8305.1
517.325	8033.1
522.977	7852.1
528.622	7656.1
534.261	7557.1
539.894	7490.1
545.521	7407.1
551.141	7403.1
556.756	7362.1
562.365	7311.1
567.968	7300.1
573.565	7313.1
579.155	7258.1
584.74	7243.1
590.319	7236.1
595.892	7282.1
601.459	7265.1
607.02	7246.1
612.575	7246.1
618.124	7195.1
623.667	7120.1
629.204	7112.1
634.735	7079.1
640.261	7080.1
645.781	7052.1
651.294	7082.1
656.802	7085.1
662.304	7079.1
667.8	7090.1
673.29	7086.1
678.775	7100.1
684.254	7022.1
689.726	7023.1
695.193	7021.1
700.655	7019.1
706.11	6933.1
711.56	6960.1
717.004	6968.1
722.442	6934.1
727.874	6958.1
733.301	6942.1
738.722	6987.1
744.137	6977.1
749.547	7030.1
754.951	7073.1
760.349	7144.1
765.741	7218.1
771.128	7303.1
776.509	7405.1
781.885	7611.1
787.254	7785.1
792.618	7950.1
797.977	8129.1
803.33	8411.1
808.677	8716.1
814.019	8974.1
819.355	9057.1
824.686	9165.1
830.011	9386.1
835.33	9705.1
840.644	10283.1
845.952	11066.1
851.255	12293.1
856.552	14251.1
861.844	17519.1
867.13	24031.1
872.41	37936.1
877.686	62782.1
882.955	62783.1
888.219	62781.1
893.478	62773.1
898.731	62777.1
903.979	42377.1
909.221	22538.1
914.458	16498.1
919.69	13487.1
924.916	11814.1
930.136	10747.1
935.351	9957.1
940.561	9467.1
945.766	9064.1
950.965	8778.1
956.158	8552.1
961.347	8360.1
966.529	8219.1
971.707	8149.1
976.879	8132.1
982.046	8233.1
987.208	8383.1
992.364	8668.1
997.515	9126.1
1002.66	9750.1
1007.801	10553.1
1012.936	11760.1
1018.066	13329.1
1023.19	15645.1
1028.309	18682.1
1033.423	22635.1
1038.532	27598.1
1043.636	33713.1
1048.734	40425.1
1053.827	45822.1
1058.915	46069.1
1063.998	40791.1
1069.075	33816.1
1074.147	29824.1
1079.214	29557.1
1084.276	32632.1
1089.333	38096.1
1094.385	44413.1
1099.431	48171.1
1104.472	45854.1
1109.509	38150.1
1114.54	30218.1
1119.565	25043.1
1124.586	22106.1
1129.602	19674.1
1134.613	17297.1
1139.618	14969.1
1144.619	13150.1
1149.614	11924.1
1154.604	11057.1
1159.589	10380.1
1164.57	9838.1
1169.545	9332.1
1174.515	8892.1
1179.48	8452.1
1184.44	8179.1
1189.395	7929.1
1194.345	7747.1
1199.29	7668.1
1204.23	7675.1
1209.165	7727.1
1214.095	7840.1
1219.021	8019.1
1223.941	8289.1
1228.856	8589.1
1233.766	8952.1
1238.672	9436.1
1243.572	9869.1
1248.467	10450.1
1253.358	11047.1
1258.244	12021.1
1263.124	13489.1
1268	15922.1
1272.871	19416.1
1277.737	22791.1
1282.599	24016.1
1287.455	21915.1
1292.306	18319.1
1297.153	15210.1
1301.995	13293.1
1306.832	12051.1
1311.664	11372.1
1316.491	10861.1
1321.314	10504.1
1326.132	10175.1
1330.945	9898.1
1335.753	9640.1
1340.556	9483.1
1345.354	9383.1
1350.148	9372.1
1354.937	9432.1
1359.722	9691.1
1364.501	10012.1
1369.276	10555.1
1374.046	11290.1
1378.811	12223.1
1383.572	13286.1
1388.327	14010.1
1393.079	14414.1
1397.825	14671.1
1402.567	14987.1
1407.304	15605.1
1412.036	16423.1
1416.764	17534.1
1421.487	18780.1
1426.205	20393.1
1430.919	22321.1
1435.628	25043.1
1440.333	28886.1
1445.032	34657.1
1449.727	42455.1
1454.418	50126.1
1459.104	54077.1
1463.785	50772.1
1468.462	42563.1
1473.134	34394.1
1477.802	29383.1
1482.465	27139.1
1487.123	25944.1
1491.777	24020.1
1496.426	21204.1
1501.071	18272.1
1505.711	15884.1
1510.347	14348.1
1514.978	13140.1
1519.604	12255.1
1524.226	11489.1
1528.844	10786.1
1533.457	10151.1
1538.065	9542.1
1542.669	9022.1
1547.269	8567.1
1551.864	8131.1
1556.454	7746.1
1561.041	7437.1
1565.622	7134.1
1570.199	6890.1
1574.772	6660.1
1579.34	6436.1
1583.904	6270.1
1588.464	6078.1
1593.019	5924.1
1597.569	5751.1
1602.115	5594.1
1606.657	5504.1
1611.195	5386.1
1615.728	5357.1
1620.256	5310.1
1624.78	5206.1
1629.3	5070.1
1633.816	4937.1
1638.327	4796.1
1642.834	4679.1
1647.336	4610.1
1651.834	4541.1
1656.328	4517.1
1660.817	4454.1
1665.302	4406.1
1669.783	4340.1
1674.259	4244.1
1678.732	4206.1
1683.199	4139.1
1687.663	4027.1
1692.122	3998.1
1696.577	3991.1
1701.028	3996.1
1705.474	4077.1
1709.917	4147.1
1714.355	4195.1
1718.788	4176.1
1723.218	4135.1
1727.643	4051.1
1732.064	3966.1
1736.481	3841.1
1740.893	3759.1
1745.301	3618.1
1749.705	3502.1
1754.105	3368.1
1758.501	3267.1
1762.893	3174.1
1767.28	3067.1
1771.663	3008.1
1776.042	2937.1
1780.417	2898.1
1784.787	2871.1
1789.154	2886.1
1793.516	2922.1
1797.874	2977.1
1802.228	2986.1
1806.578	3047.1
1810.924	3047.1
1815.266	3034.1
1819.603	2979.1
1823.937	2949.1
1828.266	2894.1
1832.591	2847.1
1836.913	2814.1
1841.23	2780.1
1845.543	2784.1
1849.852	2773.1
1854.156	2781.1
1858.457	2767.1
1862.754	2776.1
1867.047	2770.1
1871.335	2781.1
1875.62	2790.1
1879.9	2776.1
1884.177	2750.1
1888.449	2729.1
1892.718	2709.1
1896.982	2680.1
1901.243	2641.1
1905.499	2613.1
1909.752	2624.1
1914	2623.1
1918.245	2621.1
1922.485	2653.1
1926.722	2642.1
1930.954	2713.1
1935.183	2716.1
1939.408	2754.1
1943.628	2748.1
1947.845	2742.1
1952.058	2748.1
1956.267	2751.1
1960.472	2731.1
1964.673	2682.1
1968.87	2639.1
1973.063	2630.1
1977.252	2583.1
1981.438	2547.1
1985.619	2504.1
1989.797	2484.1
1993.971	2436.1
1998.14	2425.1
2002.306	2409.1
2006.469	2388.1
2010.627	2359.1
2014.781	2318.1
2018.932	2336.1
2023.078	2294.1
2027.221	2256.1
2031.36	2214.1
2035.495	2179.1
2039.627	2165.1
2043.754	2111.1
2047.878	2121.1
2051.998	2089.1
2056.114	2078.1
2060.226	2099.1
2064.334	2107.1
2068.439	2133.1
2072.54	2176.1
2076.637	2201.1
2080.73	2250.1
2084.82	2306.1
2088.906	2337.1
2092.988	2378.1
2097.066	2374.1
2101.14	2380.1
2105.211	2324.1
2109.278	2293.1
2113.342	2250.1
2117.401	2218.1
2121.457	2236.1
2125.509	2203.1
2129.558	2197.1
2133.602	2196.1
2137.643	2213.1
2141.681	2203.1
2145.714	2183.1
2149.744	2160.1
2153.77	2174.1
2157.793	2157.1
2161.812	2139.1
2165.827	2135.1
2169.838	2116.1
2173.846	2094.1
2177.851	2066.1
2181.851	2076.1
2185.848	2045.1
2189.841	2035.1
2193.831	2035.1
2197.817	2004.1
2201.799	2008.1
2205.778	2026.1
2209.753	2036.1
2213.725	2028.1
2217.693	2035.1
2221.657	2037.1
2225.618	2052.1
2229.575	2062.1
2233.529	2053.1
2237.479	2069.1
2241.425	2114.1
2245.368	2108.1
2249.307	2132.1
2253.243	2132.1
2257.175	2154.1
2261.104	2142.1
2265.029	2114.1
2268.95	2097.1
2272.868	2101.1
2276.783	2091.1
2280.694	2116.1
2284.601	2126.1
2288.505	2100.1
2292.405	2093.1
2296.302	2046.1
2300.195	2006.1
2304.085	1967.1
2307.971	1948.1
2311.854	1902.1
2315.734	1852.1
2319.609	1835.1
2323.482	1824.1
2327.351	1819.1
2331.216	1817.1
2335.078	1807.1
2338.937	1793.1
2342.792	1787.1
2346.643	1783.1
2350.492	1765.1
2354.336	1764.1
2358.178	1766.1
2362.015	1772.1
2365.85	1783.1
2369.681	1784.1
2373.508	1768.1
2377.333	1770.1
2381.153	1771.1
2384.971	1752.1
2388.785	1748.1
2392.595	1755.1
2396.402	1755.1
2400.206	1755.1
2404.007	1761.1
2407.804	1775.1
2411.597	1759.1
2415.388	1780.1
2419.174	1778.1
2422.958	1789.1
2426.738	1793.1
2430.515	1787.1
2434.289	1807.1
2438.059	1794.1
2441.825	1804.1
2445.589	1817.1
2449.349	1786.1
2453.106	1795.1
2456.859	1788.1
2460.61	1806.1
2464.356	1806.1
2468.1	1830.1
2471.84	1792.1
2475.577	1848.1
2479.311	1818.1
2483.041	1812.1
2486.768	1806.1
2490.492	1811.1
2494.213	1824.1
2497.93	1836.1
2501.644	1820.1
2505.355	1833.1
2509.062	1827.1
2512.766	1858.1
2516.467	1895.1
2520.165	1886.1
2523.859	1938.1
2527.551	1981.1
2531.239	2050.1
2534.923	2097.1
2538.605	2193.1
2542.283	2279.1
2545.958	2344.1
2549.63	2410.1
2553.299	2460.1
2556.964	2405.1
2560.626	2370.1
2564.285	2336.1
2567.941	2296.1
2571.594	2286.1
2575.243	2265.1
2578.89	2273.1
2582.533	2252.1
2586.173	2236.1
2589.809	2252.1
2593.443	2260.1
2597.073	2282.1
2600.701	2285.1
2604.325	2276.1
2607.946	2253.1
2611.564	2263.1
2615.178	2231.1
2618.79	2238.1
2622.398	2237.1
2626.004	2236.1
2629.606	2190.1
2633.205	2220.1
2636.801	2236.1
2640.394	2255.1
2643.983	2258.1
2647.57	2290.1
2651.153	2290.1
2654.734	2353.1
2658.311	2365.1
2661.885	2406.1
2665.456	2465.1
2669.025	2500.1
2672.589	2576.1
2676.151	2664.1
2679.71	2771.1
2683.266	2894.1
2686.819	3049.1
2690.368	3238.1
2693.915	3478.1
2697.458	3760.1
2700.999	4118.1
2704.536	4543.1
2708.071	4954.1
2711.602	5349.1
2715.13	5702.1
2718.656	5877.1
2722.178	5926.1
2725.697	5925.1
2729.214	5785.1
2732.727	5602.1
2736.237	5392.1
2739.744	5283.1
2743.249	5262.1
2746.75	5326.1
2750.248	5436.1
2753.743	5516.1
2757.236	5480.1
2760.725	5356.1
2764.211	5214.1
2767.695	5087.1
2771.175	4923.1
2774.652	4850.1
2778.127	4833.1
2781.598	4851.1
2785.067	4912.1
2788.532	5033.1
2791.995	5233.1
2795.455	5493.1
2798.911	5773.1
2802.365	6089.1
2805.816	6465.1
2809.264	6923.1
2812.709	7482.1
2816.151	8075.1
2819.59	8767.1
2823.026	9614.1
2826.46	10577.1
2829.89	11650.1
2833.318	12717.1
2836.742	13750.1
2840.164	14681.1
2843.583	15378.1
2846.999	16115.1
2850.412	16984.1
2853.822	18033.1
2857.229	19485.1
2860.634	21241.1
2864.035	23407.1
2867.434	26172.1
2870.83	29576.1
2874.223	33322.1
2877.613	36718.1
2881	38859.1
2884.385	39654.1
2887.766	39272.1
2891.145	38204.1
2894.521	36799.1
2897.894	35304.1
2901.264	34101.1
2904.631	32799.1
2907.996	32040.1
2911.358	31767.1
2914.717	32435.1
2918.073	33877.1
2921.426	36433.1
2924.777	40194.1
2928.124	44478.1
2931.469	47646.1
2934.811	47844.1
2938.15	44935.1
2941.487	40392.1
2944.821	35591.1
2948.152	31248.1
2951.48	27672.1
2954.805	24764.1
2958.128	22692.1
2961.447	21454.1
2964.765	21001.1
2968.079	21077.1
2971.39	21517.1
2974.699	21785.1
2978.005	21548.1
2981.308	20574.1
2984.609	18979.1
2987.907	16849.1
2991.202	14810.1
2994.494	12991.1
2997.784	11378.1
3001.07	10059.1
3004.355	8965.1
3007.636	8098.1
3010.915	7299.1
3014.191	6640.1
3017.464	6072.1
3020.734	5540.1
3024.002	5098.1
3027.267	4694.1
3030.53	4321.1
3033.789	4008.1
3037.046	3739.1
3040.301	3508.1
3043.552	3286.1
3046.801	3095.1
3050.048	2919.1
3053.291	2780.1
3056.532	2656.1
3059.771	2518.1
3063.006	2408.1
3066.239	2327.1
3069.469	2217.1
3072.697	2110.1
3075.922	2029.1
3079.144	1938.1
3082.364	1864.1
3085.581	1780.1
3088.795	1711.1
3092.007	1655.1
3095.216	1581.1
3098.423	1541.1
3101.627	1476.1
3104.828	1426.1
3108.026	1387.1
3111.222	1361.1
3114.416	1332.1
3117.607	1303.1
3120.795	1263.1
3123.98	1265.1
3127.163	1216.1
3130.344	1221.1
3133.521	1205.1
3136.696	1200.1
3139.869	1167.1
3143.039	1169.1
3146.206	1155.1
3149.371	1150.1
3152.533	1138.1
3155.693	1109.1
3158.85	1102.1
3162.005	1083.1
3165.157	1077.1
3168.306	1073.1
3171.453	1062.1
3174.597	1055.1
3177.739	1027.1
3180.878	1037.1
3184.014	1040.1
3187.149	1047.1
3190.28	1031.1
3193.409	1035.1
3196.536	1032.1
3199.659	1031.1
3202.781	1033.1
3205.9	1030.1
3209.016	1033.1
3212.13	1027.1
3215.241	1021.1
3218.35	1008.1
3221.456	1021.1
3224.56	1017.1
3227.661	993.1
3230.76	997.1
3233.856	980.1
3236.95	980.1
3240.041	968.1
3243.13	966.1
3246.216	953.1
3249.3	948.1
3252.382	957.1
3255.46	949.1
3258.537	952.1
3261.611	960.1
3264.682	947.1
3267.751	954.1
3270.818	960.1
3273.882	939.1
3276.943	930.1
3280.002	924.1
3283.059	913.1
3286.113	911.1
3289.165	895.1
3292.214	882.1
3295.261	856.1
3298.306	851.1
3301.348	833.1
3304.387	816.1
3307.425	808.1
3310.459	800.1
3313.492	777.1
3316.521	769.1
3319.549	760.1
3322.574	744.1
3325.597	723.1
3328.617	725.1
3331.635	724.1
3334.65	743.1
3337.663	716.1
3340.674	718.1
3343.682	709.1
3346.688	689.1
3349.691	694.1
3352.692	670.1
3355.691	672.1
3358.687	661.1
3361.681	637.1
3364.673	637.1
3367.662	621.1
3370.649	597.1
3373.633	602.1
3376.615	586.1
3379.595	554.1
3382.572	542.1
3385.547	548.1
3388.52	529.1
3391.49	506.1
3394.458	492.1
3397.424	488.1
3400.387	472.1
3403.348	445.1
3406.307	443.1
3409.263	437.1
3412.217	425.1
3415.168	413.1
3418.118	410.1
3421.065	385.1
3424.009	391.1
3426.951	372.1
3429.891	356.1
3432.829	337.1
3435.764	329.1
3438.697	301.1
3441.628	297.1
3444.557	276.1
3447.483	263.1
3450.407	245.1
3453.328	232.1
3456.247	219.1
3459.164	197.1
3462.079	183.1
3464.991	163.1
3467.902	150.1
3470.809	145.1
3473.715	119.1
3476.618	115.1
3479.519	108.1
3482.418	90.1
3485.315	87.1
3488.209	67.1
3491.101	59.1
3493.99	55.1
3496.878	44.1
3499.763	33.1
3502.646	31.1
3505.527	7.1
3508.405	6.1
3511.281	-11.9
3514.155	-11.9
3517.027	-23.9
3519.897	-29.9
3522.764	-34.9
3525.629	-50.9
3528.492	-62.9
3531.352	-75.9
3534.211	-79.9
3537.067	-85.9
3539.921	-97.9
3542.773	-96.9
3545.622	-107.9
3548.469	-112.9
3551.315	-127.9
3554.157	-134.9
3556.998	-135.9
3559.837	-144.9
3562.673	-141.9
3565.507	-152.9
3568.339	-154.9
3571.169	-159.9
3573.996	-166.9
3576.822	-171.9
3579.645	-172.9
3582.466	-176.9
3585.285	-183.9
3588.101	-174.9
3590.916	-185.9
3593.728	-195.9
3596.538	-192.9
3599.346	-205.9
3602.152	-198.9
3604.956	-207.9
3607.757	-208.9
3610.556	-212.9
3613.354	-212.9
3616.149	-208.9
3618.942	-221.9
3621.732	-219.9
3624.521	-223.9
3627.307	-229.9
3630.092	-221.9
3632.874	-228.9
3635.654	-230.9
3638.432	-230.9
3641.208	-225.9
3643.982	-235.9
3646.753	-232.9
3649.523	-234.9
3652.29	-239.9
3655.055	-237.9
3657.818	-248.9
3660.579	-244.9
3663.338	-236.9
3666.095	-245.9
3668.849	-255.9
3671.602	-253.9
3674.352	-245.9
3677.101	-247.9
3679.847	-255.9
3682.591	-249.9
3685.333	-250.9
3688.073	-247.9
3690.811	-255.9
3693.547	-246.9
3696.281	-255.9
3699.013	-253.9
3701.742	-260.9
3704.47	-256.9
3707.195	-261.9
3709.919	-256.9
3712.64	-264.9
3715.359	-258.9
3718.076	-260.9
3720.792	-262.9
3723.505	-263.9
3726.216	-270.9
3728.925	-264.9
3731.632	-269.9
3734.336	-266.9
3737.039	-278.9
3739.74	-266.9
3742.439	-265.9
3745.136	-263.9
3747.83	-265.9
3750.523	-266.9
3753.213	-262.9
3755.902	-271.9
3758.589	-269.9
3761.273	-263.9
3763.956	-273.9
3766.636	-277.9
3769.315	-270.9
3771.991	-274.9
3774.665	-272.9
3777.338	-273.9
3780.008	-272.9
3782.677	-272.9
3785.343	-277.9
3788.007	-265.9
3790.67	-276.9
3793.33	-275.9
3795.989	-276.9
3798.645	-273.9
3801.299	-279.9
3803.952	-284.9
3806.602	-281.9
3809.251	-286.9
3811.897	-274.9
3814.542	-276.9
3817.184	-280.9
3819.825	-275.9
3822.463	-275.9
3825.1	-279.9
3827.735	-281.9
3830.367	-281.9
3832.998	-280.9
3835.627	-282.9
3838.253	-283.9
3840.878	-280.9
3843.501	-289.9
3846.122	-282.9
3848.741	-280.9
3851.358	-286.9
3853.973	-286.9
3856.586	-286.9
3859.197	-281.9
3861.806	-283.9
3864.414	-276.9
3867.019	-279.9
3869.622	-276.9
3872.224	-272.9
3874.823	-262.9
3877.421	-245.9
3880.016	-239.9
3882.61	-200.9
3885.202	-198.9
3887.792	-225.9
3890.38	-251.9
3892.966	-264.9
3895.55	-273.9
3898.132	-280.9
3900.713	-282.9
3903.291	-285.9
3905.868	-288.9
3908.442	-285.9
3911.015	-287.9
3913.586	-286.9
3916.155	-295.9
3918.722	-292.9
3921.287	-296.9
3923.85	-291.9
3926.411	-292.9
3928.971	-291.9
3931.528	-290.9
3934.084	-277.9
3936.638	-287.9
3939.19	-291.9
3941.74	-292.9
3944.288	-290.9
3946.834	-294.9
3949.378	-292.9
3951.921	-295.9
3954.462	-293.9
3957	-287.9
3959.537	-281.9
3962.072	-290.9
3964.606	-284.9
3967.137	-285.9
3969.667	-284.9
3972.194	-286.9
3974.72	-287.9
3977.244	-286.9
3979.766	-286.9
3982.286	-283.9
3984.805	-281.9
3987.321	-291.9
3989.836	-285.9
3992.349	-289.9
3994.86	-285.9
3997.369	-292.9
3999.877	-283.9
4002.382	-282.9
4004.886	-288.9
4007.388	-287.9
4009.888	-282.9
4012.386	-285.9
4014.883	-288.9
4017.377	-285.9
4019.87	-282.9
4022.361	-285.9
4024.85	-290.9
4027.338	-291.9
4029.823	-281.9
4032.307	-289.9
4034.789	-289.9
4037.269	-293.9
4039.747	-289.9
4042.224	-282.9
4044.699	-285.9
4047.172	-293.9
4049.643	-287.9
4052.112	-288.9
4054.58	-282.9
4057.046	-291.9
4059.51	-288.9
4061.972	-292.9
4064.432	-289.9
4066.891	-285.9
4069.348	-289.9
4071.803	-288.9
4074.256	-286.9
4076.708	-283.9
4079.158	-286.9
4081.606	-285.9
4084.052	-283.9
4086.497	-283.9
4088.939	-279.9
4091.38	-276.9
4093.819	-277.9
4096.257	-309.9
4098.693	-310.9
4101.127	-311.9
4103.559	-313.9
4105.989	-141.9
4108.418	-133.9
4110.845	-132.9
4113.27	-125.9
4115.694	-106.9
4118.115	-87.9
4120.535	-281.9
4122.954	-284.9
4125.37	-274.9
4127.785	-278.9
4130.198	-285.9
4132.609	-282.9
4135.019	-313.9
4137.427	-312.9
4139.833	-308.9
4142.237	-310.9
