Data from 2018-2-7_conc=5_RamanShift_21.txt Node
Date: Tue Feb 13 14:11:43 IST 2018
User: aro
Spectrometer: QEPB0276
Trigger mode: 0
Integration Time (sec): 3.000000E1
Scans to average: 1
Electric dark correction enabled: true
Nonlinearity correction enabled: false
Boxcar width: 0
XAxis mode: Raman Shifts
Number of Pixels in Spectrum: 1044
>>>>>Begin Spectral Data<<<<<
160.701	-161.1
166.742	28.9
172.777	588.9
178.805	2254.9
184.826	6191.9
190.841	12742.9
196.849	20248.9
202.85	25375.9
208.845	26956.9
214.833	26683.9
220.815	26214.9
226.789	25955.9
232.758	25947.9
238.719	25673.9
244.674	25241.9
250.623	24892.9
256.565	24362.9
262.5	23843.9
268.429	23321.9
274.351	23015.9
280.267	22745.9
286.176	22476.9
292.079	22227.9
297.975	22076.9
303.865	21755.9
309.748	21650.9
315.625	21480.9
321.495	21445.9
327.359	21370.9
333.217	21303.9
339.068	21330.9
344.912	21246.9
350.751	21266.9
356.583	21191.9
362.408	21233.9
368.227	21191.9
374.04	21165.9
379.847	21242.9
385.647	21336.9
391.44	21425.9
397.228	21456.9
403.009	21619.9
408.784	21604.9
414.553	21753.9
420.315	21726.9
426.071	21746.9
431.821	21680.9
437.565	21693.9
443.302	21700.9
449.033	21654.9
454.758	21603.9
460.477	21543.9
466.189	21518.9
471.896	21456.9
477.596	21352.9
483.29	21433.9
488.978	21310.9
494.66	21242.9
500.335	21133.9
506.005	20906.9
511.668	20647.9
517.325	20364.9
522.977	20179.9
528.622	20107.9
534.261	19958.9
539.894	19857.9
545.521	19824.9
551.141	19691.9
556.756	19685.9
562.365	19589.9
567.968	19482.9
573.565	19386.9
579.155	19366.9
584.74	19310.9
590.319	19182.9
595.892	19120.9
601.459	19067.9
607.02	18967.9
612.575	18881.9
618.124	18769.9
623.667	18676.9
629.204	18571.9
634.735	18471.9
640.261	18442.9
645.781	18317.9
651.294	18336.9
656.802	18290.9
662.304	18275.9
667.8	18176.9
673.29	18209.9
678.775	18150.9
684.254	18060.9
689.726	18027.9
695.193	17952.9
700.655	17896.9
706.11	17795.9
711.56	17715.9
717.004	17584.9
722.442	17564.9
727.874	17466.9
733.301	17477.9
738.722	17357.9
744.137	17301.9
749.547	17364.9
754.951	17329.9
760.349	17308.9
765.741	17323.9
771.128	17312.9
776.509	17371.9
781.885	17358.9
787.254	17294.9
792.618	17217.9
797.977	17122.9
803.33	17063.9
808.677	16892.9
814.019	16833.9
819.355	16725.9
824.686	16650.9
830.011	16643.9
835.33	16665.9
840.644	16625.9
845.952	16681.9
851.255	16742.9
856.552	16730.9
861.844	16673.9
867.13	16637.9
872.41	16628.9
877.686	16535.9
882.955	16377.9
888.219	16267.9
893.478	16000.9
898.731	15824.9
903.979	15642.9
909.221	15551.9
914.458	15506.9
919.69	15538.9
924.916	15574.9
930.136	15587.9
935.351	15662.9
940.561	15629.9
945.766	15610.9
950.965	15554.9
956.158	15409.9
961.347	15316.9
966.529	15036.9
971.707	14884.9
976.879	14692.9
982.046	14563.9
987.208	14547.9
992.364	14543.9
997.515	14654.9
1002.66	14769.9
1007.801	14952.9
1012.936	15048.9
1018.066	15094.9
1023.19	15069.9
1028.309	15057.9
1033.423	14980.9
1038.532	14942.9
1043.636	14754.9
1048.734	14577.9
1053.827	14416.9
1058.915	14271.9
1063.998	14189.9
1069.075	14124.9
1074.147	14176.9
1079.214	14226.9
1084.276	14291.9
1089.333	14396.9
1094.385	14460.9
1099.431	14535.9
1104.472	14479.9
1109.509	14376.9
1114.54	14246.9
1119.565	14054.9
1124.586	13891.9
1129.602	13727.9
1134.613	13634.9
1139.618	13563.9
1144.619	13514.9
1149.614	13548.9
1154.604	13591.9
1159.589	13577.9
1164.57	13652.9
1169.545	13673.9
1174.515	13682.9
1179.48	13583.9
1184.44	13455.9
1189.395	13346.9
1194.345	13264.9
1199.29	13199.9
1204.23	13223.9
1209.165	13252.9
1214.095	13337.9
1219.021	13394.9
1223.941	13456.9
1228.856	13562.9
1233.766	13565.9
1238.672	13630.9
1243.572	13596.9
1248.467	13488.9
1253.358	13328.9
1258.244	13174.9
1263.124	12993.9
1268	12796.9
1272.871	12659.9
1277.737	12529.9
1282.599	12462.9
1287.455	12482.9
1292.306	12449.9
1297.153	12545.9
1301.995	12624.9
1306.832	12648.9
1311.664	12614.9
1316.491	12587.9
1321.314	12473.9
1326.132	12242.9
1330.945	11976.9
1335.753	11691.9
1340.556	11431.9
1345.354	11169.9
1350.148	11002.9
1354.937	10899.9
1359.722	10933.9
1364.501	10888.9
1369.276	11028.9
1374.046	11187.9
1378.811	11335.9
1383.572	11486.9
1388.327	11496.9
1393.079	11515.9
1397.825	11387.9
1402.567	11141.9
1407.304	11055.9
1412.036	10920.9
1416.764	10860.9
1421.487	10800.9
1426.205	10709.9
1430.919	10685.9
1435.628	10710.9
1440.333	10724.9
1445.032	10802.9
1449.727	10819.9
1454.418	10730.9
1459.104	10700.9
1463.785	10431.9
1468.462	10213.9
1473.134	9916.9
1477.802	9743.9
1482.465	9571.9
1487.123	9493.9
1491.777	9466.9
1496.426	9459.9
1501.071	9573.9
1505.711	9717.9
1510.347	9854.9
1514.978	10052.9
1519.604	10179.9
1524.226	10296.9
1528.844	10303.9
1533.457	10294.9
1538.065	10243.9
1542.669	10220.9
1547.269	10121.9
1551.864	10068.9
1556.454	10042.9
1561.041	10001.9
1565.622	10050.9
1570.199	10055.9
1574.772	10089.9
1579.34	10226.9
1583.904	10256.9
1588.464	10252.9
1593.019	10279.9
1597.569	10247.9
1602.115	10161.9
1606.657	10084.9
1611.195	10097.9
1615.728	10010.9
1620.256	9945.9
1624.78	9978.9
1629.3	9972.9
1633.816	9960.9
1638.327	10027.9
1642.834	10087.9
1647.336	10104.9
1651.834	10161.9
1656.328	10122.9
1660.817	10059.9
1665.302	9942.9
1669.783	9754.9
1674.259	9557.9
1678.732	9248.9
1683.199	8928.9
1687.663	8597.9
1692.122	8348.9
1696.577	8206.9
1701.028	8192.9
1705.474	8218.9
1709.917	8302.9
1714.355	8351.9
1718.788	8279.9
1723.218	8169.9
1727.643	8012.9
1732.064	7925.9
1736.481	7699.9
1740.893	7532.9
1745.301	7354.9
1749.705	7118.9
1754.105	6941.9
1758.501	6742.9
1762.893	6552.9
1767.28	6411.9
1771.663	6245.9
1776.042	6123.9
1780.417	6051.9
1784.787	6040.9
1789.154	6098.9
1793.516	6153.9
1797.874	6304.9
1802.228	6390.9
1806.578	6502.9
1810.924	6571.9
1815.266	6465.9
1819.603	6353.9
1823.937	6290.9
1828.266	6149.9
1832.591	6094.9
1836.913	6020.9
1841.23	5953.9
1845.543	5886.9
1849.852	5862.9
1854.156	5841.9
1858.457	5847.9
1862.754	5854.9
1867.047	5833.9
1871.335	5797.9
1875.62	5785.9
1879.9	5814.9
1884.177	5716.9
1888.449	5663.9
1892.718	5646.9
1896.982	5557.9
1901.243	5480.9
1905.499	5446.9
1909.752	5488.9
1914	5441.9
1918.245	5437.9
1922.485	5459.9
1926.722	5485.9
1930.954	5611.9
1935.183	5643.9
1939.408	5699.9
1943.628	5715.9
1947.845	5747.9
1952.058	5732.9
1956.267	5722.9
1960.472	5668.9
1964.673	5573.9
1968.87	5450.9
1973.063	5428.9
1977.252	5338.9
1981.438	5306.9
1985.619	5229.9
1989.797	5179.9
1993.971	5164.9
1998.14	5122.9
2002.306	5122.9
2006.469	5094.9
2010.627	5076.9
2014.781	5045.9
2018.932	5001.9
2023.078	4956.9
2027.221	4898.9
2031.36	4808.9
2035.495	4740.9
2039.627	4654.9
2043.754	4626.9
2047.878	4539.9
2051.998	4517.9
2056.114	4498.9
2060.226	4497.9
2064.334	4518.9
2068.439	4508.9
2072.54	4534.9
2076.637	4579.9
2080.73	4580.9
2084.82	4610.9
2088.906	4624.9
2092.988	4648.9
2097.066	4623.9
2101.14	4620.9
2105.211	4547.9
2109.278	4510.9
2113.342	4495.9
2117.401	4492.9
2121.457	4467.9
2125.509	4457.9
2129.558	4451.9
2133.602	4401.9
2137.643	4373.9
2141.681	4371.9
2145.714	4344.9
2149.744	4305.9
2153.77	4286.9
2157.793	4243.9
2161.812	4190.9
2165.827	4131.9
2169.838	4068.9
2173.846	4006.9
2177.851	3943.9
2181.851	3899.9
2185.848	3849.9
2189.841	3800.9
2193.831	3742.9
2197.817	3727.9
2201.799	3716.9
2205.778	3690.9
2209.753	3696.9
2213.725	3664.9
2217.693	3658.9
2221.657	3652.9
2225.618	3636.9
2229.575	3617.9
2233.529	3597.9
2237.479	3564.9
2241.425	3527.9
2245.368	3479.9
2249.307	3420.9
2253.243	3370.9
2257.175	3354.9
2261.104	3269.9
2265.029	3238.9
2268.95	3226.9
2272.868	3199.9
2276.783	3138.9
2280.694	3109.9
2284.601	3100.9
2288.505	3078.9
2292.405	3055.9
2296.302	2998.9
2300.195	2987.9
2304.085	2930.9
2307.971	2912.9
2311.854	2884.9
2315.734	2803.9
2319.609	2786.9
2323.482	2726.9
2327.351	2695.9
2331.216	2698.9
2335.078	2673.9
2338.937	2683.9
2342.792	2662.9
2346.643	2654.9
2350.492	2644.9
2354.336	2674.9
2358.178	2648.9
2362.015	2701.9
2365.85	2671.9
2369.681	2694.9
2373.508	2678.9
2377.333	2692.9
2381.153	2689.9
2384.971	2644.9
2388.785	2626.9
2392.595	2597.9
2396.402	2573.9
2400.206	2583.9
2404.007	2555.9
2407.804	2526.9
2411.597	2511.9
2415.388	2528.9
2419.174	2494.9
2422.958	2472.9
2426.738	2443.9
2430.515	2441.9
2434.289	2428.9
2438.059	2392.9
2441.825	2394.9
2445.589	2375.9
2449.349	2322.9
2453.106	2302.9
2456.859	2259.9
2460.61	2245.9
2464.356	2215.9
2468.1	2194.9
2471.84	2158.9
2475.577	2146.9
2479.311	2144.9
2483.041	2133.9
2486.768	2128.9
2490.492	2103.9
2494.213	2110.9
2497.93	2088.9
2501.644	2070.9
2505.355	2059.9
2509.062	2057.9
2512.766	2058.9
2516.467	2044.9
2520.165	2040.9
2523.859	2009.9
2527.551	1976.9
2531.239	1982.9
2534.923	1937.9
2538.605	1935.9
2542.283	1934.9
2545.958	1931.9
2549.63	1908.9
2553.299	1923.9
2556.964	1932.9
2560.626	1897.9
2564.285	1904.9
2567.941	1926.9
2571.594	1877.9
2575.243	1878.9
2578.89	1854.9
2582.533	1845.9
2586.173	1862.9
2589.809	1808.9
2593.443	1804.9
2597.073	1804.9
2600.701	1776.9
2604.325	1764.9
2607.946	1742.9
2611.564	1750.9
2615.178	1732.9
2618.79	1716.9
2622.398	1716.9
2626.004	1708.9
2629.606	1661.9
2633.205	1637.9
2636.801	1626.9
2640.394	1616.9
2643.983	1585.9
2647.57	1560.9
2651.153	1520.9
2654.734	1519.9
2658.311	1490.9
2661.885	1483.9
2665.456	1457.9
2669.025	1436.9
2672.589	1425.9
2676.151	1425.9
2679.71	1398.9
2683.266	1358.9
2686.819	1336.9
2690.368	1295.9
2693.915	1277.9
2697.458	1273.9
2700.999	1231.9
2704.536	1202.9
2708.071	1185.9
2711.602	1149.9
2715.13	1120.9
2718.656	1104.9
2722.178	1077.9
2725.697	1056.9
2729.214	1049.9
2732.727	1029.9
2736.237	1019.9
2739.744	1025.9
2743.249	1037.9
2746.75	1041.9
2750.248	1047.9
2753.743	1053.9
2757.236	1058.9
2760.725	1056.9
2764.211	1070.9
2767.695	1084.9
2771.175	1073.9
2774.652	1074.9
2778.127	1073.9
2781.598	1060.9
2785.067	1057.9
2788.532	1074.9
2791.995	1061.9
2795.455	1046.9
2798.911	1058.9
2802.365	1063.9
2805.816	1053.9
2809.264	1043.9
2812.709	1042.9
2816.151	1041.9
2819.59	1050.9
2823.026	1055.9
2826.46	1047.9
2829.89	1060.9
2833.318	1057.9
2836.742	1078.9
2840.164	1057.9
2843.583	1068.9
2846.999	1088.9
2850.412	1089.9
2853.822	1116.9
2857.229	1112.9
2860.634	1137.9
2864.035	1164.9
2867.434	1174.9
2870.83	1213.9
2874.223	1228.9
2877.613	1246.9
2881	1283.9
2884.385	1255.9
2887.766	1258.9
2891.145	1278.9
2894.521	1250.9
2897.894	1247.9
2901.264	1249.9
2904.631	1257.9
2907.996	1274.9
2911.358	1284.9
2914.717	1262.9
2918.073	1282.9
2921.426	1303.9
2924.777	1290.9
2928.124	1342.9
2931.469	1354.9
2934.811	1394.9
2938.15	1386.9
2941.487	1392.9
2944.821	1415.9
2948.152	1411.9
2951.48	1396.9
2954.805	1392.9
2958.128	1341.9
2961.447	1363.9
2964.765	1356.9
2968.079	1339.9
2971.39	1366.9
2974.699	1385.9
2978.005	1399.9
2981.308	1442.9
2984.609	1439.9
2987.907	1469.9
2991.202	1498.9
2994.494	1541.9
2997.784	1555.9
3001.07	1588.9
3004.355	1616.9
3007.636	1647.9
3010.915	1664.9
3014.191	1669.9
3017.464	1691.9
3020.734	1702.9
3024.002	1702.9
3027.267	1707.9
3030.53	1729.9
3033.789	1737.9
3037.046	1772.9
3040.301	1794.9
3043.552	1797.9
3046.801	1891.9
3050.048	1924.9
3053.291	1967.9
3056.532	2010.9
3059.771	2077.9
3063.006	2128.9
3066.239	2163.9
3069.469	2245.9
3072.697	2335.9
3075.922	2347.9
3079.144	2423.9
3082.364	2475.9
3085.581	2489.9
3088.795	2584.9
3092.007	2638.9
3095.216	2700.9
3098.423	2735.9
3101.627	2815.9
3104.828	2876.9
3108.026	2935.9
3111.222	2995.9
3114.416	3071.9
3117.607	3135.9
3120.795	3231.9
3123.98	3289.9
3127.163	3353.9
3130.344	3439.9
3133.521	3540.9
3136.696	3590.9
3139.869	3647.9
3143.039	3746.9
3146.206	3776.9
3149.371	3805.9
3152.533	3876.9
3155.693	3890.9
3158.85	3919.9
3162.005	3936.9
3165.157	3957.9
3168.306	3952.9
3171.453	3977.9
3174.597	3991.9
3177.739	3982.9
3180.878	3963.9
3184.014	3982.9
3187.149	4006.9
3190.28	4006.9
3193.409	4013.9
3196.536	4005.9
3199.659	4027.9
3202.781	4004.9
3205.9	4045.9
3209.016	4004.9
3212.13	3974.9
3215.241	3923.9
3218.35	3964.9
3221.456	3883.9
3224.56	3852.9
3227.661	3834.9
3230.76	3736.9
3233.856	3731.9
3236.95	3698.9
3240.041	3653.9
3243.13	3628.9
3246.216	3635.9
3249.3	3581.9
3252.382	3567.9
3255.46	3560.9
3258.537	3565.9
3261.611	3564.9
3264.682	3543.9
3267.751	3558.9
3270.818	3533.9
3273.882	3534.9
3276.943	3515.9
3280.002	3469.9
3283.059	3450.9
3286.113	3408.9
3289.165	3356.9
3292.214	3303.9
3295.261	3241.9
3298.306	3198.9
3301.348	3152.9
3304.387	3104.9
3307.425	3051.9
3310.459	2998.9
3313.492	2986.9
3316.521	2927.9
3319.549	2872.9
3322.574	2859.9
3325.597	2863.9
3328.617	2810.9
3331.635	2785.9
3334.65	2779.9
3337.663	2766.9
3340.674	2764.9
3343.682	2748.9
3346.688	2766.9
3349.691	2735.9
3352.692	2693.9
3355.691	2687.9
3358.687	2661.9
3361.681	2647.9
3364.673	2607.9
3367.662	2572.9
3370.649	2540.9
3373.633	2493.9
3376.615	2457.9
3379.595	2408.9
3382.572	2417.9
3385.547	2341.9
3388.52	2300.9
3391.49	2266.9
3394.458	2231.9
3397.424	2209.9
3400.387	2191.9
3403.348	2150.9
3406.307	2136.9
3409.263	2119.9
3412.217	2086.9
3415.168	2069.9
3418.118	2042.9
3421.065	2004.9
3424.009	1983.9
3426.951	1944.9
3429.891	1905.9
3432.829	1851.9
3435.764	1844.9
3438.697	1771.9
3441.628	1728.9
3444.557	1678.9
3447.483	1616.9
3450.407	1579.9
3453.328	1522.9
3456.247	1463.9
3459.164	1413.9
3462.079	1363.9
3464.991	1340.9
3467.902	1243.9
3470.809	1223.9
3473.715	1161.9
3476.618	1120.9
3479.519	1104.9
3482.418	1042.9
3485.315	1007.9
3488.209	990.9
3491.101	943.9
3493.99	902.9
3496.878	870.9
3499.763	818.9
3502.646	813.9
3505.527	762.9
3508.405	732.9
3511.281	681.9
3514.155	650.9
3517.027	612.9
3519.897	565.9
3522.764	525.9
3525.629	477.9
3528.492	452.9
3531.352	406.9
3534.211	359.9
3537.067	323.9
3539.921	286.9
3542.773	242.9
3545.622	225.9
3548.469	192.9
3551.315	163.9
3554.157	142.9
3556.998	110.9
3559.837	86.9
3562.673	63.9
3565.507	45.9
3568.339	24.9
3571.169	-2.1
3573.996	-26.1
3576.822	-46.1
3579.645	-61.1
3582.466	-79.1
3585.285	-96.1
3588.101	-127.1
3590.916	-135.1
3593.728	-163.1
3596.538	-174.1
3599.346	-193.1
3602.152	-205.1
3604.956	-218.1
3607.757	-239.1
3610.556	-252.1
3613.354	-265.1
3616.149	-276.1
3618.942	-288.1
3621.732	-302.1
3624.521	-305.1
3627.307	-321.1
3630.092	-336.1
3632.874	-346.1
3635.654	-350.1
3638.432	-355.1
3641.208	-371.1
3643.982	-375.1
3646.753	-379.1
3649.523	-395.1
3652.29	-404.1
3655.055	-403.1
3657.818	-426.1
3660.579	-434.1
3663.338	-441.1
3666.095	-454.1
3668.849	-475.1
3671.602	-477.1
3674.352	-468.1
3677.101	-481.1
3679.847	-497.1
3682.591	-490.1
3685.333	-502.1
3688.073	-507.1
3690.811	-510.1
3693.547	-509.1
3696.281	-525.1
3699.013	-522.1
3701.742	-530.1
3704.47	-534.1
3707.195	-544.1
3709.919	-545.1
3712.64	-552.1
3715.359	-549.1
3718.076	-556.1
3720.792	-566.1
3723.505	-568.1
3726.216	-564.1
3728.925	-573.1
3731.632	-582.1
3734.336	-582.1
3737.039	-587.1
3739.74	-583.1
3742.439	-582.1
3745.136	-590.1
3747.83	-589.1
3750.523	-585.1
3753.213	-601.1
3755.902	-599.1
3758.589	-590.1
3761.273	-596.1
3763.956	-601.1
3766.636	-596.1
3769.315	-604.1
3771.991	-610.1
3774.665	-604.1
3777.338	-608.1
3780.008	-602.1
3782.677	-611.1
3785.343	-607.1
3788.007	-607.1
3790.67	-613.1
3793.33	-615.1
3795.989	-616.1
3798.645	-621.1
3801.299	-620.1
3803.952	-625.1
3806.602	-625.1
3809.251	-630.1
3811.897	-624.1
3814.542	-616.1
3817.184	-625.1
3819.825	-622.1
3822.463	-620.1
3825.1	-632.1
3827.735	-640.1
3830.367	-630.1
3832.998	-633.1
3835.627	-635.1
3838.253	-638.1
3840.878	-635.1
3843.501	-637.1
3846.122	-636.1
3848.741	-631.1
3851.358	-635.1
3853.973	-633.1
3856.586	-633.1
3859.197	-637.1
3861.806	-635.1
3864.414	-633.1
3867.019	-633.1
3869.622	-637.1
3872.224	-626.1
3874.823	-620.1
3877.421	-601.1
3880.016	-585.1
3882.61	-550.1
3885.202	-555.1
3887.792	-576.1
3890.38	-598.1
3892.966	-624.1
3895.55	-635.1
3898.132	-636.1
3900.713	-646.1
3903.291	-654.1
3905.868	-649.1
3908.442	-644.1
3911.015	-643.1
3913.586	-648.1
3916.155	-649.1
3918.722	-652.1
3921.287	-647.1
3923.85	-647.1
3926.411	-647.1
3928.971	-654.1
3931.528	-642.1
3934.084	-644.1
3936.638	-649.1
3939.19	-650.1
3941.74	-655.1
3944.288	-659.1
3946.834	-653.1
3949.378	-653.1
3951.921	-654.1
3954.462	-654.1
3957	-652.1
3959.537	-649.1
3962.072	-650.1
3964.606	-652.1
3967.137	-654.1
3969.667	-649.1
3972.194	-645.1
3974.72	-650.1
3977.244	-649.1
3979.766	-639.1
3982.286	-642.1
3984.805	-638.1
3987.321	-637.1
3989.836	-641.1
3992.349	-642.1
3994.86	-637.1
3997.369	-648.1
3999.877	-632.1
4002.382	-629.1
4004.886	-640.1
4007.388	-644.1
4009.888	-635.1
4012.386	-637.1
4014.883	-635.1
4017.377	-636.1
4019.87	-630.1
4022.361	-635.1
4024.85	-639.1
4027.338	-641.1
4029.823	-634.1
4032.307	-642.1
4034.789	-642.1
4037.269	-645.1
4039.747	-644.1
4042.224	-640.1
4044.699	-647.1
4047.172	-649.1
4049.643	-644.1
4052.112	-644.1
4054.58	-640.1
4057.046	-642.1
4059.51	-644.1
4061.972	-647.1
4064.432	-635.1
4066.891	-639.1
4069.348	-643.1
4071.803	-646.1
4074.256	-639.1
4076.708	-638.1
4079.158	-637.1
4081.606	-632.1
4084.052	-635.1
4086.497	-647.1
4088.939	-637.1
4091.38	-635.1
4093.819	-638.1
4096.257	-673.1
4098.693	-679.1
4101.127	-676.1
4103.559	-676.1
4105.989	-404.1
4108.418	-386.1
4110.845	-360.1
4113.27	-329.1
4115.694	-288.1
4118.115	-248.1
4120.535	-638.1
4122.954	-646.1
4125.37	-646.1
4127.785	-638.1
4130.198	-642.1
4132.609	-638.1
4135.019	-681.1
4137.427	-677.1
4139.833	-678.1
4142.237	-675.1
