Data from 2018-2-7_conc=0_RamanShift_03.txt Node
Date: Tue Feb 13 11:12:14 IST 2018
User: aro
Spectrometer: QEPB0276
Trigger mode: 0
Integration Time (sec): 3.000000E1
Scans to average: 1
Electric dark correction enabled: true
Nonlinearity correction enabled: false
Boxcar width: 0
XAxis mode: Raman Shifts
Number of Pixels in Spectrum: 1044
>>>>>Begin Spectral Data<<<<<
160.701	-164.4
166.742	18.6
172.777	582.6
178.805	2231.6
184.826	6047.6
190.841	12445.6
196.849	19531.6
202.85	24335.6
208.845	25842.6
214.833	25439.6
220.815	24983.6
226.789	24790.6
232.758	24695.6
238.719	24452.6
244.674	24114.6
250.623	23625.6
256.565	23022.6
262.5	22513.6
268.429	22140.6
274.351	21778.6
280.267	21448.6
286.176	21283.6
292.079	20945.6
297.975	20781.6
303.865	20596.6
309.748	20414.6
315.625	20198.6
321.495	20083.6
327.359	20036.6
333.217	19935.6
339.068	19934.6
344.912	19914.6
350.751	19913.6
356.583	19861.6
362.408	19849.6
368.227	19856.6
374.04	19936.6
379.847	19936.6
385.647	20080.6
391.44	20155.6
397.228	20165.6
403.009	20251.6
408.784	20293.6
414.553	20380.6
420.315	20439.6
426.071	20499.6
431.821	20394.6
437.565	20457.6
443.302	20429.6
449.033	20357.6
454.758	20311.6
460.477	20304.6
466.189	20238.6
471.896	20189.6
477.596	20129.6
483.29	20181.6
488.978	20046.6
494.66	19982.6
500.335	19816.6
506.005	19681.6
511.668	19452.6
517.325	19235.6
522.977	19043.6
528.622	18905.6
534.261	18771.6
539.894	18653.6
545.521	18620.6
551.141	18547.6
556.756	18459.6
562.365	18467.6
567.968	18361.6
573.565	18383.6
579.155	18202.6
584.74	18137.6
590.319	18028.6
595.892	18003.6
601.459	17909.6
607.02	17854.6
612.575	17729.6
618.124	17660.6
623.667	17561.6
629.204	17422.6
634.735	17361.6
640.261	17350.6
645.781	17253.6
651.294	17219.6
656.802	17224.6
662.304	17178.6
667.8	17194.6
673.29	17154.6
678.775	17094.6
684.254	17015.6
689.726	16983.6
695.193	16947.6
700.655	16880.6
706.11	16800.6
711.56	16689.6
717.004	16611.6
722.442	16568.6
727.874	16470.6
733.301	16418.6
738.722	16387.6
744.137	16322.6
749.547	16388.6
754.951	16365.6
760.349	16336.6
765.741	16329.6
771.128	16336.6
776.509	16376.6
781.885	16394.6
787.254	16354.6
792.618	16251.6
797.977	16140.6
803.33	16064.6
808.677	15981.6
814.019	15915.6
819.355	15861.6
824.686	15755.6
830.011	15691.6
835.33	15723.6
840.644	15735.6
845.952	15745.6
851.255	15822.6
856.552	15843.6
861.844	15817.6
867.13	15787.6
872.41	15751.6
877.686	15693.6
882.955	15528.6
888.219	15440.6
893.478	15236.6
898.731	14980.6
903.979	14849.6
909.221	14770.6
914.458	14685.6
919.69	14691.6
924.916	14710.6
930.136	14749.6
935.351	14844.6
940.561	14805.6
945.766	14778.6
950.965	14710.6
956.158	14603.6
961.347	14442.6
966.529	14235.6
971.707	14076.6
976.879	13877.6
982.046	13788.6
987.208	13828.6
992.364	13802.6
997.515	13845.6
1002.66	14030.6
1007.801	14164.6
1012.936	14262.6
1018.066	14275.6
1023.19	14232.6
1028.309	14233.6
1033.423	14285.6
1038.532	14144.6
1043.636	14039.6
1048.734	13855.6
1053.827	13691.6
1058.915	13578.6
1063.998	13500.6
1069.075	13398.6
1074.147	13416.6
1079.214	13516.6
1084.276	13569.6
1089.333	13705.6
1094.385	13754.6
1099.431	13761.6
1104.472	13752.6
1109.509	13628.6
1114.54	13528.6
1119.565	13338.6
1124.586	13191.6
1129.602	13057.6
1134.613	12974.6
1139.618	12855.6
1144.619	12859.6
1149.614	12911.6
1154.604	12922.6
1159.589	12943.6
1164.57	12973.6
1169.545	12938.6
1174.515	13033.6
1179.48	12915.6
1184.44	12802.6
1189.395	12730.6
1194.345	12646.6
1199.29	12564.6
1204.23	12573.6
1209.165	12622.6
1214.095	12733.6
1219.021	12778.6
1223.941	12844.6
1228.856	12967.6
1233.766	12981.6
1238.672	13023.6
1243.572	13008.6
1248.467	12864.6
1253.358	12693.6
1258.244	12582.6
1263.124	12388.6
1268	12198.6
1272.871	12073.6
1277.737	11978.6
1282.599	11929.6
1287.455	11848.6
1292.306	11938.6
1297.153	11989.6
1301.995	11991.6
1306.832	12066.6
1311.664	12034.6
1316.491	12030.6
1321.314	11935.6
1326.132	11743.6
1330.945	11481.6
1335.753	11157.6
1340.556	10920.6
1345.354	10653.6
1350.148	10546.6
1354.937	10440.6
1359.722	10351.6
1364.501	10431.6
1369.276	10564.6
1374.046	10714.6
1378.811	10819.6
1383.572	11044.6
1388.327	11069.6
1393.079	11015.6
1397.825	10877.6
1402.567	10775.6
1407.304	10594.6
1412.036	10546.6
1416.764	10441.6
1421.487	10379.6
1426.205	10273.6
1430.919	10279.6
1435.628	10285.6
1440.333	10327.6
1445.032	10315.6
1449.727	10376.6
1454.418	10310.6
1459.104	10218.6
1463.785	9967.6
1468.462	9800.6
1473.134	9552.6
1477.802	9378.6
1482.465	9191.6
1487.123	9104.6
1491.777	9092.6
1496.426	9092.6
1501.071	9193.6
1505.711	9371.6
1510.347	9495.6
1514.978	9696.6
1519.604	9860.6
1524.226	9929.6
1528.844	9961.6
1533.457	9925.6
1538.065	9893.6
1542.669	9835.6
1547.269	9790.6
1551.864	9716.6
1556.454	9680.6
1561.041	9710.6
1565.622	9732.6
1570.199	9725.6
1574.772	9756.6
1579.34	9836.6
1583.904	9834.6
1588.464	9889.6
1593.019	9929.6
1597.569	9873.6
1602.115	9781.6
1606.657	9733.6
1611.195	9713.6
1615.728	9621.6
1620.256	9609.6
1624.78	9641.6
1629.3	9575.6
1633.816	9655.6
1638.327	9697.6
1642.834	9722.6
1647.336	9779.6
1651.834	9757.6
1656.328	9744.6
1660.817	9733.6
1665.302	9616.6
1669.783	9404.6
1674.259	9201.6
1678.732	8929.6
1683.199	8619.6
1687.663	8299.6
1692.122	8020.6
1696.577	7888.6
1701.028	7885.6
1705.474	7975.6
1709.917	8093.6
1714.355	8063.6
1718.788	8044.6
1723.218	7891.6
1727.643	7768.6
1732.064	7671.6
1736.481	7431.6
1740.893	7281.6
1745.301	7055.6
1749.705	6925.6
1754.105	6700.6
1758.501	6530.6
1762.893	6373.6
1767.28	6178.6
1771.663	6060.6
1776.042	5935.6
1780.417	5832.6
1784.787	5875.6
1789.154	5921.6
1793.516	5993.6
1797.874	6141.6
1802.228	6270.6
1806.578	6333.6
1810.924	6333.6
1815.266	6284.6
1819.603	6190.6
1823.937	6137.6
1828.266	5977.6
1832.591	5890.6
1836.913	5848.6
1841.23	5775.6
1845.543	5747.6
1849.852	5694.6
1854.156	5723.6
1858.457	5655.6
1862.754	5675.6
1867.047	5673.6
1871.335	5626.6
1875.62	5665.6
1879.9	5588.6
1884.177	5607.6
1888.449	5513.6
1892.718	5458.6
1896.982	5397.6
1901.243	5348.6
1905.499	5309.6
1909.752	5278.6
1914	5308.6
1918.245	5304.6
1922.485	5329.6
1926.722	5398.6
1930.954	5486.6
1935.183	5492.6
1939.408	5591.6
1943.628	5590.6
1947.845	5638.6
1952.058	5595.6
1956.267	5591.6
1960.472	5501.6
1964.673	5451.6
1968.87	5379.6
1973.063	5297.6
1977.252	5220.6
1981.438	5173.6
1985.619	5091.6
1989.797	5061.6
1993.971	5030.6
1998.14	5035.6
2002.306	5026.6
2006.469	4990.6
2010.627	4947.6
2014.781	4921.6
2018.932	4889.6
2023.078	4853.6
2027.221	4786.6
2031.36	4693.6
2035.495	4618.6
2039.627	4563.6
2043.754	4494.6
2047.878	4455.6
2051.998	4417.6
2056.114	4420.6
2060.226	4393.6
2064.334	4451.6
2068.439	4440.6
2072.54	4435.6
2076.637	4472.6
2080.73	4512.6
2084.82	4542.6
2088.906	4539.6
2092.988	4574.6
2097.066	4533.6
2101.14	4512.6
2105.211	4504.6
2109.278	4495.6
2113.342	4447.6
2117.401	4422.6
2121.457	4393.6
2125.509	4387.6
2129.558	4336.6
2133.602	4298.6
2137.643	4322.6
2141.681	4277.6
2145.714	4277.6
2149.744	4243.6
2153.77	4229.6
2157.793	4173.6
2161.812	4137.6
2165.827	4054.6
2169.838	4011.6
2173.846	3941.6
2177.851	3877.6
2181.851	3819.6
2185.848	3748.6
2189.841	3733.6
2193.831	3683.6
2197.817	3698.6
2201.799	3642.6
2205.778	3625.6
2209.753	3623.6
2213.725	3624.6
2217.693	3612.6
2221.657	3610.6
2225.618	3568.6
2229.575	3573.6
2233.529	3550.6
2237.479	3528.6
2241.425	3475.6
2245.368	3435.6
2249.307	3386.6
2253.243	3342.6
2257.175	3304.6
2261.104	3264.6
2265.029	3236.6
2268.95	3164.6
2272.868	3126.6
2276.783	3100.6
2280.694	3085.6
2284.601	3052.6
2288.505	3021.6
2292.405	2978.6
2296.302	2985.6
2300.195	2950.6
2304.085	2878.6
2307.971	2855.6
2311.854	2825.6
2315.734	2787.6
2319.609	2763.6
2323.482	2706.6
2327.351	2691.6
2331.216	2699.6
2335.078	2673.6
2338.937	2669.6
2342.792	2645.6
2346.643	2614.6
2350.492	2616.6
2354.336	2636.6
2358.178	2603.6
2362.015	2654.6
2365.85	2646.6
2369.681	2670.6
2373.508	2656.6
2377.333	2635.6
2381.153	2652.6
2384.971	2618.6
2388.785	2620.6
2392.595	2579.6
2396.402	2568.6
2400.206	2559.6
2404.007	2521.6
2407.804	2496.6
2411.597	2522.6
2415.388	2474.6
2419.174	2476.6
2422.958	2452.6
2426.738	2430.6
2430.515	2414.6
2434.289	2403.6
2438.059	2396.6
2441.825	2357.6
2445.589	2341.6
2449.349	2305.6
2453.106	2273.6
2456.859	2239.6
2460.61	2204.6
2464.356	2190.6
2468.1	2170.6
2471.84	2154.6
2475.577	2119.6
2479.311	2101.6
2483.041	2097.6
2486.768	2107.6
2490.492	2068.6
2494.213	2069.6
2497.93	2057.6
2501.644	2041.6
2505.355	2057.6
2509.062	2038.6
2512.766	2027.6
2516.467	2000.6
2520.165	2014.6
2523.859	1988.6
2527.551	1971.6
2531.239	1922.6
2534.923	1958.6
2538.605	1917.6
2542.283	1928.6
2545.958	1938.6
2549.63	1920.6
2553.299	1914.6
2556.964	1917.6
2560.626	1924.6
2564.285	1908.6
2567.941	1913.6
2571.594	1879.6
2575.243	1855.6
2578.89	1859.6
2582.533	1843.6
2586.173	1821.6
2589.809	1805.6
2593.443	1786.6
2597.073	1766.6
2600.701	1773.6
2604.325	1780.6
2607.946	1752.6
2611.564	1745.6
2615.178	1742.6
2618.79	1717.6
2622.398	1700.6
2626.004	1686.6
2629.606	1655.6
2633.205	1627.6
2636.801	1614.6
2640.394	1605.6
2643.983	1595.6
2647.57	1566.6
2651.153	1527.6
2654.734	1496.6
2658.311	1484.6
2661.885	1479.6
2665.456	1444.6
2669.025	1428.6
2672.589	1427.6
2676.151	1399.6
2679.71	1392.6
2683.266	1353.6
2686.819	1332.6
2690.368	1300.6
2693.915	1276.6
2697.458	1263.6
2700.999	1224.6
2704.536	1212.6
2708.071	1167.6
2711.602	1163.6
2715.13	1122.6
2718.656	1103.6
2722.178	1067.6
2725.697	1057.6
2729.214	1048.6
2732.727	1041.6
2736.237	1043.6
2739.744	1021.6
2743.249	1031.6
2746.75	1043.6
2750.248	1049.6
2753.743	1071.6
2757.236	1067.6
2760.725	1076.6
2764.211	1085.6
2767.695	1064.6
2771.175	1088.6
2774.652	1074.6
2778.127	1072.6
2781.598	1070.6
2785.067	1080.6
2788.532	1074.6
2791.995	1070.6
2795.455	1067.6
2798.911	1051.6
2802.365	1080.6
2805.816	1054.6
2809.264	1056.6
2812.709	1032.6
2816.151	1060.6
2819.59	1046.6
2823.026	1056.6
2826.46	1065.6
2829.89	1072.6
2833.318	1062.6
2836.742	1075.6
2840.164	1082.6
2843.583	1084.6
2846.999	1088.6
2850.412	1077.6
2853.822	1122.6
2857.229	1130.6
2860.634	1154.6
2864.035	1156.6
2867.434	1185.6
2870.83	1213.6
2874.223	1245.6
2877.613	1245.6
2881	1263.6
2884.385	1283.6
2887.766	1273.6
2891.145	1280.6
2894.521	1270.6
2897.894	1269.6
2901.264	1255.6
2904.631	1267.6
2907.996	1266.6
2911.358	1262.6
2914.717	1294.6
2918.073	1280.6
2921.426	1312.6
2924.777	1323.6
2928.124	1354.6
2931.469	1366.6
2934.811	1386.6
2938.15	1422.6
2941.487	1436.6
2944.821	1440.6
2948.152	1419.6
2951.48	1395.6
2954.805	1387.6
2958.128	1356.6
2961.447	1368.6
2964.765	1361.6
2968.079	1368.6
2971.39	1380.6
2974.699	1394.6
2978.005	1403.6
2981.308	1425.6
2984.609	1463.6
2987.907	1476.6
2991.202	1504.6
2994.494	1533.6
2997.784	1584.6
3001.07	1617.6
3004.355	1612.6
3007.636	1642.6
3010.915	1655.6
3014.191	1695.6
3017.464	1690.6
3020.734	1700.6
3024.002	1714.6
3027.267	1701.6
3030.53	1753.6
3033.789	1762.6
3037.046	1756.6
3040.301	1791.6
3043.552	1849.6
3046.801	1865.6
3050.048	1900.6
3053.291	1964.6
3056.532	2010.6
3059.771	2040.6
3063.006	2107.6
3066.239	2197.6
3069.469	2207.6
3072.697	2306.6
3075.922	2354.6
3079.144	2412.6
3082.364	2474.6
3085.581	2527.6
3088.795	2583.6
3092.007	2628.6
3095.216	2696.6
3098.423	2731.6
3101.627	2768.6
3104.828	2862.6
3108.026	2910.6
3111.222	2983.6
3114.416	3050.6
3117.607	3100.6
3120.795	3194.6
3123.98	3273.6
3127.163	3338.6
3130.344	3418.6
3133.521	3466.6
3136.696	3574.6
3139.869	3621.6
3143.039	3702.6
3146.206	3744.6
3149.371	3777.6
3152.533	3831.6
3155.693	3837.6
3158.85	3879.6
3162.005	3873.6
3165.157	3899.6
3168.306	3896.6
3171.453	3909.6
3174.597	3934.6
3177.739	3913.6
3180.878	3903.6
3184.014	3956.6
3187.149	3949.6
3190.28	3966.6
3193.409	3982.6
3196.536	3935.6
3199.659	3959.6
3202.781	3941.6
3205.9	3962.6
3209.016	3947.6
3212.13	3943.6
3215.241	3899.6
3218.35	3881.6
3221.456	3824.6
3224.56	3794.6
3227.661	3748.6
3230.76	3685.6
3233.856	3670.6
3236.95	3660.6
3240.041	3606.6
3243.13	3585.6
3246.216	3539.6
3249.3	3544.6
3252.382	3519.6
3255.46	3495.6
3258.537	3509.6
3261.611	3494.6
3264.682	3482.6
3267.751	3483.6
3270.818	3484.6
3273.882	3481.6
3276.943	3449.6
3280.002	3434.6
3283.059	3385.6
3286.113	3342.6
3289.165	3311.6
3292.214	3261.6
3295.261	3198.6
3298.306	3151.6
3301.348	3067.6
3304.387	3047.6
3307.425	3002.6
3310.459	2965.6
3313.492	2901.6
3316.521	2883.6
3319.549	2848.6
3322.574	2818.6
3325.597	2790.6
3328.617	2780.6
3331.635	2740.6
3334.65	2739.6
3337.663	2715.6
3340.674	2705.6
3343.682	2700.6
3346.688	2665.6
3349.691	2662.6
3352.692	2640.6
3355.691	2620.6
3358.687	2605.6
3361.681	2562.6
3364.673	2550.6
3367.662	2517.6
3370.649	2450.6
3373.633	2429.6
3376.615	2408.6
3379.595	2360.6
3382.572	2315.6
3385.547	2285.6
3388.52	2259.6
3391.49	2208.6
3394.458	2184.6
3397.424	2158.6
3400.387	2113.6
3403.348	2088.6
3406.307	2080.6
3409.263	2041.6
3412.217	2031.6
3415.168	1997.6
3418.118	1958.6
3421.065	1947.6
3424.009	1925.6
3426.951	1897.6
3429.891	1851.6
3432.829	1822.6
3435.764	1771.6
3438.697	1713.6
3441.628	1666.6
3444.557	1650.6
3447.483	1549.6
3450.407	1529.6
3453.328	1469.6
3456.247	1436.6
3459.164	1369.6
3462.079	1313.6
3464.991	1263.6
3467.902	1222.6
3470.809	1188.6
3473.715	1125.6
3476.618	1100.6
3479.519	1066.6
3482.418	1038.6
3485.315	984.6
3488.209	932.6
3491.101	906.6
3493.99	881.6
3496.878	857.6
3499.763	817.6
3502.646	780.6
3505.527	735.6
3508.405	709.6
3511.281	657.6
3514.155	627.6
3517.027	581.6
3519.897	550.6
3522.764	510.6
3525.629	474.6
3528.492	447.6
3531.352	374.6
3534.211	364.6
3537.067	309.6
3539.921	280.6
3542.773	244.6
3545.622	223.6
3548.469	181.6
3551.315	152.6
3554.157	130.6
3556.998	105.6
3559.837	69.6
3562.673	61.6
3565.507	38.6
3568.339	28.6
3571.169	8.6
3573.996	-23.4
3576.822	-42.4
3579.645	-45.4
3582.466	-88.4
3585.285	-95.4
3588.101	-101.4
3590.916	-139.4
3593.728	-147.4
3596.538	-174.4
3599.346	-200.4
3602.152	-200.4
3604.956	-220.4
3607.757	-231.4
3610.556	-237.4
3613.354	-267.4
3616.149	-264.4
3618.942	-287.4
3621.732	-302.4
3624.521	-314.4
3627.307	-320.4
3630.092	-333.4
3632.874	-349.4
3635.654	-345.4
3638.432	-351.4
3641.208	-366.4
3643.982	-379.4
3646.753	-384.4
3649.523	-394.4
3652.29	-401.4
3655.055	-405.4
3657.818	-411.4
3660.579	-433.4
3663.338	-432.4
3666.095	-442.4
3668.849	-456.4
3671.602	-481.4
3674.352	-472.4
3677.101	-480.4
3679.847	-492.4
3682.591	-493.4
3685.333	-493.4
3688.073	-503.4
3690.811	-506.4
3693.547	-509.4
3696.281	-520.4
3699.013	-524.4
3701.742	-526.4
3704.47	-533.4
3707.195	-543.4
3709.919	-538.4
3712.64	-545.4
3715.359	-549.4
3718.076	-552.4
3720.792	-559.4
3723.505	-551.4
3726.216	-566.4
3728.925	-558.4
3731.632	-574.4
3734.336	-567.4
3737.039	-582.4
3739.74	-572.4
3742.439	-574.4
3745.136	-577.4
3747.83	-584.4
3750.523	-581.4
3753.213	-578.4
3755.902	-584.4
3758.589	-585.4
3761.273	-588.4
3763.956	-595.4
3766.636	-596.4
3769.315	-596.4
3771.991	-602.4
3774.665	-600.4
3777.338	-604.4
3780.008	-601.4
3782.677	-605.4
3785.343	-602.4
3788.007	-600.4
3790.67	-612.4
3793.33	-608.4
3795.989	-612.4
3798.645	-617.4
3801.299	-618.4
3803.952	-619.4
3806.602	-616.4
3809.251	-619.4
3811.897	-609.4
3814.542	-612.4
3817.184	-616.4
3819.825	-616.4
3822.463	-613.4
3825.1	-618.4
3827.735	-625.4
3830.367	-625.4
3832.998	-629.4
3835.627	-628.4
3838.253	-631.4
3840.878	-626.4
3843.501	-629.4
3846.122	-627.4
3848.741	-624.4
3851.358	-631.4
3853.973	-625.4
3856.586	-630.4
3859.197	-625.4
3861.806	-624.4
3864.414	-626.4
3867.019	-625.4
3869.622	-628.4
3872.224	-624.4
3874.823	-613.4
3877.421	-590.4
3880.016	-581.4
3882.61	-539.4
3885.202	-533.4
3887.792	-563.4
3890.38	-599.4
3892.966	-612.4
3895.55	-623.4
3898.132	-633.4
3900.713	-644.4
3903.291	-636.4
3905.868	-641.4
3908.442	-643.4
3911.015	-642.4
3913.586	-641.4
3916.155	-641.4
3918.722	-645.4
3921.287	-643.4
3923.85	-642.4
3926.411	-646.4
3928.971	-645.4
3931.528	-647.4
3934.084	-642.4
3936.638	-642.4
3939.19	-643.4
3941.74	-649.4
3944.288	-652.4
3946.834	-652.4
3949.378	-648.4
3951.921	-654.4
3954.462	-650.4
3957	-642.4
3959.537	-634.4
3962.072	-642.4
3964.606	-644.4
3967.137	-648.4
3969.667	-641.4
3972.194	-635.4
3974.72	-635.4
3977.244	-638.4
3979.766	-636.4
3982.286	-639.4
3984.805	-628.4
3987.321	-638.4
3989.836	-634.4
3992.349	-632.4
3994.86	-628.4
3997.369	-637.4
3999.877	-630.4
4002.382	-628.4
4004.886	-635.4
4007.388	-633.4
4009.888	-623.4
4012.386	-634.4
4014.883	-636.4
4017.377	-630.4
4019.87	-635.4
4022.361	-637.4
4024.85	-633.4
4027.338	-636.4
4029.823	-629.4
4032.307	-638.4
4034.789	-635.4
4037.269	-641.4
4039.747	-634.4
4042.224	-632.4
4044.699	-636.4
4047.172	-639.4
4049.643	-633.4
4052.112	-635.4
4054.58	-627.4
4057.046	-641.4
4059.51	-633.4
4061.972	-639.4
4064.432	-640.4
4066.891	-636.4
4069.348	-641.4
4071.803	-636.4
4074.256	-631.4
4076.708	-634.4
4079.158	-636.4
4081.606	-634.4
4084.052	-630.4
4086.497	-635.4
4088.939	-632.4
4091.38	-631.4
4093.819	-631.4
4096.257	-664.4
4098.693	-667.4
4101.127	-668.4
4103.559	-671.4
4105.989	-398.4
4108.418	-382.4
4110.845	-361.4
4113.27	-335.4
4115.694	-304.4
4118.115	-246.4
4120.535	-635.4
4122.954	-640.4
4125.37	-636.4
4127.785	-637.4
4130.198	-639.4
4132.609	-629.4
4135.019	-666.4
4137.427	-669.4
4139.833	-666.4
4142.237	-666.4
