Data from 2018-2-7_conc=4_RamanShift_01.txt Node
Date: Tue Feb 13 13:27:43 IST 2018
User: aro
Spectrometer: QEPB0276
Trigger mode: 0
Integration Time (sec): 3.000000E1
Scans to average: 1
Electric dark correction enabled: true
Nonlinearity correction enabled: false
Boxcar width: 0
XAxis mode: Raman Shifts
Number of Pixels in Spectrum: 1044
>>>>>Begin Spectral Data<<<<<
160.701	-171.9
166.742	19.1
172.777	594.1
178.805	2313.1
184.826	6301.1
190.841	12892.1
196.849	20294.1
202.85	25276.1
208.845	26748.1
214.833	26442.1
220.815	25945.1
226.789	25735.1
232.758	25615.1
238.719	25459.1
244.674	25036.1
250.623	24583.1
256.565	23998.1
262.5	23528.1
268.429	23078.1
274.351	22748.1
280.267	22466.1
286.176	22116.1
292.079	21868.1
297.975	21617.1
303.865	21544.1
309.748	21354.1
315.625	21206.1
321.495	20988.1
327.359	21002.1
333.217	20890.1
339.068	20892.1
344.912	20916.1
350.751	20843.1
356.583	20854.1
362.408	20800.1
368.227	20792.1
374.04	20809.1
379.847	20944.1
385.647	20982.1
391.44	21062.1
397.228	21119.1
403.009	21197.1
408.784	21303.1
414.553	21387.1
420.315	21444.1
426.071	21485.1
431.821	21363.1
437.565	21383.1
443.302	21397.1
449.033	21352.1
454.758	21294.1
460.477	21213.1
466.189	21246.1
471.896	21118.1
477.596	21096.1
483.29	20960.1
488.978	20995.1
494.66	20928.1
500.335	20778.1
506.005	20599.1
511.668	20328.1
517.325	20141.1
522.977	19893.1
528.622	19765.1
534.261	19655.1
539.894	19525.1
545.521	19545.1
551.141	19473.1
556.756	19311.1
562.365	19235.1
567.968	19195.1
573.565	19105.1
579.155	19032.1
584.74	18929.1
590.319	18883.1
595.892	18812.1
601.459	18750.1
607.02	18664.1
612.575	18562.1
618.124	18461.1
623.667	18244.1
629.204	18268.1
634.735	18140.1
640.261	18110.1
645.781	18071.1
651.294	17996.1
656.802	17925.1
662.304	17920.1
667.8	17908.1
673.29	17907.1
678.775	17855.1
684.254	17794.1
689.726	17709.1
695.193	17675.1
700.655	17531.1
706.11	17474.1
711.56	17389.1
717.004	17286.1
722.442	17215.1
727.874	17168.1
733.301	17110.1
738.722	17131.1
744.137	17089.1
749.547	17057.1
754.951	16981.1
760.349	17026.1
765.741	17027.1
771.128	17012.1
776.509	17046.1
781.885	17029.1
787.254	17041.1
792.618	16939.1
797.977	16817.1
803.33	16735.1
808.677	16636.1
814.019	16517.1
819.355	16456.1
824.686	16419.1
830.011	16322.1
835.33	16357.1
840.644	16315.1
845.952	16414.1
851.255	16459.1
856.552	16404.1
861.844	16457.1
867.13	16385.1
872.41	16292.1
877.686	16211.1
882.955	16068.1
888.219	15979.1
893.478	15763.1
898.731	15566.1
903.979	15457.1
909.221	15297.1
914.458	15264.1
919.69	15255.1
924.916	15326.1
930.136	15366.1
935.351	15337.1
940.561	15370.1
945.766	15307.1
950.965	15239.1
956.158	15169.1
961.347	14945.1
966.529	14846.1
971.707	14551.1
976.879	14443.1
982.046	14334.1
987.208	14327.1
992.364	14246.1
997.515	14351.1
1002.66	14470.1
1007.801	14637.1
1012.936	14754.1
1018.066	14752.1
1023.19	14770.1
1028.309	14748.1
1033.423	14715.1
1038.532	14691.1
1043.636	14535.1
1048.734	14359.1
1053.827	14145.1
1058.915	13977.1
1063.998	13885.1
1069.075	13861.1
1074.147	13867.1
1079.214	13941.1
1084.276	13964.1
1089.333	14102.1
1094.385	14148.1
1099.431	14226.1
1104.472	14187.1
1109.509	14119.1
1114.54	13949.1
1119.565	13772.1
1124.586	13648.1
1129.602	13441.1
1134.613	13388.1
1139.618	13311.1
1144.619	13310.1
1149.614	13294.1
1154.604	13305.1
1159.589	13354.1
1164.57	13395.1
1169.545	13391.1
1174.515	13420.1
1179.48	13295.1
1184.44	13180.1
1189.395	13120.1
1194.345	13062.1
1199.29	12987.1
1204.23	12978.1
1209.165	12983.1
1214.095	13093.1
1219.021	13129.1
1223.941	13246.1
1228.856	13299.1
1233.766	13317.1
1238.672	13355.1
1243.572	13342.1
1248.467	13216.1
1253.358	13114.1
1258.244	12918.1
1263.124	12670.1
1268	12520.1
1272.871	12383.1
1277.737	12225.1
1282.599	12234.1
1287.455	12231.1
1292.306	12240.1
1297.153	12310.1
1301.995	12354.1
1306.832	12412.1
1311.664	12369.1
1316.491	12342.1
1321.314	12180.1
1326.132	11969.1
1330.945	11797.1
1335.753	11458.1
1340.556	11229.1
1345.354	10948.1
1350.148	10828.1
1354.937	10764.1
1359.722	10741.1
1364.501	10769.1
1369.276	10906.1
1374.046	11033.1
1378.811	11125.1
1383.572	11313.1
1388.327	11319.1
1393.079	11273.1
1397.825	11129.1
1402.567	10935.1
1407.304	10833.1
1412.036	10739.1
1416.764	10651.1
1421.487	10644.1
1426.205	10564.1
1430.919	10511.1
1435.628	10490.1
1440.333	10540.1
1445.032	10584.1
1449.727	10590.1
1454.418	10577.1
1459.104	10423.1
1463.785	10229.1
1468.462	10017.1
1473.134	9792.1
1477.802	9586.1
1482.465	9413.1
1487.123	9307.1
1491.777	9265.1
1496.426	9361.1
1501.071	9463.1
1505.711	9591.1
1510.347	9720.1
1514.978	9961.1
1519.604	10029.1
1524.226	10147.1
1528.844	10214.1
1533.457	10130.1
1538.065	10129.1
1542.669	10053.1
1547.269	9943.1
1551.864	9939.1
1556.454	9899.1
1561.041	9869.1
1565.622	9851.1
1570.199	9864.1
1574.772	9960.1
1579.34	10030.1
1583.904	10070.1
1588.464	10110.1
1593.019	10057.1
1597.569	10093.1
1602.115	9990.1
1606.657	9912.1
1611.195	9898.1
1615.728	9807.1
1620.256	9806.1
1624.78	9755.1
1629.3	9816.1
1633.816	9834.1
1638.327	9842.1
1642.834	9924.1
1647.336	9981.1
1651.834	9918.1
1656.328	9938.1
1660.817	9898.1
1665.302	9766.1
1669.783	9557.1
1674.259	9346.1
1678.732	9074.1
1683.199	8760.1
1687.663	8509.1
1692.122	8222.1
1696.577	8066.1
1701.028	8114.1
1705.474	8104.1
1709.917	8196.1
1714.355	8215.1
1718.788	8139.1
1723.218	8013.1
1727.643	7905.1
1732.064	7714.1
1736.481	7583.1
1740.893	7393.1
1745.301	7168.1
1749.705	6992.1
1754.105	6787.1
1758.501	6588.1
1762.893	6408.1
1767.28	6258.1
1771.663	6121.1
1776.042	6009.1
1780.417	5968.1
1784.787	5966.1
1789.154	6043.1
1793.516	6149.1
1797.874	6264.1
1802.228	6335.1
1806.578	6385.1
1810.924	6392.1
1815.266	6331.1
1819.603	6248.1
1823.937	6179.1
1828.266	6057.1
1832.591	5986.1
1836.913	5889.1
1841.23	5855.1
1845.543	5785.1
1849.852	5804.1
1854.156	5755.1
1858.457	5774.1
1862.754	5705.1
1867.047	5741.1
1871.335	5737.1
1875.62	5691.1
1879.9	5644.1
1884.177	5632.1
1888.449	5566.1
1892.718	5525.1
1896.982	5460.1
1901.243	5439.1
1905.499	5376.1
1909.752	5353.1
1914	5355.1
1918.245	5382.1
1922.485	5406.1
1926.722	5472.1
1930.954	5549.1
1935.183	5580.1
1939.408	5641.1
1943.628	5660.1
1947.845	5651.1
1952.058	5701.1
1956.267	5621.1
1960.472	5544.1
1964.673	5474.1
1968.87	5379.1
1973.063	5293.1
1977.252	5273.1
1981.438	5178.1
1985.619	5128.1
1989.797	5057.1
1993.971	5051.1
1998.14	5028.1
2002.306	5018.1
2006.469	5002.1
2010.627	4941.1
2014.781	4903.1
2018.932	4918.1
2023.078	4858.1
2027.221	4762.1
2031.36	4709.1
2035.495	4622.1
2039.627	4578.1
2043.754	4497.1
2047.878	4498.1
2051.998	4432.1
2056.114	4443.1
2060.226	4423.1
2064.334	4432.1
2068.439	4423.1
2072.54	4472.1
2076.637	4491.1
2080.73	4527.1
2084.82	4543.1
2088.906	4541.1
2092.988	4546.1
2097.066	4558.1
2101.14	4521.1
2105.211	4473.1
2109.278	4481.1
2113.342	4440.1
2117.401	4404.1
2121.457	4404.1
2125.509	4362.1
2129.558	4327.1
2133.602	4293.1
2137.643	4282.1
2141.681	4297.1
2145.714	4233.1
2149.744	4206.1
2153.77	4191.1
2157.793	4122.1
2161.812	4101.1
2165.827	4037.1
2169.838	3967.1
2173.846	3918.1
2177.851	3867.1
2181.851	3818.1
2185.848	3741.1
2189.841	3741.1
2193.831	3665.1
2197.817	3634.1
2201.799	3611.1
2205.778	3599.1
2209.753	3598.1
2213.725	3581.1
2217.693	3559.1
2221.657	3542.1
2225.618	3571.1
2229.575	3511.1
2233.529	3510.1
2237.479	3474.1
2241.425	3412.1
2245.368	3370.1
2249.307	3336.1
2253.243	3302.1
2257.175	3232.1
2261.104	3189.1
2265.029	3146.1
2268.95	3099.1
2272.868	3079.1
2276.783	3049.1
2280.694	3026.1
2284.601	2983.1
2288.505	2991.1
2292.405	2922.1
2296.302	2918.1
2300.195	2871.1
2304.085	2836.1
2307.971	2799.1
2311.854	2771.1
2315.734	2716.1
2319.609	2663.1
2323.482	2654.1
2327.351	2624.1
2331.216	2639.1
2335.078	2575.1
2338.937	2583.1
2342.792	2565.1
2346.643	2564.1
2350.492	2557.1
2354.336	2563.1
2358.178	2563.1
2362.015	2568.1
2365.85	2580.1
2369.681	2582.1
2373.508	2575.1
2377.333	2574.1
2381.153	2580.1
2384.971	2510.1
2388.785	2551.1
2392.595	2521.1
2396.402	2495.1
2400.206	2465.1
2404.007	2456.1
2407.804	2420.1
2411.597	2418.1
2415.388	2398.1
2419.174	2378.1
2422.958	2355.1
2426.738	2354.1
2430.515	2335.1
2434.289	2303.1
2438.059	2283.1
2441.825	2261.1
2445.589	2246.1
2449.349	2227.1
2453.106	2181.1
2456.859	2194.1
2460.61	2138.1
2464.356	2115.1
2468.1	2084.1
2471.84	2064.1
2475.577	2032.1
2479.311	2048.1
2483.041	2031.1
2486.768	2022.1
2490.492	1998.1
2494.213	1999.1
2497.93	1990.1
2501.644	1982.1
2505.355	1979.1
2509.062	1962.1
2512.766	1954.1
2516.467	1929.1
2520.165	1940.1
2523.859	1895.1
2527.551	1906.1
2531.239	1869.1
2534.923	1869.1
2538.605	1859.1
2542.283	1863.1
2545.958	1830.1
2549.63	1851.1
2553.299	1832.1
2556.964	1825.1
2560.626	1824.1
2564.285	1825.1
2567.941	1811.1
2571.594	1811.1
2575.243	1787.1
2578.89	1760.1
2582.533	1753.1
2586.173	1767.1
2589.809	1738.1
2593.443	1740.1
2597.073	1689.1
2600.701	1688.1
2604.325	1665.1
2607.946	1649.1
2611.564	1656.1
2615.178	1653.1
2618.79	1597.1
2622.398	1596.1
2626.004	1598.1
2629.606	1574.1
2633.205	1552.1
2636.801	1535.1
2640.394	1500.1
2643.983	1494.1
2647.57	1472.1
2651.153	1452.1
2654.734	1429.1
2658.311	1396.1
2661.885	1389.1
2665.456	1358.1
2669.025	1351.1
2672.589	1341.1
2676.151	1303.1
2679.71	1307.1
2683.266	1256.1
2686.819	1267.1
2690.368	1213.1
2693.915	1182.1
2697.458	1158.1
2700.999	1153.1
2704.536	1130.1
2708.071	1103.1
2711.602	1070.1
2715.13	1038.1
2718.656	1027.1
2722.178	1007.1
2725.697	995.1
2729.214	965.1
2732.727	967.1
2736.237	962.1
2739.744	976.1
2743.249	973.1
2746.75	963.1
2750.248	989.1
2753.743	990.1
2757.236	999.1
2760.725	995.1
2764.211	1021.1
2767.695	1012.1
2771.175	1012.1
2774.652	990.1
2778.127	994.1
2781.598	985.1
2785.067	1003.1
2788.532	980.1
2791.995	989.1
2795.455	991.1
2798.911	975.1
2802.365	999.1
2805.816	990.1
2809.264	996.1
2812.709	973.1
2816.151	994.1
2819.59	986.1
2823.026	983.1
2826.46	986.1
2829.89	985.1
2833.318	1002.1
2836.742	990.1
2840.164	1002.1
2843.583	1011.1
2846.999	1027.1
2850.412	1040.1
2853.822	1049.1
2857.229	1047.1
2860.634	1079.1
2864.035	1091.1
2867.434	1115.1
2870.83	1138.1
2874.223	1149.1
2877.613	1175.1
2881	1206.1
2884.385	1198.1
2887.766	1180.1
2891.145	1205.1
2894.521	1183.1
2897.894	1189.1
2901.264	1196.1
2904.631	1173.1
2907.996	1198.1
2911.358	1205.1
2914.717	1213.1
2918.073	1210.1
2921.426	1225.1
2924.777	1257.1
2928.124	1273.1
2931.469	1295.1
2934.811	1318.1
2938.15	1328.1
2941.487	1351.1
2944.821	1331.1
2948.152	1344.1
2951.48	1342.1
2954.805	1326.1
2958.128	1290.1
2961.447	1291.1
2964.765	1291.1
2968.079	1298.1
2971.39	1324.1
2974.699	1311.1
2978.005	1337.1
2981.308	1367.1
2984.609	1386.1
2987.907	1415.1
2991.202	1439.1
2994.494	1456.1
2997.784	1491.1
3001.07	1504.1
3004.355	1564.1
3007.636	1575.1
3010.915	1608.1
3014.191	1602.1
3017.464	1633.1
3020.734	1632.1
3024.002	1634.1
3027.267	1648.1
3030.53	1678.1
3033.789	1713.1
3037.046	1712.1
3040.301	1723.1
3043.552	1776.1
3046.801	1816.1
3050.048	1873.1
3053.291	1915.1
3056.532	1950.1
3059.771	2032.1
3063.006	2070.1
3066.239	2125.1
3069.469	2210.1
3072.697	2258.1
3075.922	2313.1
3079.144	2364.1
3082.364	2436.1
3085.581	2462.1
3088.795	2526.1
3092.007	2591.1
3095.216	2628.1
3098.423	2704.1
3101.627	2744.1
3104.828	2811.1
3108.026	2857.1
3111.222	2949.1
3114.416	2998.1
3117.607	3071.1
3120.795	3125.1
3123.98	3201.1
3127.163	3287.1
3130.344	3383.1
3133.521	3448.1
3136.696	3517.1
3139.869	3588.1
3143.039	3650.1
3146.206	3693.1
3149.371	3744.1
3152.533	3780.1
3155.693	3825.1
3158.85	3843.1
3162.005	3850.1
3165.157	3864.1
3168.306	3870.1
3171.453	3886.1
3174.597	3897.1
3177.739	3890.1
3180.878	3914.1
3184.014	3941.1
3187.149	3915.1
3190.28	3915.1
3193.409	3906.1
3196.536	3922.1
3199.659	3937.1
3202.781	3923.1
3205.9	3929.1
3209.016	3918.1
3212.13	3888.1
3215.241	3870.1
3218.35	3825.1
3221.456	3773.1
3224.56	3762.1
3227.661	3713.1
3230.76	3674.1
3233.856	3635.1
3236.95	3597.1
3240.041	3571.1
3243.13	3537.1
3246.216	3499.1
3249.3	3466.1
3252.382	3468.1
3255.46	3446.1
3258.537	3467.1
3261.611	3436.1
3264.682	3431.1
3267.751	3413.1
3270.818	3423.1
3273.882	3414.1
3276.943	3418.1
3280.002	3366.1
3283.059	3328.1
3286.113	3290.1
3289.165	3249.1
3292.214	3204.1
3295.261	3156.1
3298.306	3116.1
3301.348	3064.1
3304.387	2992.1
3307.425	2963.1
3310.459	2917.1
3313.492	2891.1
3316.521	2831.1
3319.549	2802.1
3322.574	2806.1
3325.597	2764.1
3328.617	2734.1
3331.635	2709.1
3334.65	2700.1
3337.663	2691.1
3340.674	2679.1
3343.682	2687.1
3346.688	2650.1
3349.691	2643.1
3352.692	2642.1
3355.691	2589.1
3358.687	2572.1
3361.681	2563.1
3364.673	2529.1
3367.662	2495.1
3370.649	2447.1
3373.633	2412.1
3376.615	2381.1
3379.595	2341.1
3382.572	2289.1
3385.547	2271.1
3388.52	2250.1
3391.49	2194.1
3394.458	2144.1
3397.424	2120.1
3400.387	2101.1
3403.348	2059.1
3406.307	2073.1
3409.263	2033.1
3412.217	2015.1
3415.168	1978.1
3418.118	1955.1
3421.065	1931.1
3424.009	1894.1
3426.951	1860.1
3429.891	1836.1
3432.829	1788.1
3435.764	1759.1
3438.697	1696.1
3441.628	1650.1
3444.557	1613.1
3447.483	1553.1
3450.407	1500.1
3453.328	1447.1
3456.247	1399.1
3459.164	1345.1
3462.079	1280.1
3464.991	1237.1
3467.902	1203.1
3470.809	1147.1
3473.715	1110.1
3476.618	1064.1
3479.519	1012.1
3482.418	991.1
3485.315	939.1
3488.209	933.1
3491.101	874.1
3493.99	844.1
3496.878	809.1
3499.763	778.1
3502.646	745.1
3505.527	708.1
3508.405	652.1
3511.281	597.1
3514.155	577.1
3517.027	569.1
3519.897	507.1
3522.764	476.1
3525.629	435.1
3528.492	394.1
3531.352	338.1
3534.211	326.1
3537.067	268.1
3539.921	246.1
3542.773	218.1
3545.622	176.1
3548.469	153.1
3551.315	130.1
3554.157	106.1
3556.998	66.1
3559.837	58.1
3562.673	34.1
3565.507	14.1
3568.339	-11.9
3571.169	-30.9
3573.996	-52.9
3576.822	-65.9
3579.645	-89.9
3582.466	-118.9
3585.285	-128.9
3588.101	-129.9
3590.916	-168.9
3593.728	-188.9
3596.538	-204.9
3599.346	-210.9
3602.152	-230.9
3604.956	-247.9
3607.757	-266.9
3610.556	-277.9
3613.354	-290.9
3616.149	-308.9
3618.942	-318.9
3621.732	-326.9
3624.521	-331.9
3627.307	-353.9
3630.092	-363.9
3632.874	-368.9
3635.654	-374.9
3638.432	-380.9
3641.208	-393.9
3643.982	-404.9
3646.753	-407.9
3649.523	-417.9
3652.29	-433.9
3655.055	-434.9
3657.818	-448.9
3660.579	-453.9
3663.338	-460.9
3666.095	-470.9
3668.849	-493.9
3671.602	-495.9
3674.352	-489.9
3677.101	-513.9
3679.847	-515.9
3682.591	-506.9
3685.333	-519.9
3688.073	-522.9
3690.811	-530.9
3693.547	-535.9
3696.281	-539.9
3699.013	-544.9
3701.742	-553.9
3704.47	-555.9
3707.195	-569.9
3709.919	-563.9
3712.64	-569.9
3715.359	-574.9
3718.076	-569.9
3720.792	-581.9
3723.505	-579.9
3726.216	-584.9
3728.925	-587.9
3731.632	-595.9
3734.336	-596.9
3737.039	-603.9
3739.74	-598.9
3742.439	-602.9
3745.136	-605.9
3747.83	-601.9
3750.523	-605.9
3753.213	-613.9
3755.902	-612.9
3758.589	-608.9
3761.273	-615.9
3763.956	-621.9
3766.636	-616.9
3769.315	-618.9
3771.991	-620.9
3774.665	-620.9
3777.338	-624.9
3780.008	-627.9
3782.677	-621.9
3785.343	-630.9
3788.007	-623.9
3790.67	-633.9
3793.33	-632.9
3795.989	-636.9
3798.645	-641.9
3801.299	-641.9
3803.952	-641.9
3806.602	-637.9
3809.251	-643.9
3811.897	-636.9
3814.542	-635.9
3817.184	-636.9
3819.825	-632.9
3822.463	-641.9
3825.1	-643.9
3827.735	-651.9
3830.367	-650.9
3832.998	-649.9
3835.627	-650.9
3838.253	-658.9
3840.878	-649.9
3843.501	-650.9
3846.122	-646.9
3848.741	-645.9
3851.358	-652.9
3853.973	-650.9
3856.586	-649.9
3859.197	-649.9
3861.806	-650.9
3864.414	-642.9
3867.019	-647.9
3869.622	-650.9
3872.224	-649.9
3874.823	-637.9
3877.421	-615.9
3880.016	-610.9
3882.61	-573.9
3885.202	-578.9
3887.792	-599.9
3890.38	-619.9
3892.966	-643.9
3895.55	-646.9
3898.132	-658.9
3900.713	-657.9
3903.291	-662.9
3905.868	-665.9
3908.442	-664.9
3911.015	-662.9
3913.586	-664.9
3916.155	-666.9
3918.722	-661.9
3921.287	-663.9
3923.85	-662.9
3926.411	-664.9
3928.971	-663.9
3931.528	-668.9
3934.084	-659.9
3936.638	-661.9
3939.19	-667.9
3941.74	-665.9
3944.288	-672.9
3946.834	-669.9
3949.378	-673.9
3951.921	-668.9
3954.462	-670.9
3957	-664.9
3959.537	-659.9
3962.072	-662.9
3964.606	-667.9
3967.137	-669.9
3969.667	-671.9
3972.194	-655.9
3974.72	-658.9
3977.244	-651.9
3979.766	-651.9
3982.286	-657.9
3984.805	-648.9
3987.321	-651.9
3989.836	-657.9
3992.349	-651.9
3994.86	-653.9
3997.369	-659.9
3999.877	-650.9
4002.382	-649.9
4004.886	-658.9
4007.388	-657.9
4009.888	-651.9
4012.386	-657.9
4014.883	-651.9
4017.377	-647.9
4019.87	-648.9
4022.361	-654.9
4024.85	-656.9
4027.338	-656.9
4029.823	-655.9
4032.307	-651.9
4034.789	-658.9
4037.269	-659.9
4039.747	-662.9
4042.224	-660.9
4044.699	-660.9
4047.172	-661.9
4049.643	-655.9
4052.112	-658.9
4054.58	-649.9
4057.046	-661.9
4059.51	-657.9
4061.972	-653.9
4064.432	-655.9
4066.891	-652.9
4069.348	-658.9
4071.803	-656.9
4074.256	-652.9
4076.708	-654.9
4079.158	-655.9
4081.606	-651.9
4084.052	-651.9
4086.497	-661.9
4088.939	-654.9
4091.38	-649.9
4093.819	-653.9
4096.257	-690.9
4098.693	-690.9
4101.127	-694.9
4103.559	-694.9
4105.989	-417.9
4108.418	-392.9
4110.845	-371.9
4113.27	-349.9
4115.694	-306.9
4118.115	-254.9
4120.535	-650.9
4122.954	-660.9
4125.37	-657.9
4127.785	-651.9
4130.198	-660.9
4132.609	-648.9
4135.019	-691.9
4137.427	-687.9
4139.833	-687.9
4142.237	-686.9
