Data from 2018-2-7_conc=0_RamanShift_10.txt Node
Date: Tue Feb 13 11:17:44 IST 2018
User: aro
Spectrometer: QEPB0276
Trigger mode: 0
Integration Time (sec): 3.000000E1
Scans to average: 1
Electric dark correction enabled: true
Nonlinearity correction enabled: false
Boxcar width: 0
XAxis mode: Raman Shifts
Number of Pixels in Spectrum: 1044
>>>>>Begin Spectral Data<<<<<
160.701	-161.8
166.742	27.2
172.777	592.2
178.805	2255.2
184.826	6159.2
190.841	12628.2
196.849	19881.2
202.85	24818.2
208.845	26305.2
214.833	25944.2
220.815	25421.2
226.789	25233.2
232.758	25093.2
238.719	24813.2
244.674	24429.2
250.623	24025.2
256.565	23435.2
262.5	22869.2
268.429	22422.2
274.351	22063.2
280.267	21689.2
286.176	21457.2
292.079	21194.2
297.975	20970.2
303.865	20803.2
309.748	20590.2
315.625	20432.2
321.495	20414.2
327.359	20251.2
333.217	20184.2
339.068	20133.2
344.912	20185.2
350.751	20075.2
356.583	20102.2
362.408	20081.2
368.227	20101.2
374.04	20106.2
379.847	20148.2
385.647	20259.2
391.44	20339.2
397.228	20390.2
403.009	20469.2
408.784	20567.2
414.553	20638.2
420.315	20607.2
426.071	20688.2
431.821	20644.2
437.565	20616.2
443.302	20665.2
449.033	20578.2
454.758	20592.2
460.477	20507.2
466.189	20464.2
471.896	20373.2
477.596	20302.2
483.29	20326.2
488.978	20580.2
494.66	20215.2
500.335	20003.2
506.005	19814.2
511.668	19592.2
517.325	19373.2
522.977	19167.2
528.622	18988.2
534.261	18928.2
539.894	18810.2
545.521	18777.2
551.141	18669.2
556.756	18619.2
562.365	18517.2
567.968	18479.2
573.565	18398.2
579.155	18323.2
584.74	18269.2
590.319	18224.2
595.892	18068.2
601.459	18007.2
607.02	17931.2
612.575	17814.2
618.124	17712.2
623.667	17633.2
629.204	17520.2
634.735	17449.2
640.261	17373.2
645.781	17315.2
651.294	17321.2
656.802	17253.2
662.304	17215.2
667.8	17236.2
673.29	17154.2
678.775	17124.2
684.254	17048.2
689.726	17010.2
695.193	16990.2
700.655	16940.2
706.11	16784.2
711.56	16696.2
717.004	16625.2
722.442	16619.2
727.874	16556.2
733.301	16436.2
738.722	16378.2
744.137	16397.2
749.547	16341.2
754.951	16356.2
760.349	16379.2
765.741	16363.2
771.128	16368.2
776.509	16365.2
781.885	16373.2
787.254	16338.2
792.618	16279.2
797.977	16215.2
803.33	16023.2
808.677	16053.2
814.019	15909.2
819.355	15790.2
824.686	15738.2
830.011	15657.2
835.33	15669.2
840.644	15711.2
845.952	15772.2
851.255	15798.2
856.552	15783.2
861.844	15732.2
867.13	15681.2
872.41	15659.2
877.686	15512.2
882.955	15436.2
888.219	15336.2
893.478	15194.2
898.731	14947.2
903.979	14802.2
909.221	14662.2
914.458	14684.2
919.69	14623.2
924.916	14706.2
930.136	14721.2
935.351	14722.2
940.561	14726.2
945.766	14706.2
950.965	14632.2
956.158	14466.2
961.347	14314.2
966.529	14185.2
971.707	13961.2
976.879	13846.2
982.046	13691.2
987.208	13738.2
992.364	13677.2
997.515	13770.2
1002.66	13883.2
1007.801	14087.2
1012.936	14138.2
1018.066	14145.2
1023.19	14102.2
1028.309	14123.2
1033.423	14107.2
1038.532	13993.2
1043.636	13904.2
1048.734	13772.2
1053.827	13531.2
1058.915	13419.2
1063.998	13306.2
1069.075	13295.2
1074.147	13317.2
1079.214	13395.2
1084.276	13430.2
1089.333	13502.2
1094.385	13615.2
1099.431	13568.2
1104.472	13598.2
1109.509	13509.2
1114.54	13362.2
1119.565	13186.2
1124.586	13072.2
1129.602	12875.2
1134.613	12815.2
1139.618	12759.2
1144.619	12712.2
1149.614	12653.2
1154.604	12734.2
1159.589	12756.2
1164.57	12814.2
1169.545	12843.2
1174.515	12814.2
1179.48	12762.2
1184.44	12598.2
1189.395	12572.2
1194.345	12490.2
1199.29	12391.2
1204.23	12406.2
1209.165	12446.2
1214.095	12596.2
1219.021	12605.2
1223.941	12628.2
1228.856	12729.2
1233.766	12739.2
1238.672	12766.2
1243.572	12783.2
1248.467	12677.2
1253.358	12563.2
1258.244	12379.2
1263.124	12153.2
1268	11992.2
1272.871	11802.2
1277.737	11789.2
1282.599	11704.2
1287.455	11726.2
1292.306	11758.2
1297.153	11787.2
1301.995	11808.2
1306.832	11826.2
1311.664	11869.2
1316.491	11842.2
1321.314	11731.2
1326.132	11489.2
1330.945	11265.2
1335.753	11065.2
1340.556	10777.2
1345.354	10586.2
1350.148	10408.2
1354.937	10335.2
1359.722	10285.2
1364.501	10378.2
1369.276	10433.2
1374.046	10549.2
1378.811	10691.2
1383.572	10786.2
1388.327	10787.2
1393.079	10809.2
1397.825	10654.2
1402.567	10512.2
1407.304	10384.2
1412.036	10265.2
1416.764	10222.2
1421.487	10162.2
1426.205	10119.2
1430.919	10098.2
1435.628	10067.2
1440.333	10123.2
1445.032	10075.2
1449.727	10184.2
1454.418	10155.2
1459.104	10080.2
1463.785	9852.2
1468.462	9656.2
1473.134	9442.2
1477.802	9262.2
1482.465	9085.2
1487.123	9015.2
1491.777	8962.2
1496.426	8994.2
1501.071	9085.2
1505.711	9213.2
1510.347	9348.2
1514.978	9512.2
1519.604	9652.2
1524.226	9709.2
1528.844	9727.2
1533.457	9715.2
1538.065	9671.2
1542.669	9637.2
1547.269	9512.2
1551.864	9484.2
1556.454	9447.2
1561.041	9549.2
1565.622	9457.2
1570.199	9506.2
1574.772	9564.2
1579.34	9587.2
1583.904	9709.2
1588.464	9721.2
1593.019	9737.2
1597.569	9712.2
1602.115	9660.2
1606.657	9611.2
1611.195	9587.2
1615.728	9490.2
1620.256	9449.2
1624.78	9473.2
1629.3	9505.2
1633.816	9559.2
1638.327	9548.2
1642.834	9584.2
1647.336	9676.2
1651.834	9661.2
1656.328	9627.2
1660.817	9590.2
1665.302	9516.2
1669.783	9289.2
1674.259	9111.2
1678.732	8815.2
1683.199	8519.2
1687.663	8247.2
1692.122	8010.2
1696.577	7827.2
1701.028	7803.2
1705.474	7828.2
1709.917	7874.2
1714.355	7850.2
1718.788	7811.2
1723.218	7694.2
1727.643	7564.2
1732.064	7457.2
1736.481	7262.2
1740.893	7059.2
1745.301	6902.2
1749.705	6703.2
1754.105	6535.2
1758.501	6363.2
1762.893	6145.2
1767.28	5999.2
1771.663	5899.2
1776.042	5801.2
1780.417	5735.2
1784.787	5747.2
1789.154	5743.2
1793.516	5867.2
1797.874	5964.2
1802.228	6043.2
1806.578	6086.2
1810.924	6083.2
1815.266	6041.2
1819.603	5927.2
1823.937	5874.2
1828.266	5775.2
1832.591	5711.2
1836.913	5635.2
1841.23	5585.2
1845.543	5566.2
1849.852	5514.2
1854.156	5496.2
1858.457	5491.2
1862.754	5495.2
1867.047	5460.2
1871.335	5519.2
1875.62	5437.2
1879.9	5416.2
1884.177	5411.2
1888.449	5332.2
1892.718	5286.2
1896.982	5228.2
1901.243	5187.2
1905.499	5154.2
1909.752	5105.2
1914	5095.2
1918.245	5130.2
1922.485	5143.2
1926.722	5207.2
1930.954	5274.2
1935.183	5321.2
1939.408	5382.2
1943.628	5418.2
1947.845	5379.2
1952.058	5435.2
1956.267	5350.2
1960.472	5281.2
1964.673	5208.2
1968.87	5145.2
1973.063	5074.2
1977.252	5013.2
1981.438	4934.2
1985.619	4902.2
1989.797	4848.2
1993.971	4837.2
1998.14	4829.2
2002.306	4807.2
2006.469	4806.2
2010.627	4747.2
2014.781	4755.2
2018.932	4679.2
2023.078	4645.2
2027.221	4596.2
2031.36	4529.2
2035.495	4441.2
2039.627	4395.2
2043.754	4320.2
2047.878	4316.2
2051.998	4289.2
2056.114	4262.2
2060.226	4246.2
2064.334	4262.2
2068.439	4272.2
2072.54	4292.2
2076.637	4328.2
2080.73	4339.2
2084.82	4367.2
2088.906	4335.2
2092.988	4336.2
2097.066	4364.2
2101.14	4324.2
2105.211	4290.2
2109.278	4307.2
2113.342	4242.2
2117.401	4235.2
2121.457	4205.2
2125.509	4161.2
2129.558	4132.2
2133.602	4111.2
2137.643	4104.2
2141.681	4096.2
2145.714	4080.2
2149.744	4038.2
2153.77	4052.2
2157.793	3984.2
2161.812	3921.2
2165.827	3872.2
2169.838	3826.2
2173.846	3757.2
2177.851	3712.2
2181.851	3618.2
2185.848	3595.2
2189.841	3560.2
2193.831	3514.2
2197.817	3515.2
2201.799	3477.2
2205.778	3483.2
2209.753	3472.2
2213.725	3444.2
2217.693	3425.2
2221.657	3414.2
2225.618	3417.2
2229.575	3400.2
2233.529	3350.2
2237.479	3326.2
2241.425	3309.2
2245.368	3246.2
2249.307	3214.2
2253.243	3146.2
2257.175	3116.2
2261.104	3079.2
2265.029	3029.2
2268.95	2994.2
2272.868	2970.2
2276.783	2939.2
2280.694	2915.2
2284.601	2895.2
2288.505	2870.2
2292.405	2842.2
2296.302	2812.2
2300.195	2784.2
2304.085	2739.2
2307.971	2693.2
2311.854	2634.2
2315.734	2607.2
2319.609	2584.2
2323.482	2546.2
2327.351	2525.2
2331.216	2511.2
2335.078	2503.2
2338.937	2488.2
2342.792	2470.2
2346.643	2458.2
2350.492	2479.2
2354.336	2456.2
2358.178	2462.2
2362.015	2477.2
2365.85	2481.2
2369.681	2473.2
2373.508	2473.2
2377.333	2469.2
2381.153	2464.2
2384.971	2451.2
2388.785	2446.2
2392.595	2422.2
2396.402	2401.2
2400.206	2368.2
2404.007	2342.2
2407.804	2347.2
2411.597	2305.2
2415.388	2314.2
2419.174	2291.2
2422.958	2258.2
2426.738	2287.2
2430.515	2245.2
2434.289	2226.2
2438.059	2211.2
2441.825	2176.2
2445.589	2153.2
2449.349	2134.2
2453.106	2104.2
2456.859	2092.2
2460.61	2034.2
2464.356	2037.2
2468.1	1998.2
2471.84	1991.2
2475.577	1986.2
2479.311	1972.2
2483.041	1951.2
2486.768	1939.2
2490.492	1916.2
2494.213	1929.2
2497.93	1914.2
2501.644	1907.2
2505.355	1891.2
2509.062	1884.2
2512.766	1871.2
2516.467	1873.2
2520.165	1835.2
2523.859	1835.2
2527.551	1801.2
2531.239	1804.2
2534.923	1801.2
2538.605	1790.2
2542.283	1774.2
2545.958	1770.2
2549.63	1759.2
2553.299	1758.2
2556.964	1759.2
2560.626	1768.2
2564.285	1750.2
2567.941	1757.2
2571.594	1727.2
2575.243	1732.2
2578.89	1726.2
2582.533	1692.2
2586.173	1685.2
2589.809	1665.2
2593.443	1652.2
2597.073	1613.2
2600.701	1599.2
2604.325	1599.2
2607.946	1581.2
2611.564	1605.2
2615.178	1576.2
2618.79	1553.2
2622.398	1552.2
2626.004	1537.2
2629.606	1510.2
2633.205	1497.2
2636.801	1467.2
2640.394	1459.2
2643.983	1448.2
2647.57	1419.2
2651.153	1400.2
2654.734	1361.2
2658.311	1360.2
2661.885	1339.2
2665.456	1296.2
2669.025	1308.2
2672.589	1306.2
2676.151	1245.2
2679.71	1277.2
2683.266	1229.2
2686.819	1216.2
2690.368	1192.2
2693.915	1172.2
2697.458	1125.2
2700.999	1112.2
2704.536	1092.2
2708.071	1052.2
2711.602	1034.2
2715.13	1021.2
2718.656	990.2
2722.178	983.2
2725.697	976.2
2729.214	961.2
2732.727	947.2
2736.237	952.2
2739.744	942.2
2743.249	939.2
2746.75	937.2
2750.248	951.2
2753.743	959.2
2757.236	968.2
2760.725	964.2
2764.211	975.2
2767.695	965.2
2771.175	976.2
2774.652	981.2
2778.127	977.2
2781.598	960.2
2785.067	968.2
2788.532	961.2
2791.995	953.2
2795.455	954.2
2798.911	959.2
2802.365	966.2
2805.816	957.2
2809.264	955.2
2812.709	950.2
2816.151	964.2
2819.59	955.2
2823.026	958.2
2826.46	962.2
2829.89	968.2
2833.318	972.2
2836.742	989.2
2840.164	989.2
2843.583	989.2
2846.999	1016.2
2850.412	1022.2
2853.822	1019.2
2857.229	1042.2
2860.634	1050.2
2864.035	1078.2
2867.434	1091.2
2870.83	1118.2
2874.223	1137.2
2877.613	1172.2
2881	1178.2
2884.385	1195.2
2887.766	1197.2
2891.145	1198.2
2894.521	1199.2
2897.894	1189.2
2901.264	1199.2
2904.631	1190.2
2907.996	1190.2
2911.358	1206.2
2914.717	1213.2
2918.073	1219.2
2921.426	1236.2
2924.777	1259.2
2928.124	1274.2
2931.469	1326.2
2934.811	1346.2
2938.15	1367.2
2941.487	1355.2
2944.821	1396.2
2948.152	1383.2
2951.48	1369.2
2954.805	1359.2
2958.128	1333.2
2961.447	1337.2
2964.765	1314.2
2968.079	1334.2
2971.39	1337.2
2974.699	1367.2
2978.005	1363.2
2981.308	1409.2
2984.609	1432.2
2987.907	1430.2
2991.202	1473.2
2994.494	1516.2
2997.784	1537.2
3001.07	1581.2
3004.355	1617.2
3007.636	1595.2
3010.915	1637.2
3014.191	1639.2
3017.464	1658.2
3020.734	1670.2
3024.002	1685.2
3027.267	1706.2
3030.53	1711.2
3033.789	1755.2
3037.046	1777.2
3040.301	1781.2
3043.552	1825.2
3046.801	1858.2
3050.048	1906.2
3053.291	1993.2
3056.532	2023.2
3059.771	2057.2
3063.006	2142.2
3066.239	2196.2
3069.469	2275.2
3072.697	2331.2
3075.922	2401.2
3079.144	2458.2
3082.364	2508.2
3085.581	2547.2
3088.795	2625.2
3092.007	2668.2
3095.216	2739.2
3098.423	2795.2
3101.627	2857.2
3104.828	2929.2
3108.026	2989.2
3111.222	3039.2
3114.416	3147.2
3117.607	3191.2
3120.795	3269.2
3123.98	3349.2
3127.163	3425.2
3130.344	3502.2
3133.521	3597.2
3136.696	3668.2
3139.869	3739.2
3143.039	3796.2
3146.206	3845.2
3149.371	3929.2
3152.533	3964.2
3155.693	3981.2
3158.85	3982.2
3162.005	3976.2
3165.157	4014.2
3168.306	4032.2
3171.453	4071.2
3174.597	4063.2
3177.739	4066.2
3180.878	4058.2
3184.014	4087.2
3187.149	4064.2
3190.28	4075.2
3193.409	4092.2
3196.536	4103.2
3199.659	4101.2
3202.781	4091.2
3205.9	4106.2
3209.016	4092.2
3212.13	4074.2
3215.241	4033.2
3218.35	4019.2
3221.456	3966.2
3224.56	3919.2
3227.661	3892.2
3230.76	3831.2
3233.856	3793.2
3236.95	3754.2
3240.041	3717.2
3243.13	3720.2
3246.216	3671.2
3249.3	3679.2
3252.382	3662.2
3255.46	3602.2
3258.537	3620.2
3261.611	3633.2
3264.682	3632.2
3267.751	3625.2
3270.818	3609.2
3273.882	3589.2
3276.943	3584.2
3280.002	3541.2
3283.059	3532.2
3286.113	3467.2
3289.165	3445.2
3292.214	3355.2
3295.261	3297.2
3298.306	3268.2
3301.348	3212.2
3304.387	3159.2
3307.425	3126.2
3310.459	3094.2
3313.492	3009.2
3316.521	2992.2
3319.549	2967.2
3322.574	2905.2
3325.597	2885.2
3328.617	2897.2
3331.635	2854.2
3334.65	2836.2
3337.663	2829.2
3340.674	2813.2
3343.682	2796.2
3346.688	2802.2
3349.691	2769.2
3352.692	2754.2
3355.691	2742.2
3358.687	2710.2
3361.681	2690.2
3364.673	2643.2
3367.662	2620.2
3370.649	2535.2
3373.633	2555.2
3376.615	2503.2
3379.595	2472.2
3382.572	2423.2
3385.547	2388.2
3388.52	2359.2
3391.49	2280.2
3394.458	2283.2
3397.424	2250.2
3400.387	2211.2
3403.348	2204.2
3406.307	2177.2
3409.263	2165.2
3412.217	2111.2
3415.168	2102.2
3418.118	2071.2
3421.065	2029.2
3424.009	2009.2
3426.951	1961.2
3429.891	1937.2
3432.829	1885.2
3435.764	1840.2
3438.697	1819.2
3441.628	1756.2
3444.557	1707.2
3447.483	1652.2
3450.407	1600.2
3453.328	1556.2
3456.247	1496.2
3459.164	1435.2
3462.079	1401.2
3464.991	1345.2
3467.902	1282.2
3470.809	1229.2
3473.715	1179.2
3476.618	1166.2
3479.519	1096.2
3482.418	1078.2
3485.315	1023.2
3488.209	997.2
3491.101	973.2
3493.99	943.2
3496.878	893.2
3499.763	863.2
3502.646	829.2
3505.527	788.2
3508.405	745.2
3511.281	694.2
3514.155	647.2
3517.027	620.2
3519.897	570.2
3522.764	553.2
3525.629	491.2
3528.492	461.2
3531.352	415.2
3534.211	371.2
3537.067	339.2
3539.921	303.2
3542.773	278.2
3545.622	231.2
3548.469	203.2
3551.315	178.2
3554.157	150.2
3556.998	127.2
3559.837	101.2
3562.673	64.2
3565.507	55.2
3568.339	32.2
3571.169	8.2
3573.996	-4.8
3576.822	-21.8
3579.645	-38.8
3582.466	-74.8
3585.285	-80.8
3588.101	-99.8
3590.916	-127.8
3593.728	-152.8
3596.538	-162.8
3599.346	-176.8
3602.152	-196.8
3604.956	-216.8
3607.757	-239.8
3610.556	-243.8
3613.354	-276.8
3616.149	-273.8
3618.942	-282.8
3621.732	-301.8
3624.521	-313.8
3627.307	-314.8
3630.092	-326.8
3632.874	-333.8
3635.654	-345.8
3638.432	-354.8
3641.208	-361.8
3643.982	-376.8
3646.753	-391.8
3649.523	-397.8
3652.29	-399.8
3655.055	-409.8
3657.818	-421.8
3660.579	-436.8
3663.338	-437.8
3666.095	-447.8
3668.849	-465.8
3671.602	-472.8
3674.352	-481.8
3677.101	-480.8
3679.847	-492.8
3682.591	-495.8
3685.333	-502.8
3688.073	-509.8
3690.811	-518.8
3693.547	-512.8
3696.281	-524.8
3699.013	-526.8
3701.742	-537.8
3704.47	-542.8
3707.195	-554.8
3709.919	-544.8
3712.64	-548.8
3715.359	-554.8
3718.076	-556.8
3720.792	-565.8
3723.505	-568.8
3726.216	-571.8
3728.925	-573.8
3731.632	-581.8
3734.336	-583.8
3737.039	-589.8
3739.74	-590.8
3742.439	-584.8
3745.136	-594.8
3747.83	-590.8
3750.523	-589.8
3753.213	-593.8
3755.902	-602.8
3758.589	-594.8
3761.273	-592.8
3763.956	-606.8
3766.636	-600.8
3769.315	-605.8
3771.991	-610.8
3774.665	-607.8
3777.338	-610.8
3780.008	-611.8
3782.677	-611.8
3785.343	-622.8
3788.007	-612.8
3790.67	-617.8
3793.33	-616.8
3795.989	-621.8
3798.645	-625.8
3801.299	-622.8
3803.952	-626.8
3806.602	-624.8
3809.251	-631.8
3811.897	-623.8
3814.542	-620.8
3817.184	-628.8
3819.825	-630.8
3822.463	-634.8
3825.1	-627.8
3827.735	-632.8
3830.367	-633.8
3832.998	-638.8
3835.627	-631.8
3838.253	-637.8
3840.878	-635.8
3843.501	-638.8
3846.122	-633.8
3848.741	-636.8
3851.358	-646.8
3853.973	-638.8
3856.586	-640.8
3859.197	-637.8
3861.806	-638.8
3864.414	-636.8
3867.019	-628.8
3869.622	-640.8
3872.224	-636.8
3874.823	-621.8
3877.421	-593.8
3880.016	-586.8
3882.61	-551.8
3885.202	-551.8
3887.792	-577.8
3890.38	-603.8
3892.966	-627.8
3895.55	-635.8
3898.132	-644.8
3900.713	-648.8
3903.291	-643.8
3905.868	-649.8
3908.442	-648.8
3911.015	-647.8
3913.586	-646.8
3916.155	-647.8
3918.722	-647.8
3921.287	-649.8
3923.85	-652.8
3926.411	-655.8
3928.971	-658.8
3931.528	-659.8
3934.084	-648.8
3936.638	-652.8
3939.19	-656.8
3941.74	-657.8
3944.288	-656.8
3946.834	-654.8
3949.378	-654.8
3951.921	-656.8
3954.462	-656.8
3957	-640.8
3959.537	-649.8
3962.072	-651.8
3964.606	-651.8
3967.137	-656.8
3969.667	-652.8
3972.194	-650.8
3974.72	-650.8
3977.244	-647.8
3979.766	-644.8
3982.286	-646.8
3984.805	-635.8
3987.321	-638.8
3989.836	-638.8
3992.349	-640.8
3994.86	-638.8
3997.369	-642.8
3999.877	-636.8
4002.382	-638.8
4004.886	-642.8
4007.388	-642.8
4009.888	-640.8
4012.386	-645.8
4014.883	-637.8
4017.377	-640.8
4019.87	-637.8
4022.361	-641.8
4024.85	-644.8
4027.338	-638.8
4029.823	-642.8
4032.307	-644.8
4034.789	-646.8
4037.269	-652.8
4039.747	-648.8
4042.224	-645.8
4044.699	-646.8
4047.172	-647.8
4049.643	-646.8
4052.112	-644.8
4054.58	-638.8
4057.046	-644.8
4059.51	-649.8
4061.972	-646.8
4064.432	-644.8
4066.891	-641.8
4069.348	-645.8
4071.803	-647.8
4074.256	-644.8
4076.708	-643.8
4079.158	-646.8
4081.606	-641.8
4084.052	-638.8
4086.497	-641.8
4088.939	-633.8
4091.38	-638.8
4093.819	-633.8
4096.257	-676.8
4098.693	-679.8
4101.127	-678.8
4103.559	-677.8
4105.989	-399.8
4108.418	-384.8
4110.845	-361.8
4113.27	-343.8
4115.694	-294.8
4118.115	-252.8
4120.535	-643.8
4122.954	-644.8
4125.37	-638.8
4127.785	-644.8
4130.198	-648.8
4132.609	-641.8
4135.019	-680.8
4137.427	-676.8
4139.833	-678.8
4142.237	-676.8
