Data from 2018-2-7_conc=2_RamanShift_01.txt Node
Date: Tue Feb 13 11:38:44 IST 2018
User: aro
Spectrometer: QEPB0276
Trigger mode: 0
Integration Time (sec): 3.000000E1
Scans to average: 1
Electric dark correction enabled: true
Nonlinearity correction enabled: false
Boxcar width: 0
XAxis mode: Raman Shifts
Number of Pixels in Spectrum: 1044
>>>>>Begin Spectral Data<<<<<
160.701	-154.8
166.742	25.2
172.777	558.2
178.805	2188.2
184.826	5917.2
190.841	12179.2
196.849	19188.2
202.85	23953.2
208.845	25535.2
214.833	25148.2
220.815	24796.2
226.789	24617.2
232.758	24505.2
238.719	24278.2
244.674	24019.2
250.623	23547.2
256.565	23059.2
262.5	22536.2
268.429	22170.2
274.351	21886.2
280.267	21587.2
286.176	21380.2
292.079	21141.2
297.975	20910.2
303.865	20744.2
309.748	20642.2
315.625	20441.2
321.495	20439.2
327.359	20304.2
333.217	20242.2
339.068	20222.2
344.912	20225.2
350.751	20177.2
356.583	20188.2
362.408	20127.2
368.227	20126.2
374.04	20214.2
379.847	20267.2
385.647	20314.2
391.44	20354.2
397.228	20456.2
403.009	20497.2
408.784	20609.2
414.553	20647.2
420.315	20749.2
426.071	20738.2
431.821	20755.2
437.565	20676.2
443.302	20641.2
449.033	20617.2
454.758	20550.2
460.477	20612.2
466.189	20478.2
471.896	20513.2
477.596	20419.2
483.29	20345.2
488.978	20367.2
494.66	20274.2
500.335	20083.2
506.005	19971.2
511.668	19739.2
517.325	19529.2
522.977	19298.2
528.622	19245.2
534.261	19096.2
539.894	19036.2
545.521	18986.2
551.141	18852.2
556.756	18811.2
562.365	18735.2
567.968	18650.2
573.565	18669.2
579.155	18560.2
584.74	18509.2
590.319	18423.2
595.892	18350.2
601.459	18278.2
607.02	18260.2
612.575	18073.2
618.124	18006.2
623.667	17902.2
629.204	17803.2
634.735	17684.2
640.261	17673.2
645.781	17588.2
651.294	17575.2
656.802	17600.2
662.304	17544.2
667.8	17526.2
673.29	17435.2
678.775	17430.2
684.254	17327.2
689.726	17386.2
695.193	17251.2
700.655	17195.2
706.11	17075.2
711.56	17025.2
717.004	16993.2
722.442	16894.2
727.874	16812.2
733.301	16771.2
738.722	16686.2
744.137	16672.2
749.547	16672.2
754.951	16694.2
760.349	16675.2
765.741	16703.2
771.128	16685.2
776.509	16745.2
781.885	16724.2
787.254	16729.2
792.618	16578.2
797.977	16508.2
803.33	16410.2
808.677	16322.2
814.019	16196.2
819.355	16102.2
824.686	16092.2
830.011	16039.2
835.33	16033.2
840.644	16100.2
845.952	16097.2
851.255	16145.2
856.552	16157.2
861.844	16128.2
867.13	16085.2
872.41	15984.2
877.686	15951.2
882.955	15817.2
888.219	15741.2
893.478	15530.2
898.731	15332.2
903.979	15178.2
909.221	15097.2
914.458	15030.2
919.69	15070.2
924.916	15069.2
930.136	15147.2
935.351	15166.2
940.561	15167.2
945.766	15152.2
950.965	15032.2
956.158	14931.2
961.347	14806.2
966.529	14572.2
971.707	14397.2
976.879	14344.2
982.046	14142.2
987.208	14108.2
992.364	14081.2
997.515	14184.2
1002.66	14373.2
1007.801	14473.2
1012.936	14605.2
1018.066	14634.2
1023.19	14561.2
1028.309	14603.2
1033.423	14605.2
1038.532	14443.2
1043.636	14357.2
1048.734	14163.2
1053.827	14011.2
1058.915	13908.2
1063.998	13813.2
1069.075	13747.2
1074.147	13756.2
1079.214	13783.2
1084.276	13893.2
1089.333	13994.2
1094.385	14056.2
1099.431	14094.2
1104.472	14087.2
1109.509	13977.2
1114.54	13806.2
1119.565	13666.2
1124.586	13521.2
1129.602	13327.2
1134.613	13227.2
1139.618	13213.2
1144.619	13160.2
1149.614	13177.2
1154.604	13211.2
1159.589	13266.2
1164.57	13275.2
1169.545	13292.2
1174.515	13304.2
1179.48	13194.2
1184.44	13069.2
1189.395	13061.2
1194.345	12926.2
1199.29	12877.2
1204.23	12892.2
1209.165	12978.2
1214.095	12979.2
1219.021	13077.2
1223.941	13132.2
1228.856	13142.2
1233.766	13229.2
1238.672	13270.2
1243.572	13251.2
1248.467	13180.2
1253.358	13012.2
1258.244	12831.2
1263.124	12637.2
1268	12409.2
1272.871	12288.2
1277.737	12181.2
1282.599	12095.2
1287.455	12206.2
1292.306	12169.2
1297.153	12229.2
1301.995	12290.2
1306.832	12306.2
1311.664	12318.2
1316.491	12240.2
1321.314	12116.2
1326.132	11979.2
1330.945	11706.2
1335.753	11395.2
1340.556	11158.2
1345.354	10929.2
1350.148	10758.2
1354.937	10681.2
1359.722	10730.2
1364.501	10771.2
1369.276	10934.2
1374.046	11077.2
1378.811	11183.2
1383.572	11304.2
1388.327	11324.2
1393.079	11246.2
1397.825	11152.2
1402.567	10985.2
1407.304	10830.2
1412.036	10704.2
1416.764	10664.2
1421.487	10587.2
1426.205	10470.2
1430.919	10477.2
1435.628	10501.2
1440.333	10509.2
1445.032	10496.2
1449.727	10598.2
1454.418	10515.2
1459.104	10420.2
1463.785	10187.2
1468.462	10039.2
1473.134	9798.2
1477.802	9615.2
1482.465	9456.2
1487.123	9341.2
1491.777	9390.2
1496.426	9444.2
1501.071	9518.2
1505.711	9674.2
1510.347	9836.2
1514.978	10013.2
1519.604	10143.2
1524.226	10243.2
1528.844	10251.2
1533.457	10212.2
1538.065	10220.2
1542.669	10107.2
1547.269	9985.2
1551.864	9972.2
1556.454	9948.2
1561.041	9893.2
1565.622	9873.2
1570.199	9902.2
1574.772	9971.2
1579.34	9994.2
1583.904	10112.2
1588.464	10077.2
1593.019	10094.2
1597.569	10066.2
1602.115	9981.2
1606.657	9935.2
1611.195	9862.2
1615.728	9828.2
1620.256	9762.2
1624.78	9782.2
1629.3	9759.2
1633.816	9762.2
1638.327	9815.2
1642.834	9875.2
1647.336	9901.2
1651.834	9937.2
1656.328	9933.2
1660.817	9864.2
1665.302	9746.2
1669.783	9563.2
1674.259	9393.2
1678.732	9121.2
1683.199	8806.2
1687.663	8523.2
1692.122	8306.2
1696.577	8215.2
1701.028	8195.2
1705.474	8250.2
1709.917	8331.2
1714.355	8322.2
1718.788	8311.2
1723.218	8151.2
1727.643	8029.2
1732.064	7897.2
1736.481	7695.2
1740.893	7510.2
1745.301	7320.2
1749.705	7151.2
1754.105	6901.2
1758.501	6710.2
1762.893	6515.2
1767.28	6364.2
1771.663	6224.2
1776.042	6149.2
1780.417	6112.2
1784.787	6113.2
1789.154	6161.2
1793.516	6259.2
1797.874	6407.2
1802.228	6500.2
1806.578	6600.2
1810.924	6622.2
1815.266	6535.2
1819.603	6431.2
1823.937	6337.2
1828.266	6216.2
1832.591	6117.2
1836.913	6066.2
1841.23	5986.2
1845.543	5969.2
1849.852	5932.2
1854.156	5862.2
1858.457	5883.2
1862.754	5890.2
1867.047	5873.2
1871.335	5879.2
1875.62	5859.2
1879.9	5845.2
1884.177	5812.2
1888.449	5721.2
1892.718	5662.2
1896.982	5588.2
1901.243	5557.2
1905.499	5549.2
1909.752	5550.2
1914	5514.2
1918.245	5564.2
1922.485	5606.2
1926.722	5668.2
1930.954	5715.2
1935.183	5758.2
1939.408	5835.2
1943.628	5874.2
1947.845	5894.2
1952.058	5852.2
1956.267	5806.2
1960.472	5742.2
1964.673	5645.2
1968.87	5572.2
1973.063	5459.2
1977.252	5405.2
1981.438	5342.2
1985.619	5289.2
1989.797	5229.2
1993.971	5220.2
1998.14	5175.2
2002.306	5165.2
2006.469	5119.2
2010.627	5117.2
2014.781	5127.2
2018.932	5014.2
2023.078	4986.2
2027.221	4908.2
2031.36	4853.2
2035.495	4769.2
2039.627	4724.2
2043.754	4671.2
2047.878	4596.2
2051.998	4574.2
2056.114	4570.2
2060.226	4536.2
2064.334	4550.2
2068.439	4557.2
2072.54	4614.2
2076.637	4638.2
2080.73	4657.2
2084.82	4648.2
2088.906	4735.2
2092.988	4727.2
2097.066	4696.2
2101.14	4685.2
2105.211	4607.2
2109.278	4614.2
2113.342	4582.2
2117.401	4547.2
2121.457	4528.2
2125.509	4503.2
2129.558	4462.2
2133.602	4425.2
2137.643	4446.2
2141.681	4411.2
2145.714	4375.2
2149.744	4370.2
2153.77	4296.2
2157.793	4279.2
2161.812	4228.2
2165.827	4139.2
2169.838	4115.2
2173.846	4036.2
2177.851	3983.2
2181.851	3901.2
2185.848	3863.2
2189.841	3821.2
2193.831	3777.2
2197.817	3765.2
2201.799	3748.2
2205.778	3723.2
2209.753	3744.2
2213.725	3694.2
2217.693	3676.2
2221.657	3678.2
2225.618	3656.2
2229.575	3614.2
2233.529	3594.2
2237.479	3562.2
2241.425	3532.2
2245.368	3490.2
2249.307	3442.2
2253.243	3399.2
2257.175	3369.2
2261.104	3307.2
2265.029	3261.2
2268.95	3198.2
2272.868	3180.2
2276.783	3169.2
2280.694	3109.2
2284.601	3117.2
2288.505	3049.2
2292.405	3039.2
2296.302	3021.2
2300.195	2971.2
2304.085	2965.2
2307.971	2913.2
2311.854	2872.2
2315.734	2841.2
2319.609	2787.2
2323.482	2735.2
2327.351	2728.2
2331.216	2698.2
2335.078	2711.2
2338.937	2686.2
2342.792	2682.2
2346.643	2650.2
2350.492	2688.2
2354.336	2673.2
2358.178	2652.2
2362.015	2685.2
2365.85	2691.2
2369.681	2679.2
2373.508	2668.2
2377.333	2675.2
2381.153	2665.2
2384.971	2665.2
2388.785	2648.2
2392.595	2598.2
2396.402	2614.2
2400.206	2582.2
2404.007	2546.2
2407.804	2561.2
2411.597	2527.2
2415.388	2504.2
2419.174	2504.2
2422.958	2474.2
2426.738	2479.2
2430.515	2426.2
2434.289	2434.2
2438.059	2398.2
2441.825	2384.2
2445.589	2386.2
2449.349	2316.2
2453.106	2295.2
2456.859	2288.2
2460.61	2243.2
2464.356	2225.2
2468.1	2207.2
2471.84	2190.2
2475.577	2159.2
2479.311	2146.2
2483.041	2128.2
2486.768	2126.2
2490.492	2127.2
2494.213	2112.2
2497.93	2115.2
2501.644	2121.2
2505.355	2079.2
2509.062	2081.2
2512.766	2075.2
2516.467	2044.2
2520.165	2044.2
2523.859	2015.2
2527.551	2002.2
2531.239	1994.2
2534.923	1986.2
2538.605	1977.2
2542.283	1962.2
2545.958	1980.2
2549.63	1967.2
2553.299	1954.2
2556.964	1943.2
2560.626	1950.2
2564.285	1942.2
2567.941	1932.2
2571.594	1918.2
2575.243	1889.2
2578.89	1890.2
2582.533	1875.2
2586.173	1865.2
2589.809	1839.2
2593.443	1818.2
2597.073	1814.2
2600.701	1812.2
2604.325	1779.2
2607.946	1814.2
2611.564	1767.2
2615.178	1762.2
2618.79	1754.2
2622.398	1713.2
2626.004	1708.2
2629.606	1677.2
2633.205	1645.2
2636.801	1614.2
2640.394	1619.2
2643.983	1574.2
2647.57	1573.2
2651.153	1550.2
2654.734	1521.2
2658.311	1493.2
2661.885	1487.2
2665.456	1475.2
2669.025	1455.2
2672.589	1434.2
2676.151	1410.2
2679.71	1411.2
2683.266	1374.2
2686.819	1335.2
2690.368	1327.2
2693.915	1299.2
2697.458	1284.2
2700.999	1234.2
2704.536	1204.2
2708.071	1198.2
2711.602	1144.2
2715.13	1124.2
2718.656	1106.2
2722.178	1067.2
2725.697	1081.2
2729.214	1063.2
2732.727	1045.2
2736.237	1058.2
2739.744	1040.2
2743.249	1054.2
2746.75	1072.2
2750.248	1075.2
2753.743	1076.2
2757.236	1099.2
2760.725	1079.2
2764.211	1126.2
2767.695	1093.2
2771.175	1101.2
2774.652	1096.2
2778.127	1101.2
2781.598	1095.2
2785.067	1072.2
2788.532	1080.2
2791.995	1077.2
2795.455	1077.2
2798.911	1066.2
2802.365	1080.2
2805.816	1071.2
2809.264	1069.2
2812.709	1062.2
2816.151	1068.2
2819.59	1090.2
2823.026	1069.2
2826.46	1057.2
2829.89	1054.2
2833.318	1064.2
2836.742	1059.2
2840.164	1075.2
2843.583	1086.2
2846.999	1094.2
2850.412	1114.2
2853.822	1113.2
2857.229	1135.2
2860.634	1120.2
2864.035	1161.2
2867.434	1166.2
2870.83	1173.2
2874.223	1206.2
2877.613	1212.2
2881	1241.2
2884.385	1232.2
2887.766	1234.2
2891.145	1237.2
2894.521	1228.2
2897.894	1227.2
2901.264	1225.2
2904.631	1235.2
2907.996	1209.2
2911.358	1227.2
2914.717	1231.2
2918.073	1254.2
2921.426	1241.2
2924.777	1268.2
2928.124	1289.2
2931.469	1308.2
2934.811	1332.2
2938.15	1337.2
2941.487	1343.2
2944.821	1346.2
2948.152	1348.2
2951.48	1356.2
2954.805	1339.2
2958.128	1312.2
2961.447	1283.2
2964.765	1288.2
2968.079	1300.2
2971.39	1296.2
2974.699	1308.2
2978.005	1365.2
2981.308	1365.2
2984.609	1394.2
2987.907	1413.2
2991.202	1437.2
2994.494	1475.2
2997.784	1485.2
3001.07	1515.2
3004.355	1566.2
3007.636	1583.2
3010.915	1588.2
3014.191	1607.2
3017.464	1590.2
3020.734	1603.2
3024.002	1604.2
3027.267	1627.2
3030.53	1647.2
3033.789	1652.2
3037.046	1668.2
3040.301	1682.2
3043.552	1736.2
3046.801	1771.2
3050.048	1809.2
3053.291	1843.2
3056.532	1906.2
3059.771	1935.2
3063.006	1988.2
3066.239	2066.2
3069.469	2136.2
3072.697	2166.2
3075.922	2204.2
3079.144	2261.2
3082.364	2319.2
3085.581	2371.2
3088.795	2439.2
3092.007	2470.2
3095.216	2526.2
3098.423	2567.2
3101.627	2637.2
3104.828	2679.2
3108.026	2733.2
3111.222	2819.2
3114.416	2868.2
3117.607	2935.2
3120.795	2994.2
3123.98	3055.2
3127.163	3144.2
3130.344	3224.2
3133.521	3281.2
3136.696	3348.2
3139.869	3433.2
3143.039	3492.2
3146.206	3532.2
3149.371	3557.2
3152.533	3578.2
3155.693	3634.2
3158.85	3650.2
3162.005	3650.2
3165.157	3691.2
3168.306	3698.2
3171.453	3687.2
3174.597	3686.2
3177.739	3710.2
3180.878	3673.2
3184.014	3720.2
3187.149	3679.2
3190.28	3704.2
3193.409	3700.2
3196.536	3756.2
3199.659	3732.2
3202.781	3724.2
3205.9	3727.2
3209.016	3716.2
3212.13	3698.2
3215.241	3667.2
3218.35	3624.2
3221.456	3614.2
3224.56	3580.2
3227.661	3516.2
3230.76	3501.2
3233.856	3471.2
3236.95	3416.2
3240.041	3392.2
3243.13	3377.2
3246.216	3346.2
3249.3	3327.2
3252.382	3332.2
3255.46	3293.2
3258.537	3286.2
3261.611	3300.2
3264.682	3285.2
3267.751	3281.2
3270.818	3277.2
3273.882	3249.2
3276.943	3233.2
3280.002	3199.2
3283.059	3144.2
3286.113	3161.2
3289.165	3125.2
3292.214	3067.2
3295.261	3008.2
3298.306	2954.2
3301.348	2919.2
3304.387	2871.2
3307.425	2828.2
3310.459	2785.2
3313.492	2740.2
3316.521	2703.2
3319.549	2679.2
3322.574	2654.2
3325.597	2602.2
3328.617	2597.2
3331.635	2592.2
3334.65	2562.2
3337.663	2545.2
3340.674	2551.2
3343.682	2540.2
3346.688	2521.2
3349.691	2511.2
3352.692	2469.2
3355.691	2466.2
3358.687	2438.2
3361.681	2416.2
3364.673	2388.2
3367.662	2355.2
3370.649	2337.2
3373.633	2312.2
3376.615	2279.2
3379.595	2216.2
3382.572	2194.2
3385.547	2128.2
3388.52	2118.2
3391.49	2092.2
3394.458	2071.2
3397.424	2031.2
3400.387	2009.2
3403.348	1968.2
3406.307	1956.2
3409.263	1947.2
3412.217	1913.2
3415.168	1901.2
3418.118	1872.2
3421.065	1843.2
3424.009	1813.2
3426.951	1791.2
3429.891	1751.2
3432.829	1711.2
3435.764	1663.2
3438.697	1596.2
3441.628	1574.2
3444.557	1546.2
3447.483	1485.2
3450.407	1420.2
3453.328	1379.2
3456.247	1343.2
3459.164	1288.2
3462.079	1235.2
3464.991	1207.2
3467.902	1163.2
3470.809	1117.2
3473.715	1059.2
3476.618	1017.2
3479.519	987.2
3482.418	968.2
3485.315	926.2
3488.209	890.2
3491.101	863.2
3493.99	823.2
3496.878	784.2
3499.763	761.2
3502.646	712.2
3505.527	697.2
3508.405	645.2
3511.281	608.2
3514.155	590.2
3517.027	540.2
3519.897	519.2
3522.764	475.2
3525.629	417.2
3528.492	391.2
3531.352	358.2
3534.211	302.2
3537.067	277.2
3539.921	249.2
3542.773	220.2
3545.622	197.2
3548.469	168.2
3551.315	122.2
3554.157	105.2
3556.998	88.2
3559.837	76.2
3562.673	30.2
3565.507	30.2
3568.339	-1.8
3571.169	-10.8
3573.996	-34.8
3576.822	-52.8
3579.645	-73.8
3582.466	-90.8
3585.285	-111.8
3588.101	-122.8
3590.916	-143.8
3593.728	-170.8
3596.538	-179.8
3599.346	-206.8
3602.152	-212.8
3604.956	-225.8
3607.757	-239.8
3610.556	-252.8
3613.354	-267.8
3616.149	-275.8
3618.942	-290.8
3621.732	-306.8
3624.521	-307.8
3627.307	-322.8
3630.092	-333.8
3632.874	-340.8
3635.654	-342.8
3638.432	-353.8
3641.208	-368.8
3643.982	-377.8
3646.753	-381.8
3649.523	-387.8
3652.29	-398.8
3655.055	-401.8
3657.818	-415.8
3660.579	-420.8
3663.338	-424.8
3666.095	-440.8
3668.849	-451.8
3671.602	-463.8
3674.352	-464.8
3677.101	-470.8
3679.847	-485.8
3682.591	-481.8
3685.333	-484.8
3688.073	-490.8
3690.811	-498.8
3693.547	-501.8
3696.281	-509.8
3699.013	-512.8
3701.742	-515.8
3704.47	-516.8
3707.195	-522.8
3709.919	-528.8
3712.64	-533.8
3715.359	-535.8
3718.076	-534.8
3720.792	-540.8
3723.505	-544.8
3726.216	-545.8
3728.925	-548.8
3731.632	-561.8
3734.336	-562.8
3737.039	-564.8
3739.74	-567.8
3742.439	-562.8
3745.136	-569.8
3747.83	-566.8
3750.523	-563.8
3753.213	-578.8
3755.902	-570.8
3758.589	-571.8
3761.273	-570.8
3763.956	-577.8
3766.636	-575.8
3769.315	-583.8
3771.991	-581.8
3774.665	-582.8
3777.338	-586.8
3780.008	-589.8
3782.677	-590.8
3785.343	-593.8
3788.007	-582.8
3790.67	-586.8
3793.33	-598.8
3795.989	-596.8
3798.645	-599.8
3801.299	-599.8
3803.952	-596.8
3806.602	-600.8
3809.251	-606.8
3811.897	-597.8
3814.542	-602.8
3817.184	-597.8
3819.825	-604.8
3822.463	-601.8
3825.1	-603.8
3827.735	-609.8
3830.367	-607.8
3832.998	-610.8
3835.627	-613.8
3838.253	-612.8
3840.878	-614.8
3843.501	-610.8
3846.122	-611.8
3848.741	-611.8
3851.358	-610.8
3853.973	-615.8
3856.586	-607.8
3859.197	-617.8
3861.806	-616.8
3864.414	-608.8
3867.019	-610.8
3869.622	-619.8
3872.224	-610.8
3874.823	-601.8
3877.421	-588.8
3880.016	-577.8
3882.61	-545.8
3885.202	-557.8
3887.792	-569.8
3890.38	-589.8
3892.966	-607.8
3895.55	-611.8
3898.132	-617.8
3900.713	-628.8
3903.291	-626.8
3905.868	-631.8
3908.442	-625.8
3911.015	-625.8
3913.586	-627.8
3916.155	-627.8
3918.722	-625.8
3921.287	-626.8
3923.85	-625.8
3926.411	-622.8
3928.971	-626.8
3931.528	-627.8
3934.084	-625.8
3936.638	-628.8
3939.19	-630.8
3941.74	-638.8
3944.288	-633.8
3946.834	-631.8
3949.378	-632.8
3951.921	-631.8
3954.462	-626.8
3957	-632.8
3959.537	-623.8
3962.072	-626.8
3964.606	-623.8
3967.137	-632.8
3969.667	-626.8
3972.194	-626.8
3974.72	-623.8
3977.244	-615.8
3979.766	-618.8
3982.286	-623.8
3984.805	-608.8
3987.321	-614.8
3989.836	-615.8
3992.349	-616.8
3994.86	-612.8
3997.369	-626.8
3999.877	-616.8
4002.382	-610.8
4004.886	-620.8
4007.388	-615.8
4009.888	-609.8
4012.386	-612.8
4014.883	-612.8
4017.377	-611.8
4019.87	-615.8
4022.361	-621.8
4024.85	-617.8
4027.338	-617.8
4029.823	-618.8
4032.307	-621.8
4034.789	-621.8
4037.269	-627.8
4039.747	-625.8
4042.224	-610.8
4044.699	-617.8
4047.172	-623.8
4049.643	-618.8
4052.112	-614.8
4054.58	-614.8
4057.046	-622.8
4059.51	-619.8
4061.972	-621.8
4064.432	-620.8
4066.891	-619.8
4069.348	-623.8
4071.803	-622.8
4074.256	-618.8
4076.708	-618.8
4079.158	-617.8
4081.606	-613.8
4084.052	-620.8
4086.497	-619.8
4088.939	-607.8
4091.38	-613.8
4093.819	-618.8
4096.257	-651.8
4098.693	-653.8
4101.127	-653.8
4103.559	-656.8
4105.989	-390.8
4108.418	-378.8
4110.845	-348.8
4113.27	-325.8
4115.694	-287.8
4118.115	-238.8
4120.535	-613.8
4122.954	-620.8
4125.37	-618.8
4127.785	-614.8
4130.198	-620.8
4132.609	-619.8
4135.019	-657.8
4137.427	-657.8
4139.833	-648.8
4142.237	-652.8
