Data from 2018-2-7_conc=3_RamanShift_19.txt Node
Date: Tue Feb 13 12:34:14 IST 2018
User: aro
Spectrometer: QEPB0276
Trigger mode: 0
Integration Time (sec): 3.000000E1
Scans to average: 1
Electric dark correction enabled: true
Nonlinearity correction enabled: false
Boxcar width: 0
XAxis mode: Raman Shifts
Number of Pixels in Spectrum: 1044
>>>>>Begin Spectral Data<<<<<
160.701	-171.1
166.742	37.9
172.777	606.9
178.805	2339.9
184.826	6405.9
190.841	13217.9
196.849	20976.9
202.85	26324.9
208.845	28009.9
214.833	27659.9
220.815	27200.9
226.789	27029.9
232.758	26886.9
238.719	26683.9
244.674	26400.9
250.623	25903.9
256.565	25399.9
262.5	24878.9
268.429	24489.9
274.351	24093.9
280.267	23770.9
286.176	23445.9
292.079	23234.9
297.975	23061.9
303.865	22830.9
309.748	22733.9
315.625	22508.9
321.495	22440.9
327.359	22299.9
333.217	22284.9
339.068	22259.9
344.912	22236.9
350.751	22252.9
356.583	22190.9
362.408	22263.9
368.227	22178.9
374.04	22227.9
379.847	22277.9
385.647	22339.9
391.44	22389.9
397.228	22532.9
403.009	22589.9
408.784	22721.9
414.553	22798.9
420.315	22794.9
426.071	22822.9
431.821	22767.9
437.565	22768.9
443.302	22710.9
449.033	22698.9
454.758	22644.9
460.477	22605.9
466.189	22558.9
471.896	22503.9
477.596	22475.9
483.29	22359.9
488.978	22437.9
494.66	22319.9
500.335	22201.9
506.005	21972.9
511.668	21733.9
517.325	21517.9
522.977	21329.9
528.622	21201.9
534.261	21043.9
539.894	20979.9
545.521	20938.9
551.141	20791.9
556.756	20736.9
562.365	20655.9
567.968	20609.9
573.565	20535.9
579.155	20368.9
584.74	20306.9
590.319	20330.9
595.892	20161.9
601.459	20128.9
607.02	20037.9
612.575	19955.9
618.124	19841.9
623.667	19740.9
629.204	19616.9
634.735	19541.9
640.261	19476.9
645.781	19411.9
651.294	19384.9
656.802	19328.9
662.304	19368.9
667.8	19290.9
673.29	19243.9
678.775	19221.9
684.254	19169.9
689.726	19115.9
695.193	19033.9
700.655	18934.9
706.11	18827.9
711.56	18791.9
717.004	18652.9
722.442	18631.9
727.874	18543.9
733.301	18539.9
738.722	18441.9
744.137	18391.9
749.547	18372.9
754.951	18390.9
760.349	18402.9
765.741	18374.9
771.128	18377.9
776.509	18452.9
781.885	18398.9
787.254	18372.9
792.618	18305.9
797.977	18163.9
803.33	18015.9
808.677	17944.9
814.019	17817.9
819.355	17762.9
824.686	17675.9
830.011	17655.9
835.33	17662.9
840.644	17657.9
845.952	17717.9
851.255	17773.9
856.552	17788.9
861.844	17722.9
867.13	17702.9
872.41	17609.9
877.686	17571.9
882.955	17406.9
888.219	17247.9
893.478	17067.9
898.731	16894.9
903.979	16675.9
909.221	16533.9
914.458	16498.9
919.69	16486.9
924.916	16515.9
930.136	16636.9
935.351	16656.9
940.561	16657.9
945.766	16573.9
950.965	16536.9
956.158	16422.9
961.347	16235.9
966.529	16001.9
971.707	15839.9
976.879	15679.9
982.046	15504.9
987.208	15469.9
992.364	15493.9
997.515	15590.9
1002.66	15721.9
1007.801	15886.9
1012.936	15989.9
1018.066	15991.9
1023.19	15951.9
1028.309	16005.9
1033.423	15882.9
1038.532	15842.9
1043.636	15733.9
1048.734	15537.9
1053.827	15344.9
1058.915	15121.9
1063.998	15103.9
1069.075	15059.9
1074.147	15119.9
1079.214	15119.9
1084.276	15194.9
1089.333	15306.9
1094.385	15353.9
1099.431	15410.9
1104.472	15433.9
1109.509	15354.9
1114.54	15109.9
1119.565	14938.9
1124.586	14751.9
1129.602	14636.9
1134.613	14502.9
1139.618	14429.9
1144.619	14354.9
1149.614	14439.9
1154.604	14468.9
1159.589	14433.9
1164.57	14517.9
1169.545	14499.9
1174.515	14547.9
1179.48	14406.9
1184.44	14340.9
1189.395	14284.9
1194.345	14087.9
1199.29	14071.9
1204.23	14080.9
1209.165	14150.9
1214.095	14150.9
1219.021	14287.9
1223.941	14353.9
1228.856	14391.9
1233.766	14458.9
1238.672	14489.9
1243.572	14456.9
1248.467	14325.9
1253.358	14189.9
1258.244	14000.9
1263.124	13744.9
1268	13579.9
1272.871	13453.9
1277.737	13316.9
1282.599	13253.9
1287.455	13319.9
1292.306	13286.9
1297.153	13318.9
1301.995	13385.9
1306.832	13442.9
1311.664	13390.9
1316.491	13359.9
1321.314	13243.9
1326.132	13043.9
1330.945	12760.9
1335.753	12457.9
1340.556	12090.9
1345.354	11862.9
1350.148	11660.9
1354.937	11580.9
1359.722	11580.9
1364.501	11667.9
1369.276	11837.9
1374.046	11973.9
1378.811	12134.9
1383.572	12210.9
1388.327	12305.9
1393.079	12238.9
1397.825	12095.9
1402.567	11883.9
1407.304	11775.9
1412.036	11659.9
1416.764	11552.9
1421.487	11499.9
1426.205	11405.9
1430.919	11405.9
1435.628	11392.9
1440.333	11417.9
1445.032	11481.9
1449.727	11480.9
1454.418	11444.9
1459.104	11293.9
1463.785	11090.9
1468.462	10849.9
1473.134	10598.9
1477.802	10381.9
1482.465	10222.9
1487.123	10111.9
1491.777	10089.9
1496.426	10126.9
1501.071	10236.9
1505.711	10404.9
1510.347	10564.9
1514.978	10754.9
1519.604	10892.9
1524.226	11036.9
1528.844	11067.9
1533.457	10984.9
1538.065	10964.9
1542.669	10913.9
1547.269	10785.9
1551.864	10727.9
1556.454	10698.9
1561.041	10679.9
1565.622	10726.9
1570.199	10684.9
1574.772	10773.9
1579.34	10803.9
1583.904	10877.9
1588.464	10940.9
1593.019	10921.9
1597.569	10860.9
1602.115	10800.9
1606.657	10737.9
1611.195	10655.9
1615.728	10606.9
1620.256	10527.9
1624.78	10541.9
1629.3	10578.9
1633.816	10591.9
1638.327	10616.9
1642.834	10646.9
1647.336	10756.9
1651.834	10716.9
1656.328	10715.9
1660.817	10647.9
1665.302	10507.9
1669.783	10362.9
1674.259	10120.9
1678.732	9834.9
1683.199	9479.9
1687.663	9140.9
1692.122	8863.9
1696.577	8715.9
1701.028	8701.9
1705.474	8769.9
1709.917	8910.9
1714.355	8906.9
1718.788	8887.9
1723.218	8742.9
1727.643	8606.9
1732.064	8414.9
1736.481	8241.9
1740.893	8054.9
1745.301	7815.9
1749.705	7608.9
1754.105	7407.9
1758.501	7180.9
1762.893	6995.9
1767.28	6839.9
1771.663	6629.9
1776.042	6514.9
1780.417	6494.9
1784.787	6483.9
1789.154	6562.9
1793.516	6626.9
1797.874	6784.9
1802.228	6931.9
1806.578	7010.9
1810.924	6960.9
1815.266	6946.9
1819.603	6844.9
1823.937	6741.9
1828.266	6600.9
1832.591	6520.9
1836.913	6410.9
1841.23	6409.9
1845.543	6332.9
1849.852	6283.9
1854.156	6291.9
1858.457	6281.9
1862.754	6293.9
1867.047	6215.9
1871.335	6214.9
1875.62	6216.9
1879.9	6217.9
1884.177	6166.9
1888.449	6076.9
1892.718	6044.9
1896.982	5936.9
1901.243	5888.9
1905.499	5825.9
1909.752	5820.9
1914	5828.9
1918.245	5887.9
1922.485	5885.9
1926.722	5952.9
1930.954	5997.9
1935.183	6065.9
1939.408	6110.9
1943.628	6174.9
1947.845	6151.9
1952.058	6191.9
1956.267	6105.9
1960.472	6020.9
1964.673	5968.9
1968.87	5904.9
1973.063	5773.9
1977.252	5708.9
1981.438	5655.9
1985.619	5597.9
1989.797	5540.9
1993.971	5494.9
1998.14	5519.9
2002.306	5488.9
2006.469	5445.9
2010.627	5445.9
2014.781	5370.9
2018.932	5347.9
2023.078	5290.9
2027.221	5233.9
2031.36	5109.9
2035.495	5065.9
2039.627	4956.9
2043.754	4955.9
2047.878	4853.9
2051.998	4840.9
2056.114	4806.9
2060.226	4809.9
2064.334	4808.9
2068.439	4809.9
2072.54	4853.9
2076.637	4905.9
2080.73	4904.9
2084.82	4933.9
2088.906	4960.9
2092.988	4963.9
2097.066	4911.9
2101.14	4943.9
2105.211	4883.9
2109.278	4880.9
2113.342	4839.9
2117.401	4823.9
2121.457	4781.9
2125.509	4767.9
2129.558	4732.9
2133.602	4681.9
2137.643	4677.9
2141.681	4637.9
2145.714	4634.9
2149.744	4596.9
2153.77	4589.9
2157.793	4534.9
2161.812	4488.9
2165.827	4397.9
2169.838	4332.9
2173.846	4286.9
2177.851	4221.9
2181.851	4139.9
2185.848	4078.9
2189.841	4060.9
2193.831	4003.9
2197.817	3979.9
2201.799	3974.9
2205.778	3958.9
2209.753	3935.9
2213.725	3906.9
2217.693	3937.9
2221.657	3913.9
2225.618	3893.9
2229.575	3867.9
2233.529	3824.9
2237.479	3795.9
2241.425	3744.9
2245.368	3709.9
2249.307	3647.9
2253.243	3599.9
2257.175	3550.9
2261.104	3502.9
2265.029	3462.9
2268.95	3433.9
2272.868	3389.9
2276.783	3346.9
2280.694	3316.9
2284.601	3310.9
2288.505	3245.9
2292.405	3221.9
2296.302	3208.9
2300.195	3180.9
2304.085	3135.9
2307.971	3084.9
2311.854	3039.9
2315.734	2992.9
2319.609	2963.9
2323.482	2908.9
2327.351	2894.9
2331.216	2897.9
2335.078	2865.9
2338.937	2831.9
2342.792	2820.9
2346.643	2830.9
2350.492	2844.9
2354.336	2815.9
2358.178	2821.9
2362.015	2836.9
2365.85	2847.9
2369.681	2859.9
2373.508	2862.9
2377.333	2854.9
2381.153	2836.9
2384.971	2846.9
2388.785	2814.9
2392.595	2791.9
2396.402	2760.9
2400.206	2756.9
2404.007	2732.9
2407.804	2690.9
2411.597	2668.9
2415.388	2658.9
2419.174	2646.9
2422.958	2624.9
2426.738	2603.9
2430.515	2585.9
2434.289	2603.9
2438.059	2562.9
2441.825	2561.9
2445.589	2498.9
2449.349	2452.9
2453.106	2410.9
2456.859	2392.9
2460.61	2376.9
2464.356	2352.9
2468.1	2326.9
2471.84	2287.9
2475.577	2289.9
2479.311	2298.9
2483.041	2257.9
2486.768	2246.9
2490.492	2246.9
2494.213	2224.9
2497.93	2268.9
2501.644	2240.9
2505.355	2214.9
2509.062	2199.9
2512.766	2165.9
2516.467	2175.9
2520.165	2154.9
2523.859	2132.9
2527.551	2115.9
2531.239	2110.9
2534.923	2101.9
2538.605	2066.9
2542.283	2081.9
2545.958	2072.9
2549.63	2057.9
2553.299	2052.9
2556.964	2060.9
2560.626	2044.9
2564.285	2045.9
2567.941	2020.9
2571.594	2015.9
2575.243	2013.9
2578.89	1997.9
2582.533	1958.9
2586.173	1957.9
2589.809	1937.9
2593.443	1928.9
2597.073	1900.9
2600.701	1874.9
2604.325	1858.9
2607.946	1872.9
2611.564	1862.9
2615.178	1848.9
2618.79	1841.9
2622.398	1804.9
2626.004	1799.9
2629.606	1780.9
2633.205	1747.9
2636.801	1742.9
2640.394	1717.9
2643.983	1697.9
2647.57	1636.9
2651.153	1632.9
2654.734	1599.9
2658.311	1586.9
2661.885	1556.9
2665.456	1528.9
2669.025	1508.9
2672.589	1507.9
2676.151	1497.9
2679.71	1470.9
2683.266	1432.9
2686.819	1417.9
2690.368	1372.9
2693.915	1357.9
2697.458	1336.9
2700.999	1302.9
2704.536	1278.9
2708.071	1235.9
2711.602	1214.9
2715.13	1174.9
2718.656	1162.9
2722.178	1128.9
2725.697	1122.9
2729.214	1102.9
2732.727	1099.9
2736.237	1091.9
2739.744	1086.9
2743.249	1091.9
2746.75	1082.9
2750.248	1112.9
2753.743	1109.9
2757.236	1150.9
2760.725	1136.9
2764.211	1151.9
2767.695	1156.9
2771.175	1157.9
2774.652	1145.9
2778.127	1130.9
2781.598	1124.9
2785.067	1132.9
2788.532	1130.9
2791.995	1112.9
2795.455	1108.9
2798.911	1118.9
2802.365	1113.9
2805.816	1122.9
2809.264	1110.9
2812.709	1113.9
2816.151	1112.9
2819.59	1100.9
2823.026	1098.9
2826.46	1097.9
2829.89	1110.9
2833.318	1101.9
2836.742	1115.9
2840.164	1146.9
2843.583	1145.9
2846.999	1162.9
2850.412	1155.9
2853.822	1176.9
2857.229	1188.9
2860.634	1176.9
2864.035	1218.9
2867.434	1236.9
2870.83	1244.9
2874.223	1258.9
2877.613	1301.9
2881	1312.9
2884.385	1321.9
2887.766	1317.9
2891.145	1330.9
2894.521	1313.9
2897.894	1320.9
2901.264	1325.9
2904.631	1309.9
2907.996	1307.9
2911.358	1313.9
2914.717	1327.9
2918.073	1322.9
2921.426	1361.9
2924.777	1374.9
2928.124	1389.9
2931.469	1417.9
2934.811	1417.9
2938.15	1446.9
2941.487	1447.9
2944.821	1481.9
2948.152	1448.9
2951.48	1448.9
2954.805	1426.9
2958.128	1427.9
2961.447	1411.9
2964.765	1392.9
2968.079	1397.9
2971.39	1432.9
2974.699	1403.9
2978.005	1445.9
2981.308	1486.9
2984.609	1508.9
2987.907	1499.9
2991.202	1559.9
2994.494	1579.9
2997.784	1607.9
3001.07	1660.9
3004.355	1671.9
3007.636	1706.9
3010.915	1706.9
3014.191	1731.9
3017.464	1730.9
3020.734	1747.9
3024.002	1772.9
3027.267	1745.9
3030.53	1776.9
3033.789	1810.9
3037.046	1807.9
3040.301	1849.9
3043.552	1898.9
3046.801	1955.9
3050.048	1978.9
3053.291	2039.9
3056.532	2086.9
3059.771	2119.9
3063.006	2197.9
3066.239	2276.9
3069.469	2341.9
3072.697	2377.9
3075.922	2436.9
3079.144	2497.9
3082.364	2574.9
3085.581	2604.9
3088.795	2680.9
3092.007	2725.9
3095.216	2787.9
3098.423	2838.9
3101.627	2880.9
3104.828	2952.9
3108.026	3019.9
3111.222	3086.9
3114.416	3180.9
3117.607	3249.9
3120.795	3304.9
3123.98	3378.9
3127.163	3466.9
3130.344	3543.9
3133.521	3658.9
3136.696	3706.9
3139.869	3790.9
3143.039	3849.9
3146.206	3898.9
3149.371	3960.9
3152.533	3968.9
3155.693	4009.9
3158.85	4027.9
3162.005	4050.9
3165.157	4054.9
3168.306	4071.9
3171.453	4055.9
3174.597	4121.9
3177.739	4089.9
3180.878	4105.9
3184.014	4129.9
3187.149	4073.9
3190.28	4111.9
3193.409	4136.9
3196.536	4120.9
3199.659	4093.9
3202.781	4118.9
3205.9	4109.9
3209.016	4124.9
3212.13	4079.9
3215.241	4041.9
3218.35	4009.9
3221.456	3981.9
3224.56	3947.9
3227.661	3903.9
3230.76	3855.9
3233.856	3825.9
3236.95	3785.9
3240.041	3727.9
3243.13	3717.9
3246.216	3721.9
3249.3	3663.9
3252.382	3657.9
3255.46	3634.9
3258.537	3658.9
3261.611	3628.9
3264.682	3608.9
3267.751	3621.9
3270.818	3659.9
3273.882	3614.9
3276.943	3594.9
3280.002	3555.9
3283.059	3515.9
3286.113	3485.9
3289.165	3432.9
3292.214	3375.9
3295.261	3348.9
3298.306	3288.9
3301.348	3221.9
3304.387	3156.9
3307.425	3094.9
3310.459	3060.9
3313.492	3017.9
3316.521	2990.9
3319.549	2950.9
3322.574	2923.9
3325.597	2891.9
3328.617	2870.9
3331.635	2820.9
3334.65	2840.9
3337.663	2817.9
3340.674	2813.9
3343.682	2805.9
3346.688	2791.9
3349.691	2762.9
3352.692	2737.9
3355.691	2734.9
3358.687	2709.9
3361.681	2697.9
3364.673	2625.9
3367.662	2621.9
3370.649	2582.9
3373.633	2537.9
3376.615	2491.9
3379.595	2459.9
3382.572	2412.9
3385.547	2393.9
3388.52	2359.9
3391.49	2325.9
3394.458	2272.9
3397.424	2257.9
3400.387	2231.9
3403.348	2190.9
3406.307	2170.9
3409.263	2124.9
3412.217	2101.9
3415.168	2103.9
3418.118	2065.9
3421.065	2054.9
3424.009	2014.9
3426.951	1960.9
3429.891	1957.9
3432.829	1891.9
3435.764	1839.9
3438.697	1798.9
3441.628	1747.9
3444.557	1691.9
3447.483	1660.9
3450.407	1570.9
3453.328	1531.9
3456.247	1500.9
3459.164	1442.9
3462.079	1368.9
3464.991	1339.9
3467.902	1251.9
3470.809	1229.9
3473.715	1180.9
3476.618	1145.9
3479.519	1084.9
3482.418	1047.9
3485.315	1016.9
3488.209	971.9
3491.101	936.9
3493.99	922.9
3496.878	873.9
3499.763	832.9
3502.646	806.9
3505.527	758.9
3508.405	727.9
3511.281	675.9
3514.155	650.9
3517.027	586.9
3519.897	557.9
3522.764	526.9
3525.629	479.9
3528.492	442.9
3531.352	373.9
3534.211	354.9
3537.067	302.9
3539.921	279.9
3542.773	247.9
3545.622	206.9
3548.469	190.9
3551.315	145.9
3554.157	127.9
3556.998	101.9
3559.837	67.9
3562.673	45.9
3565.507	36.9
3568.339	18.9
3571.169	-16.1
3573.996	-19.1
3576.822	-61.1
3579.645	-65.1
3582.466	-91.1
3585.285	-104.1
3588.101	-130.1
3590.916	-155.1
3593.728	-177.1
3596.538	-190.1
3599.346	-214.1
3602.152	-214.1
3604.956	-238.1
3607.757	-255.1
3610.556	-273.1
3613.354	-279.1
3616.149	-283.1
3618.942	-308.1
3621.732	-313.1
3624.521	-330.1
3627.307	-330.1
3630.092	-356.1
3632.874	-362.1
3635.654	-375.1
3638.432	-379.1
3641.208	-390.1
3643.982	-396.1
3646.753	-406.1
3649.523	-416.1
3652.29	-431.1
3655.055	-427.1
3657.818	-442.1
3660.579	-450.1
3663.338	-466.1
3666.095	-469.1
3668.849	-486.1
3671.602	-479.1
3674.352	-493.1
3677.101	-504.1
3679.847	-518.1
3682.591	-514.1
3685.333	-525.1
3688.073	-529.1
3690.811	-538.1
3693.547	-535.1
3696.281	-549.1
3699.013	-547.1
3701.742	-559.1
3704.47	-559.1
3707.195	-566.1
3709.919	-572.1
3712.64	-571.1
3715.359	-580.1
3718.076	-574.1
3720.792	-588.1
3723.505	-578.1
3726.216	-585.1
3728.925	-590.1
3731.632	-599.1
3734.336	-598.1
3737.039	-609.1
3739.74	-603.1
3742.439	-612.1
3745.136	-611.1
3747.83	-610.1
3750.523	-610.1
3753.213	-621.1
3755.902	-622.1
3758.589	-622.1
3761.273	-616.1
3763.956	-629.1
3766.636	-621.1
3769.315	-626.1
3771.991	-625.1
3774.665	-628.1
3777.338	-629.1
3780.008	-628.1
3782.677	-632.1
3785.343	-638.1
3788.007	-634.1
3790.67	-638.1
3793.33	-642.1
3795.989	-645.1
3798.645	-645.1
3801.299	-648.1
3803.952	-644.1
3806.602	-647.1
3809.251	-653.1
3811.897	-642.1
3814.542	-644.1
3817.184	-650.1
3819.825	-649.1
3822.463	-643.1
3825.1	-650.1
3827.735	-652.1
3830.367	-652.1
3832.998	-657.1
3835.627	-660.1
3838.253	-661.1
3840.878	-659.1
3843.501	-659.1
3846.122	-660.1
3848.741	-659.1
3851.358	-658.1
3853.973	-661.1
3856.586	-659.1
3859.197	-663.1
3861.806	-661.1
3864.414	-656.1
3867.019	-653.1
3869.622	-663.1
3872.224	-655.1
3874.823	-643.1
3877.421	-630.1
3880.016	-609.1
3882.61	-572.1
3885.202	-577.1
3887.792	-609.1
3890.38	-629.1
3892.966	-646.1
3895.55	-659.1
3898.132	-666.1
3900.713	-666.1
3903.291	-673.1
3905.868	-670.1
3908.442	-674.1
3911.015	-669.1
3913.586	-672.1
3916.155	-669.1
3918.722	-670.1
3921.287	-678.1
3923.85	-680.1
3926.411	-678.1
3928.971	-675.1
3931.528	-680.1
3934.084	-668.1
3936.638	-676.1
3939.19	-678.1
3941.74	-682.1
3944.288	-680.1
3946.834	-680.1
3949.378	-681.1
3951.921	-678.1
3954.462	-676.1
3957	-676.1
3959.537	-668.1
3962.072	-674.1
3964.606	-669.1
3967.137	-676.1
3969.667	-671.1
3972.194	-675.1
3974.72	-667.1
3977.244	-668.1
3979.766	-665.1
3982.286	-669.1
3984.805	-658.1
3987.321	-663.1
3989.836	-664.1
3992.349	-653.1
3994.86	-657.1
3997.369	-670.1
3999.877	-661.1
4002.382	-657.1
4004.886	-663.1
4007.388	-666.1
4009.888	-661.1
4012.386	-659.1
4014.883	-659.1
4017.377	-665.1
4019.87	-656.1
4022.361	-663.1
4024.85	-665.1
4027.338	-666.1
4029.823	-666.1
4032.307	-667.1
4034.789	-666.1
4037.269	-671.1
4039.747	-666.1
4042.224	-660.1
4044.699	-671.1
4047.172	-665.1
4049.643	-662.1
4052.112	-663.1
4054.58	-662.1
4057.046	-669.1
4059.51	-668.1
4061.972	-669.1
4064.432	-667.1
4066.891	-669.1
4069.348	-668.1
4071.803	-671.1
4074.256	-663.1
4076.708	-668.1
4079.158	-665.1
4081.606	-662.1
4084.052	-658.1
4086.497	-663.1
4088.939	-661.1
4091.38	-656.1
4093.819	-656.1
4096.257	-697.1
4098.693	-703.1
4101.127	-702.1
4103.559	-709.1
4105.989	-418.1
4108.418	-398.1
4110.845	-371.1
4113.27	-355.1
4115.694	-296.1
4118.115	-252.1
4120.535	-665.1
4122.954	-669.1
4125.37	-664.1
4127.785	-668.1
4130.198	-674.1
4132.609	-657.1
4135.019	-705.1
4137.427	-703.1
4139.833	-704.1
4142.237	-701.1
