Data from 2018-2-7_conc=3_RamanShift_04.txt Node
Date: Tue Feb 13 12:21:14 IST 2018
User: aro
Spectrometer: QEPB0276
Trigger mode: 0
Integration Time (sec): 3.000000E1
Scans to average: 1
Electric dark correction enabled: true
Nonlinearity correction enabled: false
Boxcar width: 0
XAxis mode: Raman Shifts
Number of Pixels in Spectrum: 1044
>>>>>Begin Spectral Data<<<<<
160.701	-170.1
166.742	36.9
172.777	577.9
178.805	2239.9
184.826	6066.9
190.841	12540.9
196.849	19866.9
202.85	24868.9
208.845	26474.9
214.833	26121.9
220.815	25666.9
226.789	25437.9
232.758	25342.9
238.719	25135.9
244.674	24755.9
250.623	24311.9
256.565	23805.9
262.5	23261.9
268.429	22846.9
274.351	22485.9
280.267	22201.9
286.176	21917.9
292.079	21707.9
297.975	21465.9
303.865	21313.9
309.748	21077.9
315.625	20932.9
321.495	20808.9
327.359	20760.9
333.217	20680.9
339.068	20732.9
344.912	20656.9
350.751	20584.9
356.583	20616.9
362.408	20582.9
368.227	20610.9
374.04	20645.9
379.847	20714.9
385.647	20726.9
391.44	20829.9
397.228	20907.9
403.009	21037.9
408.784	21078.9
414.553	21126.9
420.315	21225.9
426.071	21176.9
431.821	21250.9
437.565	21190.9
443.302	21158.9
449.033	21083.9
454.758	21067.9
460.477	20994.9
466.189	21048.9
471.896	20946.9
477.596	20919.9
483.29	20875.9
488.978	20843.9
494.66	20719.9
500.335	20570.9
506.005	20407.9
511.668	20221.9
517.325	19987.9
522.977	19773.9
528.622	19628.9
534.261	19496.9
539.894	19415.9
545.521	19294.9
551.141	19280.9
556.756	19239.9
562.365	19138.9
567.968	19005.9
573.565	19050.9
579.155	18954.9
584.74	18876.9
590.319	18813.9
595.892	18713.9
601.459	18652.9
607.02	18588.9
612.575	18407.9
618.124	18321.9
623.667	18275.9
629.204	18203.9
634.735	18003.9
640.261	18074.9
645.781	17929.9
651.294	17935.9
656.802	17995.9
662.304	17922.9
667.8	17873.9
673.29	17815.9
678.775	17728.9
684.254	17686.9
689.726	17717.9
695.193	17551.9
700.655	17554.9
706.11	17471.9
711.56	17433.9
717.004	17359.9
722.442	17155.9
727.874	17154.9
733.301	17071.9
738.722	17059.9
744.137	17034.9
749.547	16996.9
754.951	17018.9
760.349	17105.9
765.741	17040.9
771.128	17083.9
776.509	17089.9
781.885	17067.9
787.254	17009.9
792.618	16973.9
797.977	16820.9
803.33	16767.9
808.677	16652.9
814.019	16548.9
819.355	16470.9
824.686	16346.9
830.011	16369.9
835.33	16366.9
840.644	16359.9
845.952	16421.9
851.255	16469.9
856.552	16430.9
861.844	16432.9
867.13	16390.9
872.41	16364.9
877.686	16232.9
882.955	16193.9
888.219	15998.9
893.478	15809.9
898.731	15603.9
903.979	15479.9
909.221	15382.9
914.458	15330.9
919.69	15335.9
924.916	15409.9
930.136	15387.9
935.351	15438.9
940.561	15446.9
945.766	15367.9
950.965	15345.9
956.158	15172.9
961.347	15042.9
966.529	14897.9
971.707	14722.9
976.879	14508.9
982.046	14310.9
987.208	14372.9
992.364	14352.9
997.515	14421.9
1002.66	14612.9
1007.801	14773.9
1012.936	14876.9
1018.066	14867.9
1023.19	14833.9
1028.309	14829.9
1033.423	14847.9
1038.532	14751.9
1043.636	14623.9
1048.734	14443.9
1053.827	14274.9
1058.915	14096.9
1063.998	14023.9
1069.075	13975.9
1074.147	14024.9
1079.214	14018.9
1084.276	14157.9
1089.333	14249.9
1094.385	14290.9
1099.431	14334.9
1104.472	14323.9
1109.509	14251.9
1114.54	14144.9
1119.565	13895.9
1124.586	13692.9
1129.602	13616.9
1134.613	13533.9
1139.618	13458.9
1144.619	13418.9
1149.614	13434.9
1154.604	13442.9
1159.589	13462.9
1164.57	13520.9
1169.545	13547.9
1174.515	13517.9
1179.48	13521.9
1184.44	13412.9
1189.395	13331.9
1194.345	13230.9
1199.29	13138.9
1204.23	13095.9
1209.165	13201.9
1214.095	13265.9
1219.021	13283.9
1223.941	13397.9
1228.856	13482.9
1233.766	13551.9
1238.672	13555.9
1243.572	13526.9
1248.467	13426.9
1253.358	13253.9
1258.244	13107.9
1263.124	12882.9
1268	12699.9
1272.871	12581.9
1277.737	12475.9
1282.599	12381.9
1287.455	12401.9
1292.306	12425.9
1297.153	12480.9
1301.995	12607.9
1306.832	12532.9
1311.664	12583.9
1316.491	12531.9
1321.314	12375.9
1326.132	12227.9
1330.945	11960.9
1335.753	11643.9
1340.556	11368.9
1345.354	11117.9
1350.148	10956.9
1354.937	10879.9
1359.722	10862.9
1364.501	10875.9
1369.276	11058.9
1374.046	11163.9
1378.811	11350.9
1383.572	11524.9
1388.327	11492.9
1393.079	11502.9
1397.825	11353.9
1402.567	11162.9
1407.304	11027.9
1412.036	10948.9
1416.764	10862.9
1421.487	10814.9
1426.205	10776.9
1430.919	10698.9
1435.628	10748.9
1440.333	10708.9
1445.032	10743.9
1449.727	10774.9
1454.418	10767.9
1459.104	10628.9
1463.785	10432.9
1468.462	10179.9
1473.134	9984.9
1477.802	9779.9
1482.465	9598.9
1487.123	9466.9
1491.777	9457.9
1496.426	9461.9
1501.071	9616.9
1505.711	9740.9
1510.347	9918.9
1514.978	10062.9
1519.604	10253.9
1524.226	10347.9
1528.844	10340.9
1533.457	10296.9
1538.065	10349.9
1542.669	10253.9
1547.269	10166.9
1551.864	10120.9
1556.454	10086.9
1561.041	10069.9
1565.622	10073.9
1570.199	10048.9
1574.772	10167.9
1579.34	10186.9
1583.904	10282.9
1588.464	10308.9
1593.019	10271.9
1597.569	10258.9
1602.115	10192.9
1606.657	10115.9
1611.195	10113.9
1615.728	9969.9
1620.256	9978.9
1624.78	9953.9
1629.3	10011.9
1633.816	9977.9
1638.327	10032.9
1642.834	10096.9
1647.336	10113.9
1651.834	10107.9
1656.328	10162.9
1660.817	10005.9
1665.302	9925.9
1669.783	9750.9
1674.259	9538.9
1678.732	9210.9
1683.199	8891.9
1687.663	8568.9
1692.122	8294.9
1696.577	8158.9
1701.028	8161.9
1705.474	8210.9
1709.917	8293.9
1714.355	8351.9
1718.788	8298.9
1723.218	8213.9
1727.643	8082.9
1732.064	7911.9
1736.481	7753.9
1740.893	7576.9
1745.301	7372.9
1749.705	7179.9
1754.105	6920.9
1758.501	6739.9
1762.893	6567.9
1767.28	6433.9
1771.663	6245.9
1776.042	6117.9
1780.417	6030.9
1784.787	6032.9
1789.154	6092.9
1793.516	6192.9
1797.874	6337.9
1802.228	6460.9
1806.578	6526.9
1810.924	6559.9
1815.266	6487.9
1819.603	6405.9
1823.937	6322.9
1828.266	6209.9
1832.591	6122.9
1836.913	6044.9
1841.23	5992.9
1845.543	5935.9
1849.852	5882.9
1854.156	5909.9
1858.457	5873.9
1862.754	5875.9
1867.047	5878.9
1871.335	5831.9
1875.62	5848.9
1879.9	5809.9
1884.177	5751.9
1888.449	5716.9
1892.718	5632.9
1896.982	5553.9
1901.243	5507.9
1905.499	5456.9
1909.752	5428.9
1914	5417.9
1918.245	5425.9
1922.485	5455.9
1926.722	5527.9
1930.954	5608.9
1935.183	5659.9
1939.408	5737.9
1943.628	5771.9
1947.845	5798.9
1952.058	5784.9
1956.267	5738.9
1960.472	5664.9
1964.673	5587.9
1968.87	5542.9
1973.063	5423.9
1977.252	5339.9
1981.438	5310.9
1985.619	5243.9
1989.797	5182.9
1993.971	5178.9
1998.14	5164.9
2002.306	5132.9
2006.469	5129.9
2010.627	5075.9
2014.781	5053.9
2018.932	5016.9
2023.078	4938.9
2027.221	4900.9
2031.36	4784.9
2035.495	4720.9
2039.627	4669.9
2043.754	4635.9
2047.878	4565.9
2051.998	4495.9
2056.114	4516.9
2060.226	4525.9
2064.334	4512.9
2068.439	4517.9
2072.54	4515.9
2076.637	4555.9
2080.73	4591.9
2084.82	4618.9
2088.906	4616.9
2092.988	4639.9
2097.066	4639.9
2101.14	4601.9
2105.211	4582.9
2109.278	4571.9
2113.342	4550.9
2117.401	4499.9
2121.457	4478.9
2125.509	4485.9
2129.558	4439.9
2133.602	4421.9
2137.643	4415.9
2141.681	4370.9
2145.714	4372.9
2149.744	4339.9
2153.77	4294.9
2157.793	4271.9
2161.812	4223.9
2165.827	4168.9
2169.838	4098.9
2173.846	4025.9
2177.851	3957.9
2181.851	3878.9
2185.848	3861.9
2189.841	3817.9
2193.831	3765.9
2197.817	3774.9
2201.799	3743.9
2205.778	3736.9
2209.753	3706.9
2213.725	3704.9
2217.693	3683.9
2221.657	3672.9
2225.618	3668.9
2229.575	3651.9
2233.529	3609.9
2237.479	3567.9
2241.425	3551.9
2245.368	3481.9
2249.307	3433.9
2253.243	3400.9
2257.175	3358.9
2261.104	3287.9
2265.029	3263.9
2268.95	3232.9
2272.868	3212.9
2276.783	3161.9
2280.694	3137.9
2284.601	3100.9
2288.505	3072.9
2292.405	3083.9
2296.302	3024.9
2300.195	3007.9
2304.085	2973.9
2307.971	2905.9
2311.854	2871.9
2315.734	2851.9
2319.609	2808.9
2323.482	2778.9
2327.351	2759.9
2331.216	2753.9
2335.078	2721.9
2338.937	2718.9
2342.792	2688.9
2346.643	2689.9
2350.492	2690.9
2354.336	2694.9
2358.178	2702.9
2362.015	2724.9
2365.85	2705.9
2369.681	2747.9
2373.508	2741.9
2377.333	2726.9
2381.153	2729.9
2384.971	2723.9
2388.785	2714.9
2392.595	2664.9
2396.402	2644.9
2400.206	2612.9
2404.007	2606.9
2407.804	2611.9
2411.597	2573.9
2415.388	2552.9
2419.174	2527.9
2422.958	2519.9
2426.738	2508.9
2430.515	2500.9
2434.289	2455.9
2438.059	2455.9
2441.825	2429.9
2445.589	2419.9
2449.349	2376.9
2453.106	2347.9
2456.859	2304.9
2460.61	2298.9
2464.356	2263.9
2468.1	2235.9
2471.84	2213.9
2475.577	2195.9
2479.311	2186.9
2483.041	2184.9
2486.768	2159.9
2490.492	2142.9
2494.213	2143.9
2497.93	2113.9
2501.644	2139.9
2505.355	2084.9
2509.062	2084.9
2512.766	2078.9
2516.467	2077.9
2520.165	2078.9
2523.859	2046.9
2527.551	2025.9
2531.239	2009.9
2534.923	2006.9
2538.605	1996.9
2542.283	1983.9
2545.958	1984.9
2549.63	1986.9
2553.299	2025.9
2556.964	1973.9
2560.626	1964.9
2564.285	1951.9
2567.941	1959.9
2571.594	1953.9
2575.243	1928.9
2578.89	1901.9
2582.533	1890.9
2586.173	1874.9
2589.809	1863.9
2593.443	1859.9
2597.073	1830.9
2600.701	1810.9
2604.325	1801.9
2607.946	1785.9
2611.564	1785.9
2615.178	1778.9
2618.79	1763.9
2622.398	1725.9
2626.004	1742.9
2629.606	1696.9
2633.205	1680.9
2636.801	1654.9
2640.394	1641.9
2643.983	1605.9
2647.57	1591.9
2651.153	1548.9
2654.734	1546.9
2658.311	1531.9
2661.885	1494.9
2665.456	1470.9
2669.025	1447.9
2672.589	1454.9
2676.151	1419.9
2679.71	1416.9
2683.266	1375.9
2686.819	1359.9
2690.368	1338.9
2693.915	1310.9
2697.458	1294.9
2700.999	1255.9
2704.536	1225.9
2708.071	1194.9
2711.602	1178.9
2715.13	1139.9
2718.656	1103.9
2722.178	1087.9
2725.697	1076.9
2729.214	1053.9
2732.727	1054.9
2736.237	1050.9
2739.744	1042.9
2743.249	1040.9
2746.75	1041.9
2750.248	1043.9
2753.743	1055.9
2757.236	1070.9
2760.725	1079.9
2764.211	1095.9
2767.695	1097.9
2771.175	1096.9
2774.652	1090.9
2778.127	1101.9
2781.598	1078.9
2785.067	1073.9
2788.532	1076.9
2791.995	1066.9
2795.455	1072.9
2798.911	1068.9
2802.365	1077.9
2805.816	1077.9
2809.264	1080.9
2812.709	1068.9
2816.151	1062.9
2819.59	1078.9
2823.026	1058.9
2826.46	1086.9
2829.89	1062.9
2833.318	1070.9
2836.742	1068.9
2840.164	1095.9
2843.583	1090.9
2846.999	1079.9
2850.412	1108.9
2853.822	1115.9
2857.229	1150.9
2860.634	1155.9
2864.035	1187.9
2867.434	1208.9
2870.83	1215.9
2874.223	1228.9
2877.613	1265.9
2881	1264.9
2884.385	1294.9
2887.766	1257.9
2891.145	1273.9
2894.521	1244.9
2897.894	1260.9
2901.264	1257.9
2904.631	1272.9
2907.996	1259.9
2911.358	1276.9
2914.717	1279.9
2918.073	1279.9
2921.426	1297.9
2924.777	1317.9
2928.124	1346.9
2931.469	1351.9
2934.811	1372.9
2938.15	1380.9
2941.487	1402.9
2944.821	1408.9
2948.152	1414.9
2951.48	1392.9
2954.805	1362.9
2958.128	1344.9
2961.447	1349.9
2964.765	1339.9
2968.079	1338.9
2971.39	1368.9
2974.699	1376.9
2978.005	1392.9
2981.308	1413.9
2984.609	1437.9
2987.907	1449.9
2991.202	1498.9
2994.494	1525.9
2997.784	1559.9
3001.07	1570.9
3004.355	1588.9
3007.636	1635.9
3010.915	1651.9
3014.191	1653.9
3017.464	1672.9
3020.734	1695.9
3024.002	1684.9
3027.267	1697.9
3030.53	1731.9
3033.789	1744.9
3037.046	1766.9
3040.301	1794.9
3043.552	1826.9
3046.801	1862.9
3050.048	1909.9
3053.291	1975.9
3056.532	2015.9
3059.771	2062.9
3063.006	2121.9
3066.239	2180.9
3069.469	2256.9
3072.697	2317.9
3075.922	2357.9
3079.144	2412.9
3082.364	2452.9
3085.581	2520.9
3088.795	2582.9
3092.007	2632.9
3095.216	2687.9
3098.423	2740.9
3101.627	2801.9
3104.828	2877.9
3108.026	2910.9
3111.222	2990.9
3114.416	3046.9
3117.607	3123.9
3120.795	3163.9
3123.98	3248.9
3127.163	3339.9
3130.344	3425.9
3133.521	3500.9
3136.696	3568.9
3139.869	3633.9
3143.039	3701.9
3146.206	3765.9
3149.371	3803.9
3152.533	3818.9
3155.693	3846.9
3158.85	3899.9
3162.005	3892.9
3165.157	3914.9
3168.306	3892.9
3171.453	3918.9
3174.597	3906.9
3177.739	3926.9
3180.878	3967.9
3184.014	3936.9
3187.149	3941.9
3190.28	3960.9
3193.409	3956.9
3196.536	3966.9
3199.659	3932.9
3202.781	3979.9
3205.9	3986.9
3209.016	3941.9
3212.13	3925.9
3215.241	3895.9
3218.35	3886.9
3221.456	3812.9
3224.56	3785.9
3227.661	3741.9
3230.76	3687.9
3233.856	3650.9
3236.95	3623.9
3240.041	3578.9
3243.13	3547.9
3246.216	3536.9
3249.3	3503.9
3252.382	3502.9
3255.46	3464.9
3258.537	3483.9
3261.611	3468.9
3264.682	3468.9
3267.751	3465.9
3270.818	3444.9
3273.882	3445.9
3276.943	3413.9
3280.002	3412.9
3283.059	3356.9
3286.113	3325.9
3289.165	3299.9
3292.214	3231.9
3295.261	3176.9
3298.306	3106.9
3301.348	3070.9
3304.387	3033.9
3307.425	2966.9
3310.459	2958.9
3313.492	2895.9
3316.521	2852.9
3319.549	2830.9
3322.574	2772.9
3325.597	2786.9
3328.617	2759.9
3331.635	2722.9
3334.65	2747.9
3337.663	2713.9
3340.674	2691.9
3343.682	2674.9
3346.688	2676.9
3349.691	2669.9
3352.692	2617.9
3355.691	2631.9
3358.687	2625.9
3361.681	2591.9
3364.673	2534.9
3367.662	2502.9
3370.649	2482.9
3373.633	2452.9
3376.615	2393.9
3379.595	2352.9
3382.572	2330.9
3385.547	2302.9
3388.52	2273.9
3391.49	2226.9
3394.458	2185.9
3397.424	2126.9
3400.387	2122.9
3403.348	2105.9
3406.307	2084.9
3409.263	2042.9
3412.217	2030.9
3415.168	2010.9
3418.118	1985.9
3421.065	1948.9
3424.009	1907.9
3426.951	1879.9
3429.891	1849.9
3432.829	1796.9
3435.764	1780.9
3438.697	1734.9
3441.628	1678.9
3444.557	1597.9
3447.483	1572.9
3450.407	1507.9
3453.328	1471.9
3456.247	1419.9
3459.164	1356.9
3462.079	1319.9
3464.991	1276.9
3467.902	1223.9
3470.809	1181.9
3473.715	1122.9
3476.618	1098.9
3479.519	1048.9
3482.418	1011.9
3485.315	971.9
3488.209	941.9
3491.101	890.9
3493.99	863.9
3496.878	825.9
3499.763	796.9
3502.646	773.9
3505.527	728.9
3508.405	699.9
3511.281	656.9
3514.155	621.9
3517.027	575.9
3519.897	543.9
3522.764	506.9
3525.629	453.9
3528.492	433.9
3531.352	371.9
3534.211	341.9
3537.067	305.9
3539.921	278.9
3542.773	240.9
3545.622	194.9
3548.469	175.9
3551.315	148.9
3554.157	117.9
3556.998	101.9
3559.837	64.9
3562.673	72.9
3565.507	28.9
3568.339	26.9
3571.169	-9.1
3573.996	-36.1
3576.822	-45.1
3579.645	-64.1
3582.466	-82.1
3585.285	-105.1
3588.101	-125.1
3590.916	-142.1
3593.728	-160.1
3596.538	-177.1
3599.346	-198.1
3602.152	-206.1
3604.956	-215.1
3607.757	-240.1
3610.556	-246.1
3613.354	-267.1
3616.149	-280.1
3618.942	-282.1
3621.732	-305.1
3624.521	-320.1
3627.307	-323.1
3630.092	-325.1
3632.874	-337.1
3635.654	-346.1
3638.432	-353.1
3641.208	-359.1
3643.982	-380.1
3646.753	-388.1
3649.523	-398.1
3652.29	-405.1
3655.055	-411.1
3657.818	-421.1
3660.579	-424.1
3663.338	-429.1
3666.095	-449.1
3668.849	-456.1
3671.602	-460.1
3674.352	-468.1
3677.101	-478.1
3679.847	-490.1
3682.591	-479.1
3685.333	-495.1
3688.073	-504.1
3690.811	-503.1
3693.547	-510.1
3696.281	-516.1
3699.013	-519.1
3701.742	-526.1
3704.47	-531.1
3707.195	-545.1
3709.919	-537.1
3712.64	-542.1
3715.359	-542.1
3718.076	-547.1
3720.792	-557.1
3723.505	-549.1
3726.216	-557.1
3728.925	-559.1
3731.632	-569.1
3734.336	-564.1
3737.039	-576.1
3739.74	-578.1
3742.439	-583.1
3745.136	-585.1
3747.83	-583.1
3750.523	-582.1
3753.213	-594.1
3755.902	-588.1
3758.589	-590.1
3761.273	-588.1
3763.956	-598.1
3766.636	-596.1
3769.315	-592.1
3771.991	-595.1
3774.665	-595.1
3777.338	-591.1
3780.008	-598.1
3782.677	-596.1
3785.343	-603.1
3788.007	-600.1
3790.67	-605.1
3793.33	-609.1
3795.989	-606.1
3798.645	-614.1
3801.299	-619.1
3803.952	-617.1
3806.602	-615.1
3809.251	-624.1
3811.897	-618.1
3814.542	-612.1
3817.184	-613.1
3819.825	-618.1
3822.463	-609.1
3825.1	-623.1
3827.735	-625.1
3830.367	-619.1
3832.998	-622.1
3835.627	-630.1
3838.253	-626.1
3840.878	-619.1
3843.501	-627.1
3846.122	-626.1
3848.741	-630.1
3851.358	-634.1
3853.973	-631.1
3856.586	-630.1
3859.197	-634.1
3861.806	-627.1
3864.414	-622.1
3867.019	-622.1
3869.622	-626.1
3872.224	-624.1
3874.823	-613.1
3877.421	-601.1
3880.016	-581.1
3882.61	-555.1
3885.202	-557.1
3887.792	-583.1
3890.38	-595.1
3892.966	-620.1
3895.55	-629.1
3898.132	-635.1
3900.713	-642.1
3903.291	-637.1
3905.868	-639.1
3908.442	-640.1
3911.015	-636.1
3913.586	-638.1
3916.155	-639.1
3918.722	-636.1
3921.287	-642.1
3923.85	-642.1
3926.411	-641.1
3928.971	-640.1
3931.528	-644.1
3934.084	-635.1
3936.638	-648.1
3939.19	-647.1
3941.74	-649.1
3944.288	-651.1
3946.834	-650.1
3949.378	-649.1
3951.921	-646.1
3954.462	-649.1
3957	-640.1
3959.537	-637.1
3962.072	-637.1
3964.606	-634.1
3967.137	-640.1
3969.667	-636.1
3972.194	-639.1
3974.72	-637.1
3977.244	-639.1
3979.766	-632.1
3982.286	-634.1
3984.805	-625.1
3987.321	-635.1
3989.836	-632.1
3992.349	-633.1
3994.86	-623.1
3997.369	-642.1
3999.877	-628.1
4002.382	-628.1
4004.886	-637.1
4007.388	-630.1
4009.888	-628.1
4012.386	-628.1
4014.883	-627.1
4017.377	-623.1
4019.87	-626.1
4022.361	-633.1
4024.85	-628.1
4027.338	-638.1
4029.823	-628.1
4032.307	-638.1
4034.789	-640.1
4037.269	-639.1
4039.747	-643.1
4042.224	-634.1
4044.699	-633.1
4047.172	-631.1
4049.643	-630.1
4052.112	-627.1
4054.58	-623.1
4057.046	-639.1
4059.51	-632.1
4061.972	-636.1
4064.432	-633.1
4066.891	-635.1
4069.348	-634.1
4071.803	-633.1
4074.256	-633.1
4076.708	-636.1
4079.158	-635.1
4081.606	-624.1
4084.052	-634.1
4086.497	-633.1
4088.939	-628.1
4091.38	-626.1
4093.819	-628.1
4096.257	-666.1
4098.693	-669.1
4101.127	-671.1
4103.559	-673.1
4105.989	-395.1
4108.418	-385.1
4110.845	-357.1
4113.27	-342.1
4115.694	-293.1
4118.115	-236.1
4120.535	-631.1
4122.954	-635.1
4125.37	-631.1
4127.785	-627.1
4130.198	-638.1
4132.609	-629.1
4135.019	-674.1
4137.427	-673.1
4139.833	-668.1
4142.237	-669.1
