Data from 2018-2-7_conc=5_RamanShift_24.txt Node
Date: Tue Feb 13 14:14:43 IST 2018
User: aro
Spectrometer: QEPB0276
Trigger mode: 0
Integration Time (sec): 3.000000E1
Scans to average: 1
Electric dark correction enabled: true
Nonlinearity correction enabled: false
Boxcar width: 0
XAxis mode: Raman Shifts
Number of Pixels in Spectrum: 1044
>>>>>Begin Spectral Data<<<<<
160.701	-169.8
166.742	36.2
172.777	587.2
178.805	2267.2
184.826	6220.2
190.841	12839.2
196.849	20296.2
202.85	25499.2
208.845	27072.2
214.833	26778.2
220.815	26296.2
226.789	26076.2
232.758	25912.2
238.719	25718.2
244.674	25409.2
250.623	24963.2
256.565	24463.2
262.5	23883.2
268.429	23411.2
274.351	23075.2
280.267	22822.2
286.176	22554.2
292.079	22239.2
297.975	22051.2
303.865	21884.2
309.748	21759.2
315.625	21563.2
321.495	21469.2
327.359	21372.2
333.217	21360.2
339.068	21337.2
344.912	21270.2
350.751	21247.2
356.583	21228.2
362.408	21241.2
368.227	21233.2
374.04	21254.2
379.847	21320.2
385.647	21430.2
391.44	21492.2
397.228	21474.2
403.009	21661.2
408.784	21681.2
414.553	21822.2
420.315	21813.2
426.071	21903.2
431.821	21822.2
437.565	21796.2
443.302	21801.2
449.033	21706.2
454.758	21719.2
460.477	21651.2
466.189	21541.2
471.896	21547.2
477.596	21450.2
483.29	21468.2
488.978	21406.2
494.66	21341.2
500.335	21237.2
506.005	20989.2
511.668	20755.2
517.325	20490.2
522.977	20360.2
528.622	20147.2
534.261	20069.2
539.894	19998.2
545.521	19807.2
551.141	19811.2
556.756	19707.2
562.365	19641.2
567.968	19572.2
573.565	19545.2
579.155	19425.2
584.74	19336.2
590.319	19310.2
595.892	19189.2
601.459	19152.2
607.02	19041.2
612.575	18948.2
618.124	18810.2
623.667	18748.2
629.204	18632.2
634.735	18544.2
640.261	18448.2
645.781	18411.2
651.294	18366.2
656.802	18385.2
662.304	18282.2
667.8	18294.2
673.29	18305.2
678.775	18274.2
684.254	18180.2
689.726	18078.2
695.193	18033.2
700.655	17940.2
706.11	17896.2
711.56	17841.2
717.004	17703.2
722.442	17639.2
727.874	17563.2
733.301	17556.2
738.722	17441.2
744.137	17457.2
749.547	17417.2
754.951	17419.2
760.349	17452.2
765.741	17411.2
771.128	17440.2
776.509	17427.2
781.885	17438.2
787.254	17404.2
792.618	17329.2
797.977	17164.2
803.33	17074.2
808.677	16987.2
814.019	16881.2
819.355	16828.2
824.686	16747.2
830.011	16685.2
835.33	16690.2
840.644	16774.2
845.952	16754.2
851.255	16835.2
856.552	16822.2
861.844	16843.2
867.13	16780.2
872.41	16689.2
877.686	16518.2
882.955	16460.2
888.219	16320.2
893.478	16169.2
898.731	15999.2
903.979	15779.2
909.221	15693.2
914.458	15613.2
919.69	15624.2
924.916	15664.2
930.136	15693.2
935.351	15705.2
940.561	15715.2
945.766	15694.2
950.965	15655.2
956.158	15489.2
961.347	15414.2
966.529	15141.2
971.707	15010.2
976.879	14757.2
982.046	14636.2
987.208	14617.2
992.364	14618.2
997.515	14701.2
1002.66	14828.2
1007.801	15041.2
1012.936	15113.2
1018.066	15160.2
1023.19	15172.2
1028.309	15170.2
1033.423	15099.2
1038.532	15030.2
1043.636	14880.2
1048.734	14746.2
1053.827	14456.2
1058.915	14354.2
1063.998	14300.2
1069.075	14236.2
1074.147	14231.2
1079.214	14316.2
1084.276	14432.2
1089.333	14497.2
1094.385	14564.2
1099.431	14623.2
1104.472	14550.2
1109.509	14471.2
1114.54	14296.2
1119.565	14120.2
1124.586	13952.2
1129.602	13857.2
1134.613	13782.2
1139.618	13670.2
1144.619	13612.2
1149.614	13636.2
1154.604	13646.2
1159.589	13703.2
1164.57	13727.2
1169.545	13734.2
1174.515	13755.2
1179.48	13640.2
1184.44	13527.2
1189.395	13441.2
1194.345	13342.2
1199.29	13348.2
1204.23	13289.2
1209.165	13390.2
1214.095	13449.2
1219.021	13504.2
1223.941	13599.2
1228.856	13675.2
1233.766	13664.2
1238.672	13709.2
1243.572	13678.2
1248.467	13615.2
1253.358	13464.2
1258.244	13195.2
1263.124	13085.2
1268	12871.2
1272.871	12714.2
1277.737	12635.2
1282.599	12526.2
1287.455	12563.2
1292.306	12537.2
1297.153	12621.2
1301.995	12653.2
1306.832	12729.2
1311.664	12700.2
1316.491	12698.2
1321.314	12506.2
1326.132	12351.2
1330.945	12070.2
1335.753	11747.2
1340.556	11491.2
1345.354	11267.2
1350.148	11021.2
1354.937	10970.2
1359.722	10982.2
1364.501	10979.2
1369.276	11145.2
1374.046	11275.2
1378.811	11449.2
1383.572	11522.2
1388.327	11634.2
1393.079	11547.2
1397.825	11402.2
1402.567	11286.2
1407.304	11139.2
1412.036	10994.2
1416.764	10933.2
1421.487	10880.2
1426.205	10832.2
1430.919	10810.2
1435.628	10736.2
1440.333	10866.2
1445.032	10874.2
1449.727	10890.2
1454.418	10809.2
1459.104	10737.2
1463.785	10480.2
1468.462	10267.2
1473.134	10021.2
1477.802	9847.2
1482.465	9634.2
1487.123	9519.2
1491.777	9466.2
1496.426	9548.2
1501.071	9624.2
1505.711	9792.2
1510.347	9932.2
1514.978	10149.2
1519.604	10260.2
1524.226	10417.2
1528.844	10401.2
1533.457	10381.2
1538.065	10377.2
1542.669	10311.2
1547.269	10208.2
1551.864	10178.2
1556.454	10129.2
1561.041	10185.2
1565.622	10144.2
1570.199	10130.2
1574.772	10172.2
1579.34	10261.2
1583.904	10333.2
1588.464	10335.2
1593.019	10392.2
1597.569	10359.2
1602.115	10312.2
1606.657	10225.2
1611.195	10162.2
1615.728	10075.2
1620.256	10024.2
1624.78	10018.2
1629.3	10026.2
1633.816	10089.2
1638.327	10123.2
1642.834	10136.2
1647.336	10206.2
1651.834	10213.2
1656.328	10189.2
1660.817	10022.2
1665.302	9991.2
1669.783	9800.2
1674.259	9577.2
1678.732	9279.2
1683.199	9028.2
1687.663	8632.2
1692.122	8384.2
1696.577	8236.2
1701.028	8236.2
1705.474	8311.2
1709.917	8414.2
1714.355	8391.2
1718.788	8367.2
1723.218	8250.2
1727.643	8147.2
1732.064	7958.2
1736.481	7775.2
1740.893	7602.2
1745.301	7429.2
1749.705	7202.2
1754.105	7019.2
1758.501	6789.2
1762.893	6579.2
1767.28	6433.2
1771.663	6288.2
1776.042	6150.2
1780.417	6073.2
1784.787	6135.2
1789.154	6141.2
1793.516	6254.2
1797.874	6337.2
1802.228	6486.2
1806.578	6548.2
1810.924	6581.2
1815.266	6569.2
1819.603	6404.2
1823.937	6344.2
1828.266	6201.2
1832.591	6133.2
1836.913	6045.2
1841.23	6018.2
1845.543	5963.2
1849.852	5935.2
1854.156	5894.2
1858.457	5912.2
1862.754	5886.2
1867.047	5886.2
1871.335	5860.2
1875.62	5869.2
1879.9	5787.2
1884.177	5790.2
1888.449	5725.2
1892.718	5641.2
1896.982	5608.2
1901.243	5538.2
1905.499	5494.2
1909.752	5459.2
1914	5471.2
1918.245	5482.2
1922.485	5514.2
1926.722	5558.2
1930.954	5646.2
1935.183	5688.2
1939.408	5785.2
1943.628	5809.2
1947.845	5831.2
1952.058	5828.2
1956.267	5783.2
1960.472	5712.2
1964.673	5615.2
1968.87	5507.2
1973.063	5445.2
1977.252	5394.2
1981.438	5338.2
1985.619	5264.2
1989.797	5241.2
1993.971	5227.2
1998.14	5217.2
2002.306	5170.2
2006.469	5129.2
2010.627	5090.2
2014.781	5074.2
2018.932	5050.2
2023.078	5026.2
2027.221	4907.2
2031.36	4836.2
2035.495	4757.2
2039.627	4664.2
2043.754	4635.2
2047.878	4593.2
2051.998	4559.2
2056.114	4521.2
2060.226	4544.2
2064.334	4535.2
2068.439	4569.2
2072.54	4578.2
2076.637	4625.2
2080.73	4611.2
2084.82	4650.2
2088.906	4668.2
2092.988	4678.2
2097.066	4652.2
2101.14	4669.2
2105.211	4606.2
2109.278	4595.2
2113.342	4565.2
2117.401	4496.2
2121.457	4516.2
2125.509	4480.2
2129.558	4458.2
2133.602	4425.2
2137.643	4422.2
2141.681	4431.2
2145.714	4379.2
2149.744	4355.2
2153.77	4314.2
2157.793	4258.2
2161.812	4215.2
2165.827	4136.2
2169.838	4093.2
2173.846	4053.2
2177.851	3965.2
2181.851	3895.2
2185.848	3844.2
2189.841	3841.2
2193.831	3809.2
2197.817	3774.2
2201.799	3745.2
2205.778	3723.2
2209.753	3702.2
2213.725	3685.2
2217.693	3687.2
2221.657	3670.2
2225.618	3696.2
2229.575	3633.2
2233.529	3607.2
2237.479	3572.2
2241.425	3558.2
2245.368	3506.2
2249.307	3450.2
2253.243	3410.2
2257.175	3362.2
2261.104	3307.2
2265.029	3255.2
2268.95	3232.2
2272.868	3185.2
2276.783	3164.2
2280.694	3112.2
2284.601	3147.2
2288.505	3104.2
2292.405	3086.2
2296.302	3032.2
2300.195	2984.2
2304.085	2961.2
2307.971	2913.2
2311.854	2878.2
2315.734	2831.2
2319.609	2808.2
2323.482	2746.2
2327.351	2733.2
2331.216	2717.2
2335.078	2723.2
2338.937	2720.2
2342.792	2686.2
2346.643	2683.2
2350.492	2650.2
2354.336	2677.2
2358.178	2690.2
2362.015	2699.2
2365.85	2699.2
2369.681	2707.2
2373.508	2717.2
2377.333	2694.2
2381.153	2703.2
2384.971	2682.2
2388.785	2644.2
2392.595	2634.2
2396.402	2610.2
2400.206	2599.2
2404.007	2556.2
2407.804	2579.2
2411.597	2553.2
2415.388	2534.2
2419.174	2520.2
2422.958	2517.2
2426.738	2471.2
2430.515	2462.2
2434.289	2435.2
2438.059	2407.2
2441.825	2401.2
2445.589	2369.2
2449.349	2335.2
2453.106	2303.2
2456.859	2266.2
2460.61	2255.2
2464.356	2227.2
2468.1	2184.2
2471.84	2172.2
2475.577	2155.2
2479.311	2149.2
2483.041	2121.2
2486.768	2132.2
2490.492	2111.2
2494.213	2097.2
2497.93	2108.2
2501.644	2080.2
2505.355	2062.2
2509.062	2057.2
2512.766	2050.2
2516.467	2050.2
2520.165	2031.2
2523.859	2016.2
2527.551	1997.2
2531.239	1970.2
2534.923	1952.2
2538.605	1961.2
2542.283	1946.2
2545.958	1930.2
2549.63	1934.2
2553.299	1932.2
2556.964	1931.2
2560.626	1954.2
2564.285	1911.2
2567.941	1902.2
2571.594	1892.2
2575.243	1896.2
2578.89	1867.2
2582.533	1853.2
2586.173	1845.2
2589.809	1838.2
2593.443	1831.2
2597.073	1798.2
2600.701	1791.2
2604.325	1772.2
2607.946	1775.2
2611.564	1745.2
2615.178	1754.2
2618.79	1737.2
2622.398	1720.2
2626.004	1725.2
2629.606	1679.2
2633.205	1633.2
2636.801	1622.2
2640.394	1615.2
2643.983	1596.2
2647.57	1569.2
2651.153	1540.2
2654.734	1517.2
2658.311	1508.2
2661.885	1483.2
2665.456	1453.2
2669.025	1456.2
2672.589	1421.2
2676.151	1409.2
2679.71	1391.2
2683.266	1359.2
2686.819	1351.2
2690.368	1307.2
2693.915	1290.2
2697.458	1278.2
2700.999	1246.2
2704.536	1216.2
2708.071	1182.2
2711.602	1153.2
2715.13	1130.2
2718.656	1111.2
2722.178	1078.2
2725.697	1058.2
2729.214	1056.2
2732.727	1048.2
2736.237	1036.2
2739.744	1036.2
2743.249	1030.2
2746.75	1037.2
2750.248	1032.2
2753.743	1053.2
2757.236	1057.2
2760.725	1072.2
2764.211	1074.2
2767.695	1091.2
2771.175	1079.2
2774.652	1085.2
2778.127	1084.2
2781.598	1068.2
2785.067	1065.2
2788.532	1051.2
2791.995	1051.2
2795.455	1064.2
2798.911	1068.2
2802.365	1044.2
2805.816	1067.2
2809.264	1047.2
2812.709	1058.2
2816.151	1045.2
2819.59	1066.2
2823.026	1059.2
2826.46	1050.2
2829.89	1048.2
2833.318	1066.2
2836.742	1065.2
2840.164	1073.2
2843.583	1088.2
2846.999	1090.2
2850.412	1097.2
2853.822	1124.2
2857.229	1150.2
2860.634	1154.2
2864.035	1165.2
2867.434	1192.2
2870.83	1207.2
2874.223	1234.2
2877.613	1258.2
2881	1272.2
2884.385	1287.2
2887.766	1262.2
2891.145	1285.2
2894.521	1254.2
2897.894	1279.2
2901.264	1266.2
2904.631	1274.2
2907.996	1265.2
2911.358	1265.2
2914.717	1281.2
2918.073	1291.2
2921.426	1301.2
2924.777	1322.2
2928.124	1348.2
2931.469	1366.2
2934.811	1388.2
2938.15	1385.2
2941.487	1393.2
2944.821	1416.2
2948.152	1406.2
2951.48	1385.2
2954.805	1400.2
2958.128	1369.2
2961.447	1362.2
2964.765	1351.2
2968.079	1366.2
2971.39	1374.2
2974.699	1390.2
2978.005	1414.2
2981.308	1420.2
2984.609	1453.2
2987.907	1479.2
2991.202	1502.2
2994.494	1547.2
2997.784	1556.2
3001.07	1593.2
3004.355	1631.2
3007.636	1632.2
3010.915	1642.2
3014.191	1660.2
3017.464	1686.2
3020.734	1693.2
3024.002	1706.2
3027.267	1701.2
3030.53	1743.2
3033.789	1756.2
3037.046	1778.2
3040.301	1779.2
3043.552	1817.2
3046.801	1866.2
3050.048	1915.2
3053.291	1968.2
3056.532	1987.2
3059.771	2075.2
3063.006	2117.2
3066.239	2182.2
3069.469	2268.2
3072.697	2304.2
3075.922	2370.2
3079.144	2426.2
3082.364	2480.2
3085.581	2528.2
3088.795	2589.2
3092.007	2642.2
3095.216	2695.2
3098.423	2752.2
3101.627	2833.2
3104.828	2868.2
3108.026	2933.2
3111.222	3012.2
3114.416	3063.2
3117.607	3122.2
3120.795	3224.2
3123.98	3269.2
3127.163	3359.2
3130.344	3469.2
3133.521	3516.2
3136.696	3615.2
3139.869	3671.2
3143.039	3755.2
3146.206	3798.2
3149.371	3846.2
3152.533	3873.2
3155.693	3907.2
3158.85	3914.2
3162.005	3905.2
3165.157	3944.2
3168.306	3964.2
3171.453	3980.2
3174.597	3965.2
3177.739	3980.2
3180.878	3984.2
3184.014	4006.2
3187.149	3997.2
3190.28	4000.2
3193.409	4026.2
3196.536	4026.2
3199.659	4034.2
3202.781	4019.2
3205.9	3970.2
3209.016	4010.2
3212.13	4012.2
3215.241	3958.2
3218.35	3955.2
3221.456	3894.2
3224.56	3860.2
3227.661	3816.2
3230.76	3776.2
3233.856	3723.2
3236.95	3689.2
3240.041	3651.2
3243.13	3615.2
3246.216	3601.2
3249.3	3593.2
3252.382	3558.2
3255.46	3543.2
3258.537	3542.2
3261.611	3532.2
3264.682	3547.2
3267.751	3535.2
3270.818	3524.2
3273.882	3520.2
3276.943	3532.2
3280.002	3488.2
3283.059	3445.2
3286.113	3414.2
3289.165	3361.2
3292.214	3298.2
3295.261	3258.2
3298.306	3189.2
3301.348	3171.2
3304.387	3106.2
3307.425	3064.2
3310.459	2990.2
3313.492	2964.2
3316.521	2906.2
3319.549	2900.2
3322.574	2861.2
3325.597	2810.2
3328.617	2809.2
3331.635	2790.2
3334.65	2784.2
3337.663	2778.2
3340.674	2760.2
3343.682	2728.2
3346.688	2773.2
3349.691	2735.2
3352.692	2724.2
3355.691	2674.2
3358.687	2663.2
3361.681	2635.2
3364.673	2628.2
3367.662	2574.2
3370.649	2538.2
3373.633	2498.2
3376.615	2432.2
3379.595	2424.2
3382.572	2406.2
3385.547	2371.2
3388.52	2311.2
3391.49	2292.2
3394.458	2245.2
3397.424	2208.2
3400.387	2170.2
3403.348	2152.2
3406.307	2127.2
3409.263	2117.2
3412.217	2093.2
3415.168	2070.2
3418.118	2012.2
3421.065	1991.2
3424.009	1961.2
3426.951	1925.2
3429.891	1903.2
3432.829	1857.2
3435.764	1807.2
3438.697	1763.2
3441.628	1726.2
3444.557	1682.2
3447.483	1618.2
3450.407	1561.2
3453.328	1513.2
3456.247	1462.2
3459.164	1421.2
3462.079	1372.2
3464.991	1314.2
3467.902	1261.2
3470.809	1224.2
3473.715	1156.2
3476.618	1129.2
3479.519	1086.2
3482.418	1053.2
3485.315	1013.2
3488.209	960.2
3491.101	943.2
3493.99	907.2
3496.878	874.2
3499.763	832.2
3502.646	790.2
3505.527	766.2
3508.405	724.2
3511.281	688.2
3514.155	644.2
3517.027	605.2
3519.897	569.2
3522.764	531.2
3525.629	471.2
3528.492	451.2
3531.352	389.2
3534.211	352.2
3537.067	340.2
3539.921	280.2
3542.773	258.2
3545.622	223.2
3548.469	198.2
3551.315	158.2
3554.157	144.2
3556.998	118.2
3559.837	88.2
3562.673	54.2
3565.507	43.2
3568.339	26.2
3571.169	-7.8
3573.996	-27.8
3576.822	-46.8
3579.645	-69.8
3582.466	-72.8
3585.285	-93.8
3588.101	-116.8
3590.916	-143.8
3593.728	-171.8
3596.538	-181.8
3599.346	-191.8
3602.152	-200.8
3604.956	-222.8
3607.757	-237.8
3610.556	-250.8
3613.354	-264.8
3616.149	-279.8
3618.942	-290.8
3621.732	-305.8
3624.521	-312.8
3627.307	-314.8
3630.092	-330.8
3632.874	-345.8
3635.654	-350.8
3638.432	-364.8
3641.208	-365.8
3643.982	-374.8
3646.753	-391.8
3649.523	-398.8
3652.29	-414.8
3655.055	-416.8
3657.818	-431.8
3660.579	-443.8
3663.338	-442.8
3666.095	-452.8
3668.849	-481.8
3671.602	-477.8
3674.352	-475.8
3677.101	-483.8
3679.847	-494.8
3682.591	-505.8
3685.333	-504.8
3688.073	-508.8
3690.811	-512.8
3693.547	-516.8
3696.281	-525.8
3699.013	-528.8
3701.742	-538.8
3704.47	-541.8
3707.195	-552.8
3709.919	-555.8
3712.64	-546.8
3715.359	-554.8
3718.076	-558.8
3720.792	-565.8
3723.505	-567.8
3726.216	-572.8
3728.925	-576.8
3731.632	-586.8
3734.336	-584.8
3737.039	-587.8
3739.74	-584.8
3742.439	-584.8
3745.136	-591.8
3747.83	-590.8
3750.523	-582.8
3753.213	-599.8
3755.902	-594.8
3758.589	-593.8
3761.273	-595.8
3763.956	-602.8
3766.636	-597.8
3769.315	-604.8
3771.991	-609.8
3774.665	-607.8
3777.338	-613.8
3780.008	-607.8
3782.677	-613.8
3785.343	-619.8
3788.007	-604.8
3790.67	-614.8
3793.33	-620.8
3795.989	-625.8
3798.645	-623.8
3801.299	-624.8
3803.952	-630.8
3806.602	-629.8
3809.251	-631.8
3811.897	-625.8
3814.542	-618.8
3817.184	-628.8
3819.825	-625.8
3822.463	-624.8
3825.1	-632.8
3827.735	-636.8
3830.367	-635.8
3832.998	-633.8
3835.627	-638.8
3838.253	-638.8
3840.878	-638.8
3843.501	-640.8
3846.122	-640.8
3848.741	-637.8
3851.358	-641.8
3853.973	-638.8
3856.586	-639.8
3859.197	-643.8
3861.806	-640.8
3864.414	-637.8
3867.019	-636.8
3869.622	-645.8
3872.224	-631.8
3874.823	-623.8
3877.421	-601.8
3880.016	-586.8
3882.61	-550.8
3885.202	-547.8
3887.792	-573.8
3890.38	-601.8
3892.966	-616.8
3895.55	-632.8
3898.132	-642.8
3900.713	-650.8
3903.291	-653.8
3905.868	-645.8
3908.442	-651.8
3911.015	-649.8
3913.586	-649.8
3916.155	-649.8
3918.722	-649.8
3921.287	-652.8
3923.85	-656.8
3926.411	-644.8
3928.971	-652.8
3931.528	-656.8
3934.084	-646.8
3936.638	-651.8
3939.19	-654.8
3941.74	-660.8
3944.288	-654.8
3946.834	-656.8
3949.378	-656.8
3951.921	-657.8
3954.462	-654.8
3957	-651.8
3959.537	-645.8
3962.072	-648.8
3964.606	-648.8
3967.137	-659.8
3969.667	-653.8
3972.194	-650.8
3974.72	-647.8
3977.244	-643.8
3979.766	-645.8
3982.286	-640.8
3984.805	-641.8
3987.321	-640.8
3989.836	-641.8
3992.349	-640.8
3994.86	-640.8
3997.369	-649.8
3999.877	-639.8
4002.382	-640.8
4004.886	-639.8
4007.388	-639.8
4009.888	-636.8
4012.386	-641.8
4014.883	-636.8
4017.377	-633.8
4019.87	-641.8
4022.361	-639.8
4024.85	-642.8
4027.338	-641.8
4029.823	-641.8
4032.307	-642.8
4034.789	-641.8
4037.269	-645.8
4039.747	-650.8
4042.224	-643.8
4044.699	-648.8
4047.172	-647.8
4049.643	-643.8
4052.112	-644.8
4054.58	-642.8
4057.046	-650.8
4059.51	-644.8
4061.972	-646.8
4064.432	-646.8
4066.891	-638.8
4069.348	-639.8
4071.803	-648.8
4074.256	-647.8
4076.708	-643.8
4079.158	-641.8
4081.606	-636.8
4084.052	-639.8
4086.497	-644.8
4088.939	-638.8
4091.38	-639.8
4093.819	-638.8
4096.257	-679.8
4098.693	-675.8
4101.127	-677.8
4103.559	-680.8
4105.989	-410.8
4108.418	-385.8
4110.845	-363.8
4113.27	-330.8
4115.694	-288.8
4118.115	-250.8
4120.535	-639.8
4122.954	-645.8
4125.37	-643.8
4127.785	-645.8
4130.198	-644.8
4132.609	-642.8
4135.019	-682.8
4137.427	-677.8
4139.833	-680.8
4142.237	-679.8
