Data from 2018-2-7_conc=2_RamanShift_25.txt Node
Date: Tue Feb 13 12:02:14 IST 2018
User: aro
Spectrometer: QEPB0276
Trigger mode: 0
Integration Time (sec): 3.000000E1
Scans to average: 1
Electric dark correction enabled: true
Nonlinearity correction enabled: false
Boxcar width: 0
XAxis mode: Raman Shifts
Number of Pixels in Spectrum: 1044
>>>>>Begin Spectral Data<<<<<
160.701	-150.4
166.742	26.6
172.777	568.6
178.805	2160.6
184.826	5896.6
190.841	12094.6
196.849	19211.6
202.85	24129.6
208.845	25609.6
214.833	25275.6
220.815	24847.6
226.789	24666.6
232.758	24555.6
238.719	24380.6
244.674	24031.6
250.623	23634.6
256.565	23076.6
262.5	22593.6
268.429	22202.6
274.351	21869.6
280.267	21548.6
286.176	21285.6
292.079	21133.6
297.975	20875.6
303.865	20774.6
309.748	20614.6
315.625	20459.6
321.495	20294.6
327.359	20243.6
333.217	20173.6
339.068	20175.6
344.912	20198.6
350.751	20147.6
356.583	20134.6
362.408	20085.6
368.227	20086.6
374.04	20124.6
379.847	20095.6
385.647	20231.6
391.44	20289.6
397.228	20343.6
403.009	20457.6
408.784	20499.6
414.553	20610.6
420.315	20579.6
426.071	20636.6
431.821	20660.6
437.565	20607.6
443.302	20598.6
449.033	20593.6
454.758	20529.6
460.477	20481.6
466.189	20415.6
471.896	20354.6
477.596	20371.6
483.29	20278.6
488.978	20313.6
494.66	20179.6
500.335	20064.6
506.005	19881.6
511.668	19650.6
517.325	19347.6
522.977	19243.6
528.622	19095.6
534.261	19012.6
539.894	18885.6
545.521	18844.6
551.141	18765.6
556.756	18723.6
562.365	18643.6
567.968	18581.6
573.565	18527.6
579.155	18424.6
584.74	18353.6
590.319	18312.6
595.892	18239.6
601.459	18156.6
607.02	18076.6
612.575	17958.6
618.124	17830.6
623.667	17773.6
629.204	17648.6
634.735	17598.6
640.261	17546.6
645.781	17511.6
651.294	17449.6
656.802	17434.6
662.304	17415.6
667.8	17379.6
673.29	17380.6
678.775	17324.6
684.254	17264.6
689.726	17267.6
695.193	17193.6
700.655	17106.6
706.11	17025.6
711.56	16930.6
717.004	16805.6
722.442	16787.6
727.874	16715.6
733.301	16657.6
738.722	16584.6
744.137	16576.6
749.547	16540.6
754.951	16576.6
760.349	16540.6
765.741	16649.6
771.128	16597.6
776.509	16613.6
781.885	16628.6
787.254	16567.6
792.618	16454.6
797.977	16414.6
803.33	16274.6
808.677	16207.6
814.019	16131.6
819.355	16015.6
824.686	15972.6
830.011	15931.6
835.33	15943.6
840.644	15957.6
845.952	15977.6
851.255	15992.6
856.552	16049.6
861.844	16020.6
867.13	16009.6
872.41	15847.6
877.686	15874.6
882.955	15747.6
888.219	15549.6
893.478	15383.6
898.731	15241.6
903.979	15110.6
909.221	14995.6
914.458	14899.6
919.69	14896.6
924.916	14939.6
930.136	14986.6
935.351	15078.6
940.561	15071.6
945.766	14969.6
950.965	14955.6
956.158	14794.6
961.347	14712.6
966.529	14480.6
971.707	14263.6
976.879	14168.6
982.046	13986.6
987.208	13997.6
992.364	14053.6
997.515	14088.6
1002.66	14239.6
1007.801	14373.6
1012.936	14423.6
1018.066	14510.6
1023.19	14519.6
1028.309	14478.6
1033.423	14472.6
1038.532	14404.6
1043.636	14191.6
1048.734	14099.6
1053.827	13933.6
1058.915	13780.6
1063.998	13686.6
1069.075	13637.6
1074.147	13668.6
1079.214	13736.6
1084.276	13807.6
1089.333	13898.6
1094.385	13953.6
1099.431	13997.6
1104.472	14001.6
1109.509	13862.6
1114.54	13703.6
1119.565	13548.6
1124.586	13379.6
1129.602	13299.6
1134.613	13212.6
1139.618	13115.6
1144.619	13082.6
1149.614	13055.6
1154.604	13103.6
1159.589	13139.6
1164.57	13123.6
1169.545	13216.6
1174.515	13209.6
1179.48	13133.6
1184.44	13014.6
1189.395	12943.6
1194.345	12866.6
1199.29	12749.6
1204.23	12774.6
1209.165	12850.6
1214.095	12926.6
1219.021	12979.6
1223.941	13053.6
1228.856	13117.6
1233.766	13144.6
1238.672	13190.6
1243.572	13157.6
1248.467	13079.6
1253.358	12898.6
1258.244	12728.6
1263.124	12586.6
1268	12413.6
1272.871	12221.6
1277.737	12122.6
1282.599	12044.6
1287.455	12079.6
1292.306	12115.6
1297.153	12135.6
1301.995	12180.6
1306.832	12199.6
1311.664	12268.6
1316.491	12188.6
1321.314	12099.6
1326.132	11897.6
1330.945	11602.6
1335.753	11309.6
1340.556	11023.6
1345.354	10817.6
1350.148	10681.6
1354.937	10599.6
1359.722	10619.6
1364.501	10746.6
1369.276	10913.6
1374.046	11009.6
1378.811	11166.6
1383.572	11292.6
1388.327	11327.6
1393.079	11258.6
1397.825	11117.6
1402.567	10954.6
1407.304	10819.6
1412.036	10672.6
1416.764	10595.6
1421.487	10544.6
1426.205	10474.6
1430.919	10459.6
1435.628	10462.6
1440.333	10480.6
1445.032	10485.6
1449.727	10511.6
1454.418	10481.6
1459.104	10346.6
1463.785	10142.6
1468.462	9940.6
1473.134	9700.6
1477.802	9522.6
1482.465	9388.6
1487.123	9304.6
1491.777	9266.6
1496.426	9365.6
1501.071	9485.6
1505.711	9651.6
1510.347	9798.6
1514.978	9962.6
1519.604	10139.6
1524.226	10212.6
1528.844	10253.6
1533.457	10215.6
1538.065	10172.6
1542.669	10081.6
1547.269	10003.6
1551.864	9907.6
1556.454	9940.6
1561.041	9882.6
1565.622	9893.6
1570.199	9884.6
1574.772	9963.6
1579.34	9988.6
1583.904	10041.6
1588.464	10104.6
1593.019	10030.6
1597.569	10046.6
1602.115	9990.6
1606.657	9915.6
1611.195	9828.6
1615.728	9751.6
1620.256	9734.6
1624.78	9756.6
1629.3	9745.6
1633.816	9770.6
1638.327	9790.6
1642.834	9855.6
1647.336	9885.6
1651.834	9929.6
1656.328	9885.6
1660.817	9848.6
1665.302	9713.6
1669.783	9551.6
1674.259	9355.6
1678.732	9085.6
1683.199	8718.6
1687.663	8460.6
1692.122	8215.6
1696.577	8173.6
1701.028	8153.6
1705.474	8259.6
1709.917	8324.6
1714.355	8334.6
1718.788	8318.6
1723.218	8180.6
1727.643	8018.6
1732.064	7876.6
1736.481	7704.6
1740.893	7520.6
1745.301	7300.6
1749.705	7099.6
1754.105	6920.6
1758.501	6723.6
1762.893	6516.6
1767.28	6356.6
1771.663	6224.6
1776.042	6116.6
1780.417	6063.6
1784.787	6069.6
1789.154	6136.6
1793.516	6280.6
1797.874	6400.6
1802.228	6541.6
1806.578	6569.6
1810.924	6608.6
1815.266	6520.6
1819.603	6428.6
1823.937	6309.6
1828.266	6207.6
1832.591	6150.6
1836.913	6038.6
1841.23	5969.6
1845.543	5937.6
1849.852	5913.6
1854.156	5880.6
1858.457	5873.6
1862.754	5905.6
1867.047	5871.6
1871.335	5867.6
1875.62	5843.6
1879.9	5820.6
1884.177	5783.6
1888.449	5721.6
1892.718	5660.6
1896.982	5622.6
1901.243	5543.6
1905.499	5541.6
1909.752	5538.6
1914	5468.6
1918.245	5506.6
1922.485	5568.6
1926.722	5639.6
1930.954	5713.6
1935.183	5789.6
1939.408	5872.6
1943.628	5892.6
1947.845	5880.6
1952.058	5850.6
1956.267	5816.6
1960.472	5736.6
1964.673	5647.6
1968.87	5593.6
1973.063	5472.6
1977.252	5405.6
1981.438	5374.6
1985.619	5304.6
1989.797	5281.6
1993.971	5203.6
1998.14	5190.6
2002.306	5151.6
2006.469	5141.6
2010.627	5123.6
2014.781	5083.6
2018.932	5040.6
2023.078	5011.6
2027.221	4923.6
2031.36	4840.6
2035.495	4772.6
2039.627	4685.6
2043.754	4654.6
2047.878	4584.6
2051.998	4568.6
2056.114	4563.6
2060.226	4592.6
2064.334	4549.6
2068.439	4563.6
2072.54	4606.6
2076.637	4633.6
2080.73	4682.6
2084.82	4685.6
2088.906	4724.6
2092.988	4703.6
2097.066	4713.6
2101.14	4685.6
2105.211	4650.6
2109.278	4611.6
2113.342	4612.6
2117.401	4591.6
2121.457	4547.6
2125.509	4522.6
2129.558	4515.6
2133.602	4490.6
2137.643	4484.6
2141.681	4435.6
2145.714	4400.6
2149.744	4391.6
2153.77	4352.6
2157.793	4312.6
2161.812	4281.6
2165.827	4199.6
2169.838	4145.6
2173.846	4082.6
2177.851	4013.6
2181.851	3940.6
2185.848	3889.6
2189.841	3861.6
2193.831	3807.6
2197.817	3796.6
2201.799	3787.6
2205.778	3736.6
2209.753	3759.6
2213.725	3729.6
2217.693	3686.6
2221.657	3709.6
2225.618	3718.6
2229.575	3716.6
2233.529	3652.6
2237.479	3615.6
2241.425	3593.6
2245.368	3537.6
2249.307	3475.6
2253.243	3468.6
2257.175	3401.6
2261.104	3373.6
2265.029	3292.6
2268.95	3281.6
2272.868	3253.6
2276.783	3229.6
2280.694	3186.6
2284.601	3154.6
2288.505	3134.6
2292.405	3110.6
2296.302	3095.6
2300.195	3025.6
2304.085	2979.6
2307.971	2972.6
2311.854	2890.6
2315.734	2882.6
2319.609	2820.6
2323.482	2780.6
2327.351	2777.6
2331.216	2752.6
2335.078	2732.6
2338.937	2711.6
2342.792	2686.6
2346.643	2703.6
2350.492	2715.6
2354.336	2706.6
2358.178	2717.6
2362.015	2715.6
2365.85	2709.6
2369.681	2708.6
2373.508	2741.6
2377.333	2740.6
2381.153	2714.6
2384.971	2708.6
2388.785	2692.6
2392.595	2650.6
2396.402	2637.6
2400.206	2626.6
2404.007	2597.6
2407.804	2591.6
2411.597	2558.6
2415.388	2553.6
2419.174	2548.6
2422.958	2521.6
2426.738	2506.6
2430.515	2461.6
2434.289	2459.6
2438.059	2458.6
2441.825	2397.6
2445.589	2409.6
2449.349	2379.6
2453.106	2335.6
2456.859	2311.6
2460.61	2283.6
2464.356	2240.6
2468.1	2240.6
2471.84	2222.6
2475.577	2205.6
2479.311	2181.6
2483.041	2159.6
2486.768	2159.6
2490.492	2161.6
2494.213	2165.6
2497.93	2117.6
2501.644	2112.6
2505.355	2119.6
2509.062	2090.6
2512.766	2076.6
2516.467	2086.6
2520.165	2072.6
2523.859	2050.6
2527.551	2017.6
2531.239	2031.6
2534.923	2018.6
2538.605	1994.6
2542.283	2022.6
2545.958	2006.6
2549.63	1980.6
2553.299	1987.6
2556.964	1986.6
2560.626	1987.6
2564.285	1989.6
2567.941	1981.6
2571.594	1954.6
2575.243	1946.6
2578.89	1952.6
2582.533	1933.6
2586.173	1913.6
2589.809	1909.6
2593.443	1861.6
2597.073	1855.6
2600.701	1825.6
2604.325	1838.6
2607.946	1834.6
2611.564	1794.6
2615.178	1805.6
2618.79	1795.6
2622.398	1782.6
2626.004	1754.6
2629.606	1729.6
2633.205	1702.6
2636.801	1681.6
2640.394	1670.6
2643.983	1630.6
2647.57	1628.6
2651.153	1595.6
2654.734	1567.6
2658.311	1553.6
2661.885	1510.6
2665.456	1499.6
2669.025	1472.6
2672.589	1460.6
2676.151	1451.6
2679.71	1442.6
2683.266	1391.6
2686.819	1377.6
2690.368	1347.6
2693.915	1338.6
2697.458	1284.6
2700.999	1281.6
2704.536	1260.6
2708.071	1210.6
2711.602	1193.6
2715.13	1169.6
2718.656	1136.6
2722.178	1119.6
2725.697	1112.6
2729.214	1080.6
2732.727	1083.6
2736.237	1065.6
2739.744	1057.6
2743.249	1060.6
2746.75	1072.6
2750.248	1093.6
2753.743	1094.6
2757.236	1124.6
2760.725	1128.6
2764.211	1127.6
2767.695	1135.6
2771.175	1152.6
2774.652	1140.6
2778.127	1131.6
2781.598	1117.6
2785.067	1097.6
2788.532	1122.6
2791.995	1112.6
2795.455	1101.6
2798.911	1101.6
2802.365	1111.6
2805.816	1115.6
2809.264	1105.6
2812.709	1090.6
2816.151	1097.6
2819.59	1086.6
2823.026	1093.6
2826.46	1091.6
2829.89	1102.6
2833.318	1103.6
2836.742	1099.6
2840.164	1126.6
2843.583	1100.6
2846.999	1129.6
2850.412	1123.6
2853.822	1129.6
2857.229	1164.6
2860.634	1173.6
2864.035	1209.6
2867.434	1205.6
2870.83	1248.6
2874.223	1248.6
2877.613	1262.6
2881	1287.6
2884.385	1286.6
2887.766	1276.6
2891.145	1292.6
2894.521	1263.6
2897.894	1269.6
2901.264	1274.6
2904.631	1264.6
2907.996	1254.6
2911.358	1275.6
2914.717	1270.6
2918.073	1282.6
2921.426	1281.6
2924.777	1316.6
2928.124	1329.6
2931.469	1341.6
2934.811	1372.6
2938.15	1372.6
2941.487	1408.6
2944.821	1375.6
2948.152	1394.6
2951.48	1356.6
2954.805	1362.6
2958.128	1369.6
2961.447	1353.6
2964.765	1317.6
2968.079	1325.6
2971.39	1343.6
2974.699	1365.6
2978.005	1375.6
2981.308	1395.6
2984.609	1423.6
2987.907	1454.6
2991.202	1455.6
2994.494	1500.6
2997.784	1526.6
3001.07	1551.6
3004.355	1580.6
3007.636	1589.6
3010.915	1611.6
3014.191	1636.6
3017.464	1622.6
3020.734	1642.6
3024.002	1667.6
3027.267	1656.6
3030.53	1681.6
3033.789	1691.6
3037.046	1698.6
3040.301	1734.6
3043.552	1764.6
3046.801	1804.6
3050.048	1821.6
3053.291	1876.6
3056.532	1921.6
3059.771	1986.6
3063.006	2036.6
3066.239	2110.6
3069.469	2186.6
3072.697	2225.6
3075.922	2284.6
3079.144	2322.6
3082.364	2371.6
3085.581	2411.6
3088.795	2458.6
3092.007	2518.6
3095.216	2569.6
3098.423	2636.6
3101.627	2679.6
3104.828	2735.6
3108.026	2814.6
3111.222	2855.6
3114.416	2927.6
3117.607	2992.6
3120.795	3037.6
3123.98	3132.6
3127.163	3178.6
3130.344	3264.6
3133.521	3323.6
3136.696	3379.6
3139.869	3460.6
3143.039	3533.6
3146.206	3581.6
3149.371	3628.6
3152.533	3665.6
3155.693	3686.6
3158.85	3680.6
3162.005	3706.6
3165.157	3742.6
3168.306	3745.6
3171.453	3752.6
3174.597	3738.6
3177.739	3772.6
3180.878	3763.6
3184.014	3783.6
3187.149	3761.6
3190.28	3757.6
3193.409	3773.6
3196.536	3774.6
3199.659	3774.6
3202.781	3779.6
3205.9	3798.6
3209.016	3778.6
3212.13	3741.6
3215.241	3724.6
3218.35	3702.6
3221.456	3628.6
3224.56	3613.6
3227.661	3603.6
3230.76	3526.6
3233.856	3528.6
3236.95	3452.6
3240.041	3441.6
3243.13	3403.6
3246.216	3397.6
3249.3	3368.6
3252.382	3363.6
3255.46	3359.6
3258.537	3348.6
3261.611	3359.6
3264.682	3309.6
3267.751	3317.6
3270.818	3314.6
3273.882	3319.6
3276.943	3304.6
3280.002	3299.6
3283.059	3246.6
3286.113	3206.6
3289.165	3161.6
3292.214	3094.6
3295.261	3073.6
3298.306	3013.6
3301.348	2974.6
3304.387	2901.6
3307.425	2856.6
3310.459	2828.6
3313.492	2798.6
3316.521	2759.6
3319.549	2721.6
3322.574	2695.6
3325.597	2642.6
3328.617	2644.6
3331.635	2618.6
3334.65	2637.6
3337.663	2589.6
3340.674	2588.6
3343.682	2579.6
3346.688	2576.6
3349.691	2535.6
3352.692	2529.6
3355.691	2521.6
3358.687	2470.6
3361.681	2471.6
3364.673	2432.6
3367.662	2406.6
3370.649	2333.6
3373.633	2340.6
3376.615	2298.6
3379.595	2273.6
3382.572	2215.6
3385.547	2209.6
3388.52	2184.6
3391.49	2140.6
3394.458	2085.6
3397.424	2031.6
3400.387	2040.6
3403.348	1995.6
3406.307	2001.6
3409.263	1975.6
3412.217	1951.6
3415.168	1914.6
3418.118	1880.6
3421.065	1884.6
3424.009	1827.6
3426.951	1799.6
3429.891	1772.6
3432.829	1737.6
3435.764	1705.6
3438.697	1647.6
3441.628	1611.6
3444.557	1561.6
3447.483	1525.6
3450.407	1467.6
3453.328	1403.6
3456.247	1368.6
3459.164	1311.6
3462.079	1271.6
3464.991	1239.6
3467.902	1183.6
3470.809	1128.6
3473.715	1075.6
3476.618	1041.6
3479.519	1016.6
3482.418	985.6
3485.315	928.6
3488.209	905.6
3491.101	856.6
3493.99	847.6
3496.878	812.6
3499.763	776.6
3502.646	750.6
3505.527	714.6
3508.405	681.6
3511.281	632.6
3514.155	599.6
3517.027	559.6
3519.897	529.6
3522.764	484.6
3525.629	454.6
3528.492	403.6
3531.352	371.6
3534.211	335.6
3537.067	294.6
3539.921	270.6
3542.773	230.6
3545.622	207.6
3548.469	168.6
3551.315	160.6
3554.157	127.6
3556.998	106.6
3559.837	69.6
3562.673	46.6
3565.507	33.6
3568.339	19.6
3571.169	0.6
3573.996	-17.4
3576.822	-41.4
3579.645	-64.4
3582.466	-87.4
3585.285	-93.4
3588.101	-114.4
3590.916	-131.4
3593.728	-154.4
3596.538	-177.4
3599.346	-188.4
3602.152	-194.4
3604.956	-207.4
3607.757	-231.4
3610.556	-243.4
3613.354	-259.4
3616.149	-264.4
3618.942	-271.4
3621.732	-298.4
3624.521	-308.4
3627.307	-318.4
3630.092	-326.4
3632.874	-327.4
3635.654	-335.4
3638.432	-347.4
3641.208	-358.4
3643.982	-367.4
3646.753	-376.4
3649.523	-384.4
3652.29	-392.4
3655.055	-395.4
3657.818	-413.4
3660.579	-421.4
3663.338	-418.4
3666.095	-435.4
3668.849	-446.4
3671.602	-457.4
3674.352	-462.4
3677.101	-469.4
3679.847	-482.4
3682.591	-469.4
3685.333	-483.4
3688.073	-478.4
3690.811	-490.4
3693.547	-492.4
3696.281	-509.4
3699.013	-509.4
3701.742	-515.4
3704.47	-518.4
3707.195	-529.4
3709.919	-528.4
3712.64	-530.4
3715.359	-542.4
3718.076	-534.4
3720.792	-541.4
3723.505	-540.4
3726.216	-547.4
3728.925	-547.4
3731.632	-557.4
3734.336	-556.4
3737.039	-570.4
3739.74	-559.4
3742.439	-557.4
3745.136	-565.4
3747.83	-564.4
3750.523	-563.4
3753.213	-572.4
3755.902	-573.4
3758.589	-573.4
3761.273	-573.4
3763.956	-584.4
3766.636	-575.4
3769.315	-580.4
3771.991	-581.4
3774.665	-584.4
3777.338	-580.4
3780.008	-579.4
3782.677	-584.4
3785.343	-590.4
3788.007	-583.4
3790.67	-592.4
3793.33	-588.4
3795.989	-602.4
3798.645	-598.4
3801.299	-598.4
3803.952	-604.4
3806.602	-605.4
3809.251	-608.4
3811.897	-594.4
3814.542	-600.4
3817.184	-609.4
3819.825	-600.4
3822.463	-603.4
3825.1	-607.4
3827.735	-608.4
3830.367	-610.4
3832.998	-613.4
3835.627	-610.4
3838.253	-612.4
3840.878	-608.4
3843.501	-614.4
3846.122	-609.4
3848.741	-610.4
3851.358	-615.4
3853.973	-614.4
3856.586	-610.4
3859.197	-620.4
3861.806	-613.4
3864.414	-609.4
3867.019	-604.4
3869.622	-614.4
3872.224	-603.4
3874.823	-599.4
3877.421	-579.4
3880.016	-571.4
3882.61	-540.4
3885.202	-545.4
3887.792	-565.4
3890.38	-583.4
3892.966	-600.4
3895.55	-611.4
3898.132	-618.4
3900.713	-624.4
3903.291	-623.4
3905.868	-624.4
3908.442	-628.4
3911.015	-620.4
3913.586	-622.4
3916.155	-626.4
3918.722	-620.4
3921.287	-624.4
3923.85	-625.4
3926.411	-624.4
3928.971	-629.4
3931.528	-627.4
3934.084	-618.4
3936.638	-627.4
3939.19	-629.4
3941.74	-632.4
3944.288	-636.4
3946.834	-634.4
3949.378	-635.4
3951.921	-628.4
3954.462	-626.4
3957	-624.4
3959.537	-617.4
3962.072	-628.4
3964.606	-619.4
3967.137	-628.4
3969.667	-622.4
3972.194	-620.4
3974.72	-622.4
3977.244	-619.4
3979.766	-620.4
3982.286	-623.4
3984.805	-612.4
3987.321	-616.4
3989.836	-618.4
3992.349	-616.4
3994.86	-613.4
3997.369	-626.4
3999.877	-615.4
4002.382	-615.4
4004.886	-616.4
4007.388	-619.4
4009.888	-614.4
4012.386	-619.4
4014.883	-612.4
4017.377	-617.4
4019.87	-613.4
4022.361	-614.4
4024.85	-616.4
4027.338	-611.4
4029.823	-611.4
4032.307	-619.4
4034.789	-624.4
4037.269	-621.4
4039.747	-623.4
4042.224	-617.4
4044.699	-622.4
4047.172	-618.4
4049.643	-618.4
4052.112	-616.4
4054.58	-612.4
4057.046	-621.4
4059.51	-616.4
4061.972	-621.4
4064.432	-616.4
4066.891	-613.4
4069.348	-617.4
4071.803	-619.4
4074.256	-622.4
4076.708	-616.4
4079.158	-620.4
4081.606	-616.4
4084.052	-615.4
4086.497	-622.4
4088.939	-609.4
4091.38	-608.4
4093.819	-612.4
4096.257	-651.4
4098.693	-652.4
4101.127	-651.4
4103.559	-654.4
4105.989	-387.4
4108.418	-361.4
4110.845	-347.4
4113.27	-327.4
4115.694	-274.4
4118.115	-233.4
4120.535	-618.4
4122.954	-624.4
4125.37	-614.4
4127.785	-615.4
4130.198	-623.4
4132.609	-615.4
4135.019	-653.4
4137.427	-650.4
4139.833	-651.4
4142.237	-650.4
