Data from 2018-2-7_conc=3_RamanShift_07.txt Node
Date: Tue Feb 13 12:23:44 IST 2018
User: aro
Spectrometer: QEPB0276
Trigger mode: 0
Integration Time (sec): 3.000000E1
Scans to average: 1
Electric dark correction enabled: true
Nonlinearity correction enabled: false
Boxcar width: 0
XAxis mode: Raman Shifts
Number of Pixels in Spectrum: 1044
>>>>>Begin Spectral Data<<<<<
160.701	-151.9
166.742	31.1
172.777	592.1
178.805	2225.1
184.826	6096.1
190.841	12581.1
196.849	19961.1
202.85	24995.1
208.845	26622.1
214.833	26326.1
220.815	25797.1
226.789	25699.1
232.758	25500.1
238.719	25408.1
244.674	25036.1
250.623	24538.1
256.565	24069.1
262.5	23544.1
268.429	23112.1
274.351	22724.1
280.267	22444.1
286.176	22079.1
292.079	21948.1
297.975	21725.1
303.865	21548.1
309.748	21442.1
315.625	21186.1
321.495	21115.1
327.359	21041.1
333.217	21012.1
339.068	20998.1
344.912	20962.1
350.751	20911.1
356.583	20946.1
362.408	20907.1
368.227	20890.1
374.04	20863.1
379.847	20964.1
385.647	21057.1
391.44	21182.1
397.228	21179.1
403.009	21307.1
408.784	21334.1
414.553	21466.1
420.315	21429.1
426.071	21520.1
431.821	21433.1
437.565	21471.1
443.302	21484.1
449.033	21411.1
454.758	21354.1
460.477	21242.1
466.189	21232.1
471.896	21194.1
477.596	21102.1
483.29	21159.1
488.978	21111.1
494.66	21022.1
500.335	20872.1
506.005	20708.1
511.668	20362.1
517.325	20194.1
522.977	20007.1
528.622	19908.1
534.261	19766.1
539.894	19670.1
545.521	19587.1
551.141	19512.1
556.756	19418.1
562.365	19339.1
567.968	19305.1
573.565	19207.1
579.155	19183.1
584.74	19128.1
590.319	19017.1
595.892	18946.1
601.459	18879.1
607.02	18803.1
612.575	18645.1
618.124	18580.1
623.667	18480.1
629.204	18360.1
634.735	18309.1
640.261	18262.1
645.781	18109.1
651.294	18129.1
656.802	18081.1
662.304	18067.1
667.8	18049.1
673.29	17969.1
678.775	17891.1
684.254	17908.1
689.726	17841.1
695.193	17800.1
700.655	17717.1
706.11	17610.1
711.56	17529.1
717.004	17455.1
722.442	17376.1
727.874	17304.1
733.301	17273.1
738.722	17213.1
744.137	17138.1
749.547	17157.1
754.951	17147.1
760.349	17210.1
765.741	17163.1
771.128	17160.1
776.509	17192.1
781.885	17218.1
787.254	17109.1
792.618	17024.1
797.977	16923.1
803.33	16821.1
808.677	16761.1
814.019	16626.1
819.355	16564.1
824.686	16426.1
830.011	16441.1
835.33	16453.1
840.644	16482.1
845.952	16508.1
851.255	16530.1
856.552	16554.1
861.844	16573.1
867.13	16472.1
872.41	16389.1
877.686	16316.1
882.955	16206.1
888.219	16089.1
893.478	15895.1
898.731	15735.1
903.979	15525.1
909.221	15405.1
914.458	15377.1
919.69	15338.1
924.916	15382.1
930.136	15445.1
935.351	15401.1
940.561	15487.1
945.766	15430.1
950.965	15347.1
956.158	15255.1
961.347	15099.1
966.529	14861.1
971.707	14738.1
976.879	14532.1
982.046	14460.1
987.208	14394.1
992.364	14359.1
997.515	14415.1
1002.66	14618.1
1007.801	14765.1
1012.936	14870.1
1018.066	14863.1
1023.19	14888.1
1028.309	14897.1
1033.423	14810.1
1038.532	14780.1
1043.636	14607.1
1048.734	14359.1
1053.827	14258.1
1058.915	14128.1
1063.998	13976.1
1069.075	13947.1
1074.147	13983.1
1079.214	13985.1
1084.276	14120.1
1089.333	14142.1
1094.385	14232.1
1099.431	14241.1
1104.472	14259.1
1109.509	14176.1
1114.54	13982.1
1119.565	13836.1
1124.586	13689.1
1129.602	13586.1
1134.613	13462.1
1139.618	13339.1
1144.619	13299.1
1149.614	13304.1
1154.604	13351.1
1159.589	13354.1
1164.57	13396.1
1169.545	13454.1
1174.515	13440.1
1179.48	13362.1
1184.44	13300.1
1189.395	13167.1
1194.345	13123.1
1199.29	13014.1
1204.23	13005.1
1209.165	13050.1
1214.095	13097.1
1219.021	13219.1
1223.941	13263.1
1228.856	13308.1
1233.766	13368.1
1238.672	13386.1
1243.572	13340.1
1248.467	13270.1
1253.358	13088.1
1258.244	12944.1
1263.124	12674.1
1268	12530.1
1272.871	12408.1
1277.737	12332.1
1282.599	12260.1
1287.455	12274.1
1292.306	12284.1
1297.153	12291.1
1301.995	12344.1
1306.832	12348.1
1311.664	12405.1
1316.491	12302.1
1321.314	12238.1
1326.132	12029.1
1330.945	11752.1
1335.753	11477.1
1340.556	11178.1
1345.354	10990.1
1350.148	10842.1
1354.937	10766.1
1359.722	10802.1
1364.501	10840.1
1369.276	10999.1
1374.046	11106.1
1378.811	11236.1
1383.572	11398.1
1388.327	11395.1
1393.079	11297.1
1397.825	11147.1
1402.567	10991.1
1407.304	10878.1
1412.036	10747.1
1416.764	10683.1
1421.487	10609.1
1426.205	10545.1
1430.919	10509.1
1435.628	10456.1
1440.333	10520.1
1445.032	10553.1
1449.727	10585.1
1454.418	10560.1
1459.104	10446.1
1463.785	10225.1
1468.462	9999.1
1473.134	9819.1
1477.802	9652.1
1482.465	9420.1
1487.123	9416.1
1491.777	9385.1
1496.426	9401.1
1501.071	9543.1
1505.711	9720.1
1510.347	9845.1
1514.978	10031.1
1519.604	10164.1
1524.226	10219.1
1528.844	10232.1
1533.457	10136.1
1538.065	10126.1
1542.669	10080.1
1547.269	10002.1
1551.864	9931.1
1556.454	9902.1
1561.041	9898.1
1565.622	9890.1
1570.199	9890.1
1574.772	9966.1
1579.34	10015.1
1583.904	10061.1
1588.464	10075.1
1593.019	10108.1
1597.569	10099.1
1602.115	10000.1
1606.657	9913.1
1611.195	9870.1
1615.728	9813.1
1620.256	9770.1
1624.78	9774.1
1629.3	9776.1
1633.816	9793.1
1638.327	9848.1
1642.834	9900.1
1647.336	9958.1
1651.834	9989.1
1656.328	9892.1
1660.817	9882.1
1665.302	9771.1
1669.783	9585.1
1674.259	9400.1
1678.732	9118.1
1683.199	8801.1
1687.663	8481.1
1692.122	8276.1
1696.577	8178.1
1701.028	8197.1
1705.474	8252.1
1709.917	8285.1
1714.355	8337.1
1718.788	8209.1
1723.218	8072.1
1727.643	7973.1
1732.064	7821.1
1736.481	7610.1
1740.893	7464.1
1745.301	7205.1
1749.705	6988.1
1754.105	6819.1
1758.501	6626.1
1762.893	6436.1
1767.28	6283.1
1771.663	6173.1
1776.042	6038.1
1780.417	6039.1
1784.787	6056.1
1789.154	6098.1
1793.516	6220.1
1797.874	6295.1
1802.228	6431.1
1806.578	6460.1
1810.924	6483.1
1815.266	6418.1
1819.603	6329.1
1823.937	6203.1
1828.266	6129.1
1832.591	6005.1
1836.913	5943.1
1841.23	5884.1
1845.543	5818.1
1849.852	5800.1
1854.156	5823.1
1858.457	5793.1
1862.754	5762.1
1867.047	5775.1
1871.335	5758.1
1875.62	5736.1
1879.9	5747.1
1884.177	5682.1
1888.449	5630.1
1892.718	5554.1
1896.982	5512.1
1901.243	5459.1
1905.499	5422.1
1909.752	5425.1
1914	5425.1
1918.245	5432.1
1922.485	5512.1
1926.722	5552.1
1930.954	5595.1
1935.183	5680.1
1939.408	5716.1
1943.628	5742.1
1947.845	5776.1
1952.058	5738.1
1956.267	5698.1
1960.472	5630.1
1964.673	5543.1
1968.87	5405.1
1973.063	5371.1
1977.252	5278.1
1981.438	5236.1
1985.619	5186.1
1989.797	5136.1
1993.971	5103.1
1998.14	5059.1
2002.306	5074.1
2006.469	5010.1
2010.627	4992.1
2014.781	4963.1
2018.932	4927.1
2023.078	4861.1
2027.221	4795.1
2031.36	4726.1
2035.495	4676.1
2039.627	4635.1
2043.754	4521.1
2047.878	4504.1
2051.998	4463.1
2056.114	4453.1
2060.226	4463.1
2064.334	4440.1
2068.439	4469.1
2072.54	4498.1
2076.637	4528.1
2080.73	4576.1
2084.82	4615.1
2088.906	4615.1
2092.988	4617.1
2097.066	4612.1
2101.14	4574.1
2105.211	4540.1
2109.278	4510.1
2113.342	4502.1
2117.401	4450.1
2121.457	4445.1
2125.509	4414.1
2129.558	4386.1
2133.602	4329.1
2137.643	4344.1
2141.681	4326.1
2145.714	4293.1
2149.744	4260.1
2153.77	4225.1
2157.793	4179.1
2161.812	4118.1
2165.827	4083.1
2169.838	4005.1
2173.846	3937.1
2177.851	3861.1
2181.851	3807.1
2185.848	3758.1
2189.841	3750.1
2193.831	3714.1
2197.817	3664.1
2201.799	3633.1
2205.778	3616.1
2209.753	3630.1
2213.725	3601.1
2217.693	3607.1
2221.657	3563.1
2225.618	3563.1
2229.575	3547.1
2233.529	3510.1
2237.479	3489.1
2241.425	3431.1
2245.368	3381.1
2249.307	3319.1
2253.243	3286.1
2257.175	3248.1
2261.104	3216.1
2265.029	3186.1
2268.95	3150.1
2272.868	3105.1
2276.783	3080.1
2280.694	3027.1
2284.601	3003.1
2288.505	2982.1
2292.405	2946.1
2296.302	2932.1
2300.195	2864.1
2304.085	2828.1
2307.971	2812.1
2311.854	2787.1
2315.734	2729.1
2319.609	2704.1
2323.482	2647.1
2327.351	2623.1
2331.216	2628.1
2335.078	2596.1
2338.937	2601.1
2342.792	2579.1
2346.643	2577.1
2350.492	2545.1
2354.336	2585.1
2358.178	2571.1
2362.015	2569.1
2365.85	2609.1
2369.681	2585.1
2373.508	2601.1
2377.333	2585.1
2381.153	2575.1
2384.971	2572.1
2388.785	2551.1
2392.595	2513.1
2396.402	2485.1
2400.206	2492.1
2404.007	2464.1
2407.804	2451.1
2411.597	2412.1
2415.388	2416.1
2419.174	2395.1
2422.958	2361.1
2426.738	2345.1
2430.515	2313.1
2434.289	2322.1
2438.059	2297.1
2441.825	2287.1
2445.589	2223.1
2449.349	2223.1
2453.106	2185.1
2456.859	2186.1
2460.61	2130.1
2464.356	2112.1
2468.1	2096.1
2471.84	2069.1
2475.577	2054.1
2479.311	2041.1
2483.041	2026.1
2486.768	2030.1
2490.492	2021.1
2494.213	2021.1
2497.93	1997.1
2501.644	1984.1
2505.355	1979.1
2509.062	1974.1
2512.766	1971.1
2516.467	1941.1
2520.165	1933.1
2523.859	1926.1
2527.551	1885.1
2531.239	1893.1
2534.923	1870.1
2538.605	1871.1
2542.283	1880.1
2545.958	1857.1
2549.63	1884.1
2553.299	1868.1
2556.964	1870.1
2560.626	1842.1
2564.285	1819.1
2567.941	1817.1
2571.594	1823.1
2575.243	1809.1
2578.89	1794.1
2582.533	1784.1
2586.173	1776.1
2589.809	1736.1
2593.443	1743.1
2597.073	1699.1
2600.701	1701.1
2604.325	1700.1
2607.946	1667.1
2611.564	1650.1
2615.178	1668.1
2618.79	1632.1
2622.398	1612.1
2626.004	1594.1
2629.606	1584.1
2633.205	1548.1
2636.801	1545.1
2640.394	1519.1
2643.983	1485.1
2647.57	1478.1
2651.153	1451.1
2654.734	1416.1
2658.311	1421.1
2661.885	1395.1
2665.456	1356.1
2669.025	1369.1
2672.589	1351.1
2676.151	1317.1
2679.71	1307.1
2683.266	1281.1
2686.819	1258.1
2690.368	1230.1
2693.915	1196.1
2697.458	1165.1
2700.999	1137.1
2704.536	1107.1
2708.071	1090.1
2711.602	1071.1
2715.13	1032.1
2718.656	1025.1
2722.178	1014.1
2725.697	979.1
2729.214	979.1
2732.727	973.1
2736.237	979.1
2739.744	976.1
2743.249	981.1
2746.75	998.1
2750.248	1020.1
2753.743	1012.1
2757.236	1021.1
2760.725	1016.1
2764.211	1039.1
2767.695	1031.1
2771.175	1019.1
2774.652	1002.1
2778.127	1018.1
2781.598	1006.1
2785.067	1011.1
2788.532	1005.1
2791.995	998.1
2795.455	1006.1
2798.911	1011.1
2802.365	995.1
2805.816	1009.1
2809.264	1008.1
2812.709	998.1
2816.151	1005.1
2819.59	1008.1
2823.026	987.1
2826.46	999.1
2829.89	999.1
2833.318	1002.1
2836.742	996.1
2840.164	1009.1
2843.583	1013.1
2846.999	1021.1
2850.412	1028.1
2853.822	1052.1
2857.229	1062.1
2860.634	1079.1
2864.035	1093.1
2867.434	1128.1
2870.83	1138.1
2874.223	1166.1
2877.613	1161.1
2881	1188.1
2884.385	1216.1
2887.766	1207.1
2891.145	1191.1
2894.521	1196.1
2897.894	1190.1
2901.264	1196.1
2904.631	1203.1
2907.996	1196.1
2911.358	1200.1
2914.717	1202.1
2918.073	1233.1
2921.426	1245.1
2924.777	1264.1
2928.124	1269.1
2931.469	1290.1
2934.811	1304.1
2938.15	1327.1
2941.487	1339.1
2944.821	1337.1
2948.152	1359.1
2951.48	1345.1
2954.805	1313.1
2958.128	1293.1
2961.447	1308.1
2964.765	1291.1
2968.079	1286.1
2971.39	1319.1
2974.699	1321.1
2978.005	1351.1
2981.308	1378.1
2984.609	1410.1
2987.907	1421.1
2991.202	1472.1
2994.494	1496.1
2997.784	1526.1
3001.07	1547.1
3004.355	1577.1
3007.636	1590.1
3010.915	1592.1
3014.191	1627.1
3017.464	1627.1
3020.734	1641.1
3024.002	1654.1
3027.267	1665.1
3030.53	1662.1
3033.789	1706.1
3037.046	1698.1
3040.301	1753.1
3043.552	1761.1
3046.801	1816.1
3050.048	1865.1
3053.291	1932.1
3056.532	1981.1
3059.771	2016.1
3063.006	2071.1
3066.239	2149.1
3069.469	2194.1
3072.697	2261.1
3075.922	2327.1
3079.144	2384.1
3082.364	2425.1
3085.581	2472.1
3088.795	2524.1
3092.007	2591.1
3095.216	2650.1
3098.423	2730.1
3101.627	2791.1
3104.828	2831.1
3108.026	2914.1
3111.222	2951.1
3114.416	3012.1
3117.607	3097.1
3120.795	3193.1
3123.98	3226.1
3127.163	3307.1
3130.344	3406.1
3133.521	3469.1
3136.696	3534.1
3139.869	3617.1
3143.039	3686.1
3146.206	3737.1
3149.371	3760.1
3152.533	3825.1
3155.693	3807.1
3158.85	3881.1
3162.005	3856.1
3165.157	3880.1
3168.306	3902.1
3171.453	3921.1
3174.597	3888.1
3177.739	3919.1
3180.878	3952.1
3184.014	3944.1
3187.149	3946.1
3190.28	3926.1
3193.409	3945.1
3196.536	3957.1
3199.659	3923.1
3202.781	3960.1
3205.9	3954.1
3209.016	3946.1
3212.13	3925.1
3215.241	3864.1
3218.35	3863.1
3221.456	3812.1
3224.56	3777.1
3227.661	3757.1
3230.76	3707.1
3233.856	3655.1
3236.95	3631.1
3240.041	3563.1
3243.13	3585.1
3246.216	3551.1
3249.3	3537.1
3252.382	3518.1
3255.46	3479.1
3258.537	3472.1
3261.611	3477.1
3264.682	3488.1
3267.751	3503.1
3270.818	3432.1
3273.882	3440.1
3276.943	3432.1
3280.002	3397.1
3283.059	3366.1
3286.113	3315.1
3289.165	3312.1
3292.214	3208.1
3295.261	3157.1
3298.306	3137.1
3301.348	3081.1
3304.387	3045.1
3307.425	2990.1
3310.459	2927.1
3313.492	2886.1
3316.521	2850.1
3319.549	2811.1
3322.574	2785.1
3325.597	2756.1
3328.617	2745.1
3331.635	2746.1
3334.65	2711.1
3337.663	2703.1
3340.674	2699.1
3343.682	2689.1
3346.688	2676.1
3349.691	2656.1
3352.692	2649.1
3355.691	2601.1
3358.687	2596.1
3361.681	2563.1
3364.673	2534.1
3367.662	2489.1
3370.649	2472.1
3373.633	2425.1
3376.615	2386.1
3379.595	2359.1
3382.572	2314.1
3385.547	2262.1
3388.52	2247.1
3391.49	2207.1
3394.458	2168.1
3397.424	2139.1
3400.387	2116.1
3403.348	2090.1
3406.307	2059.1
3409.263	2040.1
3412.217	2013.1
3415.168	2001.1
3418.118	1981.1
3421.065	1960.1
3424.009	1916.1
3426.951	1877.1
3429.891	1825.1
3432.829	1805.1
3435.764	1763.1
3438.697	1690.1
3441.628	1672.1
3444.557	1625.1
3447.483	1568.1
3450.407	1500.1
3453.328	1457.1
3456.247	1417.1
3459.164	1384.1
3462.079	1316.1
3464.991	1277.1
3467.902	1206.1
3470.809	1181.1
3473.715	1113.1
3476.618	1091.1
3479.519	1034.1
3482.418	1001.1
3485.315	974.1
3488.209	936.1
3491.101	901.1
3493.99	878.1
3496.878	826.1
3499.763	791.1
3502.646	768.1
3505.527	727.1
3508.405	687.1
3511.281	649.1
3514.155	631.1
3517.027	556.1
3519.897	551.1
3522.764	488.1
3525.629	446.1
3528.492	409.1
3531.352	375.1
3534.211	337.1
3537.067	300.1
3539.921	248.1
3542.773	236.1
3545.622	203.1
3548.469	172.1
3551.315	139.1
3554.157	120.1
3556.998	94.1
3559.837	70.1
3562.673	47.1
3565.507	35.1
3568.339	0.1
3571.169	-9.9
3573.996	-41.9
3576.822	-56.9
3579.645	-72.9
3582.466	-96.9
3585.285	-119.9
3588.101	-125.9
3590.916	-145.9
3593.728	-161.9
3596.538	-186.9
3599.346	-192.9
3602.152	-216.9
3604.956	-233.9
3607.757	-246.9
3610.556	-267.9
3613.354	-274.9
3616.149	-282.9
3618.942	-294.9
3621.732	-309.9
3624.521	-313.9
3627.307	-325.9
3630.092	-349.9
3632.874	-346.9
3635.654	-363.9
3638.432	-360.9
3641.208	-380.9
3643.982	-388.9
3646.753	-390.9
3649.523	-405.9
3652.29	-406.9
3655.055	-413.9
3657.818	-422.9
3660.579	-435.9
3663.338	-440.9
3666.095	-454.9
3668.849	-467.9
3671.602	-476.9
3674.352	-478.9
3677.101	-482.9
3679.847	-504.9
3682.591	-494.9
3685.333	-500.9
3688.073	-516.9
3690.811	-517.9
3693.547	-522.9
3696.281	-533.9
3699.013	-528.9
3701.742	-540.9
3704.47	-538.9
3707.195	-551.9
3709.919	-547.9
3712.64	-544.9
3715.359	-553.9
3718.076	-557.9
3720.792	-558.9
3723.505	-567.9
3726.216	-567.9
3728.925	-571.9
3731.632	-579.9
3734.336	-584.9
3737.039	-586.9
3739.74	-581.9
3742.439	-588.9
3745.136	-585.9
3747.83	-595.9
3750.523	-589.9
3753.213	-604.9
3755.902	-596.9
3758.589	-594.9
3761.273	-588.9
3763.956	-601.9
3766.636	-599.9
3769.315	-605.9
3771.991	-607.9
3774.665	-601.9
3777.338	-603.9
3780.008	-607.9
3782.677	-603.9
3785.343	-607.9
3788.007	-613.9
3790.67	-615.9
3793.33	-612.9
3795.989	-614.9
3798.645	-619.9
3801.299	-625.9
3803.952	-623.9
3806.602	-623.9
3809.251	-628.9
3811.897	-621.9
3814.542	-626.9
3817.184	-626.9
3819.825	-624.9
3822.463	-623.9
3825.1	-626.9
3827.735	-630.9
3830.367	-626.9
3832.998	-632.9
3835.627	-634.9
3838.253	-636.9
3840.878	-633.9
3843.501	-635.9
3846.122	-630.9
3848.741	-632.9
3851.358	-634.9
3853.973	-634.9
3856.586	-633.9
3859.197	-635.9
3861.806	-634.9
3864.414	-629.9
3867.019	-628.9
3869.622	-633.9
3872.224	-630.9
3874.823	-620.9
3877.421	-606.9
3880.016	-591.9
3882.61	-552.9
3885.202	-559.9
3887.792	-587.9
3890.38	-612.9
3892.966	-625.9
3895.55	-636.9
3898.132	-638.9
3900.713	-644.9
3903.291	-646.9
3905.868	-651.9
3908.442	-646.9
3911.015	-643.9
3913.586	-646.9
3916.155	-644.9
3918.722	-644.9
3921.287	-648.9
3923.85	-645.9
3926.411	-651.9
3928.971	-650.9
3931.528	-652.9
3934.084	-643.9
3936.638	-650.9
3939.19	-653.9
3941.74	-655.9
3944.288	-656.9
3946.834	-653.9
3949.378	-654.9
3951.921	-652.9
3954.462	-648.9
3957	-648.9
3959.537	-644.9
3962.072	-649.9
3964.606	-643.9
3967.137	-651.9
3969.667	-643.9
3972.194	-645.9
3974.72	-643.9
3977.244	-647.9
3979.766	-643.9
3982.286	-640.9
3984.805	-634.9
3987.321	-639.9
3989.836	-637.9
3992.349	-636.9
3994.86	-640.9
3997.369	-648.9
3999.877	-634.9
4002.382	-634.9
4004.886	-640.9
4007.388	-638.9
4009.888	-634.9
4012.386	-638.9
4014.883	-630.9
4017.377	-627.9
4019.87	-629.9
4022.361	-639.9
4024.85	-641.9
4027.338	-638.9
4029.823	-636.9
4032.307	-638.9
4034.789	-644.9
4037.269	-647.9
4039.747	-644.9
4042.224	-640.9
4044.699	-637.9
4047.172	-640.9
4049.643	-643.9
4052.112	-640.9
4054.58	-627.9
4057.046	-643.9
4059.51	-638.9
4061.972	-642.9
4064.432	-641.9
4066.891	-634.9
4069.348	-645.9
4071.803	-639.9
4074.256	-639.9
4076.708	-641.9
4079.158	-642.9
4081.606	-636.9
4084.052	-641.9
4086.497	-634.9
4088.939	-632.9
4091.38	-632.9
4093.819	-641.9
4096.257	-670.9
4098.693	-673.9
4101.127	-674.9
4103.559	-677.9
4105.989	-400.9
4108.418	-389.9
4110.845	-371.9
4113.27	-338.9
4115.694	-285.9
4118.115	-244.9
4120.535	-639.9
4122.954	-644.9
4125.37	-637.9
4127.785	-638.9
4130.198	-640.9
4132.609	-630.9
4135.019	-675.9
4137.427	-676.9
4139.833	-673.9
4142.237	-669.9
