Data from 2018-2-7_conc=6_RamanShift_25.txt Node
Date: Tue Feb 13 14:43:43 IST 2018
User: aro
Spectrometer: QEPB0276
Trigger mode: 0
Integration Time (sec): 3.000000E1
Scans to average: 1
Electric dark correction enabled: true
Nonlinearity correction enabled: false
Boxcar width: 0
XAxis mode: Raman Shifts
Number of Pixels in Spectrum: 1044
>>>>>Begin Spectral Data<<<<<
160.701	-157.2
166.742	31.8
172.777	592.8
178.805	2289.8
184.826	6271.8
190.841	13001.8
196.849	20625.8
202.85	25854.8
208.845	27512.8
214.833	27192.8
220.815	26663.8
226.789	26376.8
232.758	26335.8
238.719	26135.8
244.674	25721.8
250.623	25200.8
256.565	24717.8
262.5	24103.8
268.429	23746.8
274.351	23293.8
280.267	23015.8
286.176	22710.8
292.079	22505.8
297.975	22238.8
303.865	22051.8
309.748	21908.8
315.625	21777.8
321.495	21687.8
327.359	21526.8
333.217	21490.8
339.068	21530.8
344.912	21499.8
350.751	21423.8
356.583	21387.8
362.408	21440.8
368.227	21393.8
374.04	21352.8
379.847	21463.8
385.647	21566.8
391.44	21635.8
397.228	21698.8
403.009	21821.8
408.784	21876.8
414.553	21899.8
420.315	22033.8
426.071	21995.8
431.821	21986.8
437.565	21966.8
443.302	21890.8
449.033	21923.8
454.758	21830.8
460.477	21786.8
466.189	21719.8
471.896	21675.8
477.596	21663.8
483.29	21585.8
488.978	21557.8
494.66	21507.8
500.335	21347.8
506.005	21085.8
511.668	20886.8
517.325	20626.8
522.977	20432.8
528.622	20286.8
534.261	20168.8
539.894	20043.8
545.521	19942.8
551.141	19929.8
556.756	19812.8
562.365	19763.8
567.968	19698.8
573.565	19602.8
579.155	19499.8
584.74	19487.8
590.319	19418.8
595.892	19316.8
601.459	19247.8
607.02	19197.8
612.575	19049.8
618.124	18941.8
623.667	18827.8
629.204	18699.8
634.735	18618.8
640.261	18544.8
645.781	18491.8
651.294	18453.8
656.802	18444.8
662.304	18377.8
667.8	18430.8
673.29	18347.8
678.775	18243.8
684.254	18264.8
689.726	18130.8
695.193	18106.8
700.655	17974.8
706.11	17922.8
711.56	17863.8
717.004	17750.8
722.442	17651.8
727.874	17620.8
733.301	17557.8
738.722	17514.8
744.137	17449.8
749.547	17470.8
754.951	17439.8
760.349	17493.8
765.741	17445.8
771.128	17501.8
776.509	17450.8
781.885	17487.8
787.254	17466.8
792.618	17315.8
797.977	17232.8
803.33	17139.8
808.677	17025.8
814.019	16995.8
819.355	16796.8
824.686	16781.8
830.011	16685.8
835.33	16736.8
840.644	16744.8
845.952	16772.8
851.255	16797.8
856.552	16891.8
861.844	16788.8
867.13	16774.8
872.41	16749.8
877.686	16576.8
882.955	16451.8
888.219	16289.8
893.478	16123.8
898.731	15915.8
903.979	15760.8
909.221	15610.8
914.458	15573.8
919.69	15563.8
924.916	15637.8
930.136	15707.8
935.351	15648.8
940.561	15732.8
945.766	15627.8
950.965	15586.8
956.158	15507.8
961.347	15334.8
966.529	15096.8
971.707	14931.8
976.879	14736.8
982.046	14600.8
987.208	14605.8
992.364	14550.8
997.515	14695.8
1002.66	14849.8
1007.801	14966.8
1012.936	15095.8
1018.066	15105.8
1023.19	15109.8
1028.309	15028.8
1033.423	15027.8
1038.532	14925.8
1043.636	14807.8
1048.734	14661.8
1053.827	14437.8
1058.915	14267.8
1063.998	14253.8
1069.075	14130.8
1074.147	14211.8
1079.214	14233.8
1084.276	14295.8
1089.333	14395.8
1094.385	14509.8
1099.431	14499.8
1104.472	14460.8
1109.509	14410.8
1114.54	14253.8
1119.565	14102.8
1124.586	13891.8
1129.602	13710.8
1134.613	13681.8
1139.618	13580.8
1144.619	13534.8
1149.614	13535.8
1154.604	13582.8
1159.589	13603.8
1164.57	13650.8
1169.545	13645.8
1174.515	13686.8
1179.48	13540.8
1184.44	13457.8
1189.395	13391.8
1194.345	13285.8
1199.29	13198.8
1204.23	13282.8
1209.165	13260.8
1214.095	13342.8
1219.021	13363.8
1223.941	13445.8
1228.856	13561.8
1233.766	13580.8
1238.672	13622.8
1243.572	13628.8
1248.467	13481.8
1253.358	13356.8
1258.244	13220.8
1263.124	12949.8
1268	12777.8
1272.871	12625.8
1277.737	12530.8
1282.599	12428.8
1287.455	12410.8
1292.306	12485.8
1297.153	12504.8
1301.995	12569.8
1306.832	12609.8
1311.664	12595.8
1316.491	12548.8
1321.314	12421.8
1326.132	12277.8
1330.945	11972.8
1335.753	11723.8
1340.556	11438.8
1345.354	11197.8
1350.148	11003.8
1354.937	10952.8
1359.722	10907.8
1364.501	10882.8
1369.276	11032.8
1374.046	11241.8
1378.811	11311.8
1383.572	11494.8
1388.327	11496.8
1393.079	11467.8
1397.825	11345.8
1402.567	11155.8
1407.304	11053.8
1412.036	10916.8
1416.764	10884.8
1421.487	10747.8
1426.205	10751.8
1430.919	10705.8
1435.628	10642.8
1440.333	10666.8
1445.032	10752.8
1449.727	10807.8
1454.418	10748.8
1459.104	10650.8
1463.785	10435.8
1468.462	10198.8
1473.134	9970.8
1477.802	9769.8
1482.465	9561.8
1487.123	9479.8
1491.777	9465.8
1496.426	9501.8
1501.071	9599.8
1505.711	9735.8
1510.347	9859.8
1514.978	10093.8
1519.604	10218.8
1524.226	10294.8
1528.844	10338.8
1533.457	10309.8
1538.065	10241.8
1542.669	10209.8
1547.269	10150.8
1551.864	10049.8
1556.454	10055.8
1561.041	10063.8
1565.622	10027.8
1570.199	10080.8
1574.772	10090.8
1579.34	10248.8
1583.904	10241.8
1588.464	10268.8
1593.019	10253.8
1597.569	10268.8
1602.115	10218.8
1606.657	10173.8
1611.195	10111.8
1615.728	10078.8
1620.256	9974.8
1624.78	9976.8
1629.3	10017.8
1633.816	10061.8
1638.327	10105.8
1642.834	10144.8
1647.336	10166.8
1651.834	10184.8
1656.328	10142.8
1660.817	10106.8
1665.302	9981.8
1669.783	9771.8
1674.259	9549.8
1678.732	9273.8
1683.199	8969.8
1687.663	8640.8
1692.122	8363.8
1696.577	8203.8
1701.028	8193.8
1705.474	8212.8
1709.917	8335.8
1714.355	8294.8
1718.788	8257.8
1723.218	8187.8
1727.643	8018.8
1732.064	7864.8
1736.481	7696.8
1740.893	7517.8
1745.301	7321.8
1749.705	7115.8
1754.105	6887.8
1758.501	6705.8
1762.893	6532.8
1767.28	6343.8
1771.663	6183.8
1776.042	6055.8
1780.417	6003.8
1784.787	5996.8
1789.154	6077.8
1793.516	6167.8
1797.874	6290.8
1802.228	6391.8
1806.578	6452.8
1810.924	6477.8
1815.266	6442.8
1819.603	6321.8
1823.937	6267.8
1828.266	6101.8
1832.591	6038.8
1836.913	5957.8
1841.23	5885.8
1845.543	5860.8
1849.852	5857.8
1854.156	5811.8
1858.457	5795.8
1862.754	5787.8
1867.047	5800.8
1871.335	5778.8
1875.62	5782.8
1879.9	5743.8
1884.177	5702.8
1888.449	5606.8
1892.718	5573.8
1896.982	5491.8
1901.243	5461.8
1905.499	5391.8
1909.752	5402.8
1914	5395.8
1918.245	5396.8
1922.485	5424.8
1926.722	5468.8
1930.954	5525.8
1935.183	5597.8
1939.408	5666.8
1943.628	5699.8
1947.845	5704.8
1952.058	5711.8
1956.267	5659.8
1960.472	5584.8
1964.673	5502.8
1968.87	5402.8
1973.063	5375.8
1977.252	5271.8
1981.438	5230.8
1985.619	5161.8
1989.797	5147.8
1993.971	5117.8
1998.14	5082.8
2002.306	5065.8
2006.469	5037.8
2010.627	4991.8
2014.781	4967.8
2018.932	4919.8
2023.078	4907.8
2027.221	4820.8
2031.36	4741.8
2035.495	4682.8
2039.627	4589.8
2043.754	4541.8
2047.878	4507.8
2051.998	4471.8
2056.114	4442.8
2060.226	4458.8
2064.334	4456.8
2068.439	4460.8
2072.54	4502.8
2076.637	4502.8
2080.73	4557.8
2084.82	4563.8
2088.906	4581.8
2092.988	4597.8
2097.066	4589.8
2101.14	4569.8
2105.211	4525.8
2109.278	4491.8
2113.342	4479.8
2117.401	4448.8
2121.457	4424.8
2125.509	4391.8
2129.558	4407.8
2133.602	4337.8
2137.643	4310.8
2141.681	4312.8
2145.714	4293.8
2149.744	4297.8
2153.77	4233.8
2157.793	4189.8
2161.812	4134.8
2165.827	4093.8
2169.838	3989.8
2173.846	3948.8
2177.851	3873.8
2181.851	3806.8
2185.848	3779.8
2189.841	3721.8
2193.831	3703.8
2197.817	3656.8
2201.799	3654.8
2205.778	3655.8
2209.753	3614.8
2213.725	3595.8
2217.693	3599.8
2221.657	3607.8
2225.618	3575.8
2229.575	3544.8
2233.529	3521.8
2237.479	3485.8
2241.425	3472.8
2245.368	3390.8
2249.307	3352.8
2253.243	3314.8
2257.175	3256.8
2261.104	3221.8
2265.029	3164.8
2268.95	3147.8
2272.868	3093.8
2276.783	3052.8
2280.694	3033.8
2284.601	3018.8
2288.505	2982.8
2292.405	2970.8
2296.302	2932.8
2300.195	2924.8
2304.085	2871.8
2307.971	2832.8
2311.854	2801.8
2315.734	2761.8
2319.609	2737.8
2323.482	2682.8
2327.351	2676.8
2331.216	2640.8
2335.078	2614.8
2338.937	2622.8
2342.792	2585.8
2346.643	2594.8
2350.492	2603.8
2354.336	2603.8
2358.178	2574.8
2362.015	2606.8
2365.85	2605.8
2369.681	2589.8
2373.508	2634.8
2377.333	2615.8
2381.153	2628.8
2384.971	2564.8
2388.785	2576.8
2392.595	2567.8
2396.402	2525.8
2400.206	2504.8
2404.007	2492.8
2407.804	2465.8
2411.597	2449.8
2415.388	2413.8
2419.174	2429.8
2422.958	2405.8
2426.738	2403.8
2430.515	2366.8
2434.289	2363.8
2438.059	2330.8
2441.825	2335.8
2445.589	2287.8
2449.349	2281.8
2453.106	2221.8
2456.859	2204.8
2460.61	2174.8
2464.356	2149.8
2468.1	2132.8
2471.84	2114.8
2475.577	2065.8
2479.311	2058.8
2483.041	2070.8
2486.768	2044.8
2490.492	2050.8
2494.213	2044.8
2497.93	2019.8
2501.644	2018.8
2505.355	2005.8
2509.062	1993.8
2512.766	1980.8
2516.467	2008.8
2520.165	1952.8
2523.859	1954.8
2527.551	1926.8
2531.239	1906.8
2534.923	1896.8
2538.605	1874.8
2542.283	1879.8
2545.958	1853.8
2549.63	1873.8
2553.299	1856.8
2556.964	1863.8
2560.626	1867.8
2564.285	1837.8
2567.941	1817.8
2571.594	1817.8
2575.243	1813.8
2578.89	1802.8
2582.533	1786.8
2586.173	1778.8
2589.809	1750.8
2593.443	1759.8
2597.073	1715.8
2600.701	1711.8
2604.325	1692.8
2607.946	1684.8
2611.564	1694.8
2615.178	1700.8
2618.79	1663.8
2622.398	1651.8
2626.004	1612.8
2629.606	1606.8
2633.205	1602.8
2636.801	1578.8
2640.394	1560.8
2643.983	1505.8
2647.57	1514.8
2651.153	1473.8
2654.734	1449.8
2658.311	1427.8
2661.885	1419.8
2665.456	1387.8
2669.025	1376.8
2672.589	1363.8
2676.151	1351.8
2679.71	1352.8
2683.266	1319.8
2686.819	1289.8
2690.368	1257.8
2693.915	1229.8
2697.458	1199.8
2700.999	1196.8
2704.536	1155.8
2708.071	1134.8
2711.602	1089.8
2715.13	1083.8
2718.656	1060.8
2722.178	1030.8
2725.697	1012.8
2729.214	995.8
2732.727	989.8
2736.237	984.8
2739.744	967.8
2743.249	970.8
2746.75	995.8
2750.248	981.8
2753.743	1004.8
2757.236	1025.8
2760.725	1016.8
2764.211	1017.8
2767.695	1022.8
2771.175	1037.8
2774.652	1025.8
2778.127	1030.8
2781.598	1016.8
2785.067	1025.8
2788.532	1004.8
2791.995	1013.8
2795.455	1000.8
2798.911	1012.8
2802.365	1028.8
2805.816	1018.8
2809.264	1007.8
2812.709	1011.8
2816.151	1003.8
2819.59	1003.8
2823.026	1001.8
2826.46	1013.8
2829.89	1010.8
2833.318	1005.8
2836.742	1007.8
2840.164	1028.8
2843.583	1041.8
2846.999	1040.8
2850.412	1058.8
2853.822	1078.8
2857.229	1092.8
2860.634	1101.8
2864.035	1111.8
2867.434	1148.8
2870.83	1173.8
2874.223	1195.8
2877.613	1223.8
2881	1250.8
2884.385	1266.8
2887.766	1244.8
2891.145	1228.8
2894.521	1242.8
2897.894	1219.8
2901.264	1221.8
2904.631	1241.8
2907.996	1220.8
2911.358	1257.8
2914.717	1253.8
2918.073	1247.8
2921.426	1267.8
2924.777	1301.8
2928.124	1324.8
2931.469	1338.8
2934.811	1371.8
2938.15	1401.8
2941.487	1409.8
2944.821	1403.8
2948.152	1395.8
2951.48	1394.8
2954.805	1379.8
2958.128	1353.8
2961.447	1357.8
2964.765	1344.8
2968.079	1346.8
2971.39	1360.8
2974.699	1390.8
2978.005	1397.8
2981.308	1436.8
2984.609	1462.8
2987.907	1472.8
2991.202	1509.8
2994.494	1543.8
2997.784	1556.8
3001.07	1610.8
3004.355	1615.8
3007.636	1650.8
3010.915	1653.8
3014.191	1689.8
3017.464	1692.8
3020.734	1726.8
3024.002	1712.8
3027.267	1740.8
3030.53	1753.8
3033.789	1777.8
3037.046	1787.8
3040.301	1834.8
3043.552	1860.8
3046.801	1906.8
3050.048	1956.8
3053.291	1975.8
3056.532	2051.8
3059.771	2103.8
3063.006	2151.8
3066.239	2209.8
3069.469	2291.8
3072.697	2354.8
3075.922	2407.8
3079.144	2468.8
3082.364	2532.8
3085.581	2588.8
3088.795	2644.8
3092.007	2667.8
3095.216	2729.8
3098.423	2802.8
3101.627	2844.8
3104.828	2947.8
3108.026	2991.8
3111.222	3080.8
3114.416	3144.8
3117.607	3180.8
3120.795	3263.8
3123.98	3365.8
3127.163	3453.8
3130.344	3526.8
3133.521	3599.8
3136.696	3690.8
3139.869	3737.8
3143.039	3812.8
3146.206	3897.8
3149.371	3944.8
3152.533	3998.8
3155.693	4000.8
3158.85	4017.8
3162.005	4057.8
3165.157	4055.8
3168.306	4090.8
3171.453	4073.8
3174.597	4077.8
3177.739	4067.8
3180.878	4108.8
3184.014	4095.8
3187.149	4138.8
3190.28	4090.8
3193.409	4142.8
3196.536	4118.8
3199.659	4137.8
3202.781	4127.8
3205.9	4121.8
3209.016	4137.8
3212.13	4094.8
3215.241	4092.8
3218.35	4032.8
3221.456	3994.8
3224.56	3958.8
3227.661	3931.8
3230.76	3891.8
3233.856	3836.8
3236.95	3809.8
3240.041	3768.8
3243.13	3744.8
3246.216	3704.8
3249.3	3695.8
3252.382	3708.8
3255.46	3660.8
3258.537	3641.8
3261.611	3663.8
3264.682	3680.8
3267.751	3633.8
3270.818	3642.8
3273.882	3618.8
3276.943	3614.8
3280.002	3598.8
3283.059	3555.8
3286.113	3519.8
3289.165	3457.8
3292.214	3394.8
3295.261	3350.8
3298.306	3285.8
3301.348	3244.8
3304.387	3198.8
3307.425	3173.8
3310.459	3107.8
3313.492	3052.8
3316.521	3038.8
3319.549	2985.8
3322.574	2967.8
3325.597	2920.8
3328.617	2932.8
3331.635	2916.8
3334.65	2859.8
3337.663	2867.8
3340.674	2851.8
3343.682	2836.8
3346.688	2828.8
3349.691	2808.8
3352.692	2801.8
3355.691	2814.8
3358.687	2747.8
3361.681	2749.8
3364.673	2686.8
3367.662	2667.8
3370.649	2612.8
3373.633	2578.8
3376.615	2550.8
3379.595	2502.8
3382.572	2459.8
3385.547	2446.8
3388.52	2388.8
3391.49	2353.8
3394.458	2310.8
3397.424	2274.8
3400.387	2258.8
3403.348	2229.8
3406.307	2224.8
3409.263	2171.8
3412.217	2148.8
3415.168	2140.8
3418.118	2097.8
3421.065	2062.8
3424.009	2049.8
3426.951	1999.8
3429.891	1975.8
3432.829	1930.8
3435.764	1890.8
3438.697	1861.8
3441.628	1802.8
3444.557	1741.8
3447.483	1671.8
3450.407	1634.8
3453.328	1574.8
3456.247	1494.8
3459.164	1459.8
3462.079	1405.8
3464.991	1370.8
3467.902	1304.8
3470.809	1264.8
3473.715	1213.8
3476.618	1190.8
3479.519	1149.8
3482.418	1091.8
3485.315	1055.8
3488.209	1008.8
3491.101	981.8
3493.99	950.8
3496.878	908.8
3499.763	879.8
3502.646	848.8
3505.527	786.8
3508.405	761.8
3511.281	706.8
3514.155	674.8
3517.027	625.8
3519.897	575.8
3522.764	559.8
3525.629	502.8
3528.492	461.8
3531.352	424.8
3534.211	379.8
3537.067	342.8
3539.921	301.8
3542.773	275.8
3545.622	242.8
3548.469	210.8
3551.315	175.8
3554.157	150.8
3556.998	118.8
3559.837	102.8
3562.673	71.8
3565.507	56.8
3568.339	25.8
3571.169	0.8
3573.996	2.8
3576.822	-32.2
3579.645	-52.2
3582.466	-59.2
3585.285	-91.2
3588.101	-104.2
3590.916	-129.2
3593.728	-167.2
3596.538	-171.2
3599.346	-191.2
3602.152	-194.2
3604.956	-222.2
3607.757	-231.2
3610.556	-240.2
3613.354	-272.2
3616.149	-281.2
3618.942	-285.2
3621.732	-311.2
3624.521	-310.2
3627.307	-323.2
3630.092	-340.2
3632.874	-344.2
3635.654	-367.2
3638.432	-364.2
3641.208	-362.2
3643.982	-388.2
3646.753	-391.2
3649.523	-404.2
3652.29	-412.2
3655.055	-421.2
3657.818	-432.2
3660.579	-442.2
3663.338	-445.2
3666.095	-463.2
3668.849	-473.2
3671.602	-471.2
3674.352	-483.2
3677.101	-491.2
3679.847	-506.2
3682.591	-498.2
3685.333	-506.2
3688.073	-516.2
3690.811	-516.2
3693.547	-519.2
3696.281	-536.2
3699.013	-531.2
3701.742	-544.2
3704.47	-542.2
3707.195	-555.2
3709.919	-557.2
3712.64	-559.2
3715.359	-562.2
3718.076	-571.2
3720.792	-570.2
3723.505	-579.2
3726.216	-578.2
3728.925	-583.2
3731.632	-585.2
3734.336	-589.2
3737.039	-598.2
3739.74	-592.2
3742.439	-598.2
3745.136	-597.2
3747.83	-598.2
3750.523	-593.2
3753.213	-614.2
3755.902	-606.2
3758.589	-600.2
3761.273	-607.2
3763.956	-610.2
3766.636	-613.2
3769.315	-617.2
3771.991	-619.2
3774.665	-621.2
3777.338	-622.2
3780.008	-619.2
3782.677	-626.2
3785.343	-625.2
3788.007	-623.2
3790.67	-626.2
3793.33	-628.2
3795.989	-631.2
3798.645	-635.2
3801.299	-636.2
3803.952	-638.2
3806.602	-636.2
3809.251	-639.2
3811.897	-637.2
3814.542	-629.2
3817.184	-636.2
3819.825	-633.2
3822.463	-634.2
3825.1	-642.2
3827.735	-644.2
3830.367	-646.2
3832.998	-640.2
3835.627	-645.2
3838.253	-648.2
3840.878	-646.2
3843.501	-646.2
3846.122	-650.2
3848.741	-647.2
3851.358	-653.2
3853.973	-649.2
3856.586	-647.2
3859.197	-653.2
3861.806	-647.2
3864.414	-641.2
3867.019	-647.2
3869.622	-654.2
3872.224	-644.2
3874.823	-627.2
3877.421	-609.2
3880.016	-594.2
3882.61	-548.2
3885.202	-548.2
3887.792	-580.2
3890.38	-609.2
3892.966	-632.2
3895.55	-641.2
3898.132	-650.2
3900.713	-660.2
3903.291	-660.2
3905.868	-661.2
3908.442	-658.2
3911.015	-665.2
3913.586	-661.2
3916.155	-665.2
3918.722	-661.2
3921.287	-664.2
3923.85	-664.2
3926.411	-664.2
3928.971	-671.2
3931.528	-659.2
3934.084	-655.2
3936.638	-667.2
3939.19	-666.2
3941.74	-672.2
3944.288	-664.2
3946.834	-667.2
3949.378	-667.2
3951.921	-668.2
3954.462	-669.2
3957	-661.2
3959.537	-661.2
3962.072	-660.2
3964.606	-658.2
3967.137	-667.2
3969.667	-662.2
3972.194	-657.2
3974.72	-661.2
3977.244	-653.2
3979.766	-658.2
3982.286	-662.2
3984.805	-646.2
3987.321	-650.2
3989.836	-650.2
3992.349	-647.2
3994.86	-650.2
3997.369	-660.2
3999.877	-647.2
4002.382	-645.2
4004.886	-655.2
4007.388	-649.2
4009.888	-650.2
4012.386	-653.2
4014.883	-650.2
4017.377	-648.2
4019.87	-648.2
4022.361	-649.2
4024.85	-652.2
4027.338	-652.2
4029.823	-652.2
4032.307	-660.2
4034.789	-660.2
4037.269	-662.2
4039.747	-658.2
4042.224	-649.2
4044.699	-657.2
4047.172	-661.2
4049.643	-657.2
4052.112	-654.2
4054.58	-650.2
4057.046	-661.2
4059.51	-649.2
4061.972	-661.2
4064.432	-649.2
4066.891	-655.2
4069.348	-652.2
4071.803	-658.2
4074.256	-649.2
4076.708	-656.2
4079.158	-647.2
4081.606	-649.2
4084.052	-648.2
4086.497	-658.2
4088.939	-651.2
4091.38	-645.2
4093.819	-648.2
4096.257	-685.2
4098.693	-693.2
4101.127	-691.2
4103.559	-690.2
4105.989	-404.2
4108.418	-386.2
4110.845	-374.2
4113.27	-350.2
4115.694	-296.2
4118.115	-244.2
4120.535	-650.2
4122.954	-657.2
4125.37	-655.2
4127.785	-649.2
4130.198	-661.2
4132.609	-648.2
4135.019	-693.2
4137.427	-689.2
4139.833	-688.2
4142.237	-686.2
