Data from 2018-2-7_conc=6_RamanShift_19.txt Node
Date: Tue Feb 13 14:39:13 IST 2018
User: aro
Spectrometer: QEPB0276
Trigger mode: 0
Integration Time (sec): 3.000000E1
Scans to average: 1
Electric dark correction enabled: true
Nonlinearity correction enabled: false
Boxcar width: 0
XAxis mode: Raman Shifts
Number of Pixels in Spectrum: 1044
>>>>>Begin Spectral Data<<<<<
160.701	-159.2
166.742	27.8
172.777	565.8
178.805	2193.8
184.826	6014.8
190.841	12493.8
196.849	19745.8
202.85	24812.8
208.845	26381.8
214.833	26077.8
220.815	25573.8
226.789	25218.8
232.758	25131.8
238.719	24997.8
244.674	24628.8
250.623	24114.8
256.565	23630.8
262.5	23026.8
268.429	22603.8
274.351	22212.8
280.267	21945.8
286.176	21654.8
292.079	21410.8
297.975	21172.8
303.865	20965.8
309.748	20814.8
315.625	20764.8
321.495	20552.8
327.359	20489.8
333.217	20449.8
339.068	20452.8
344.912	20441.8
350.751	20374.8
356.583	20365.8
362.408	20310.8
368.227	20334.8
374.04	20324.8
379.847	20364.8
385.647	20443.8
391.44	20561.8
397.228	20594.8
403.009	20686.8
408.784	20794.8
414.553	20852.8
420.315	20916.8
426.071	20898.8
431.821	20952.8
437.565	20879.8
443.302	20878.8
449.033	20842.8
454.758	20707.8
460.477	20704.8
466.189	20671.8
471.896	20651.8
477.596	20524.8
483.29	20568.8
488.978	20542.8
494.66	20388.8
500.335	20216.8
506.005	20095.8
511.668	19765.8
517.325	19614.8
522.977	19335.8
528.622	19319.8
534.261	19188.8
539.894	19046.8
545.521	18979.8
551.141	18949.8
556.756	18839.8
562.365	18796.8
567.968	18725.8
573.565	18644.8
579.155	18615.8
584.74	18441.8
590.319	18436.8
595.892	18275.8
601.459	18255.8
607.02	18234.8
612.575	18077.8
618.124	17975.8
623.667	17838.8
629.204	17809.8
634.735	17684.8
640.261	17617.8
645.781	17588.8
651.294	17492.8
656.802	17511.8
662.304	17457.8
667.8	17496.8
673.29	17474.8
678.775	17317.8
684.254	17298.8
689.726	17230.8
695.193	17209.8
700.655	17169.8
706.11	17049.8
711.56	16962.8
717.004	16882.8
722.442	16772.8
727.874	16704.8
733.301	16649.8
738.722	16634.8
744.137	16563.8
749.547	16552.8
754.951	16584.8
760.349	16567.8
765.741	16579.8
771.128	16579.8
776.509	16574.8
781.885	16590.8
787.254	16507.8
792.618	16468.8
797.977	16360.8
803.33	16301.8
808.677	16127.8
814.019	16136.8
819.355	15995.8
824.686	15909.8
830.011	15906.8
835.33	15858.8
840.644	15894.8
845.952	15913.8
851.255	15990.8
856.552	15962.8
861.844	15938.8
867.13	15967.8
872.41	15844.8
877.686	15744.8
882.955	15612.8
888.219	15492.8
893.478	15318.8
898.731	15090.8
903.979	14962.8
909.221	14868.8
914.458	14841.8
919.69	14770.8
924.916	14876.8
930.136	14894.8
935.351	14909.8
940.561	14894.8
945.766	14854.8
950.965	14778.8
956.158	14663.8
961.347	14495.8
966.529	14343.8
971.707	14195.8
976.879	13989.8
982.046	13880.8
987.208	13862.8
992.364	13855.8
997.515	13923.8
1002.66	14035.8
1007.801	14203.8
1012.936	14298.8
1018.066	14332.8
1023.19	14298.8
1028.309	14310.8
1033.423	14280.8
1038.532	14194.8
1043.636	14064.8
1048.734	13832.8
1053.827	13676.8
1058.915	13547.8
1063.998	13467.8
1069.075	13395.8
1074.147	13459.8
1079.214	13494.8
1084.276	13568.8
1089.333	13644.8
1094.385	13666.8
1099.431	13776.8
1104.472	13754.8
1109.509	13711.8
1114.54	13509.8
1119.565	13332.8
1124.586	13183.8
1129.602	13033.8
1134.613	12951.8
1139.618	12833.8
1144.619	12834.8
1149.614	12757.8
1154.604	12873.8
1159.589	12872.8
1164.57	12912.8
1169.545	12945.8
1174.515	12894.8
1179.48	12833.8
1184.44	12740.8
1189.395	12661.8
1194.345	12577.8
1199.29	12514.8
1204.23	12496.8
1209.165	12573.8
1214.095	12615.8
1219.021	12679.8
1223.941	12732.8
1228.856	12835.8
1233.766	12864.8
1238.672	12836.8
1243.572	12850.8
1248.467	12764.8
1253.358	12661.8
1258.244	12443.8
1263.124	12302.8
1268	12091.8
1272.871	11973.8
1277.737	11827.8
1282.599	11776.8
1287.455	11796.8
1292.306	11803.8
1297.153	11823.8
1301.995	11909.8
1306.832	11947.8
1311.664	11958.8
1316.491	11865.8
1321.314	11817.8
1326.132	11618.8
1330.945	11348.8
1335.753	11058.8
1340.556	10784.8
1345.354	10537.8
1350.148	10411.8
1354.937	10309.8
1359.722	10351.8
1364.501	10365.8
1369.276	10481.8
1374.046	10582.8
1378.811	10676.8
1383.572	10827.8
1388.327	10859.8
1393.079	10801.8
1397.825	10706.8
1402.567	10556.8
1407.304	10406.8
1412.036	10313.8
1416.764	10303.8
1421.487	10175.8
1426.205	10156.8
1430.919	10094.8
1435.628	10140.8
1440.333	10101.8
1445.032	10158.8
1449.727	10164.8
1454.418	10181.8
1459.104	10022.8
1463.785	9844.8
1468.462	9620.8
1473.134	9408.8
1477.802	9210.8
1482.465	9024.8
1487.123	8919.8
1491.777	8871.8
1496.426	8898.8
1501.071	9022.8
1505.711	9156.8
1510.347	9294.8
1514.978	9495.8
1519.604	9620.8
1524.226	9725.8
1528.844	9703.8
1533.457	9676.8
1538.065	9634.8
1542.669	9548.8
1547.269	9559.8
1551.864	9504.8
1556.454	9435.8
1561.041	9478.8
1565.622	9432.8
1570.199	9463.8
1574.772	9537.8
1579.34	9598.8
1583.904	9709.8
1588.464	9712.8
1593.019	9712.8
1597.569	9665.8
1602.115	9643.8
1606.657	9579.8
1611.195	9525.8
1615.728	9447.8
1620.256	9436.8
1624.78	9421.8
1629.3	9452.8
1633.816	9460.8
1638.327	9515.8
1642.834	9544.8
1647.336	9586.8
1651.834	9598.8
1656.328	9597.8
1660.817	9556.8
1665.302	9412.8
1669.783	9230.8
1674.259	9017.8
1678.732	8732.8
1683.199	8381.8
1687.663	8109.8
1692.122	7845.8
1696.577	7704.8
1701.028	7672.8
1705.474	7697.8
1709.917	7848.8
1714.355	7794.8
1718.788	7763.8
1723.218	7643.8
1727.643	7511.8
1732.064	7394.8
1736.481	7189.8
1740.893	7009.8
1745.301	6818.8
1749.705	6633.8
1754.105	6455.8
1758.501	6252.8
1762.893	6088.8
1767.28	5905.8
1771.663	5782.8
1776.042	5635.8
1780.417	5607.8
1784.787	5616.8
1789.154	5684.8
1793.516	5738.8
1797.874	5893.8
1802.228	5968.8
1806.578	6006.8
1810.924	6034.8
1815.266	5980.8
1819.603	5921.8
1823.937	5807.8
1828.266	5733.8
1832.591	5622.8
1836.913	5588.8
1841.23	5511.8
1845.543	5483.8
1849.852	5460.8
1854.156	5443.8
1858.457	5405.8
1862.754	5401.8
1867.047	5393.8
1871.335	5375.8
1875.62	5352.8
1879.9	5397.8
1884.177	5317.8
1888.449	5292.8
1892.718	5197.8
1896.982	5112.8
1901.243	5096.8
1905.499	5069.8
1909.752	5007.8
1914	5025.8
1918.245	5022.8
1922.485	5067.8
1926.722	5106.8
1930.954	5197.8
1935.183	5207.8
1939.408	5278.8
1943.628	5317.8
1947.845	5329.8
1952.058	5351.8
1956.267	5301.8
1960.472	5237.8
1964.673	5173.8
1968.87	5079.8
1973.063	4995.8
1977.252	4924.8
1981.438	4893.8
1985.619	4868.8
1989.797	4810.8
1993.971	4755.8
1998.14	4750.8
2002.306	4738.8
2006.469	4724.8
2010.627	4719.8
2014.781	4687.8
2018.932	4616.8
2023.078	4600.8
2027.221	4489.8
2031.36	4460.8
2035.495	4371.8
2039.627	4281.8
2043.754	4242.8
2047.878	4217.8
2051.998	4200.8
2056.114	4200.8
2060.226	4147.8
2064.334	4185.8
2068.439	4164.8
2072.54	4218.8
2076.637	4260.8
2080.73	4247.8
2084.82	4278.8
2088.906	4279.8
2092.988	4288.8
2097.066	4270.8
2101.14	4294.8
2105.211	4229.8
2109.278	4185.8
2113.342	4174.8
2117.401	4165.8
2121.457	4130.8
2125.509	4124.8
2129.558	4131.8
2133.602	4069.8
2137.643	4080.8
2141.681	4042.8
2145.714	4011.8
2149.744	3996.8
2153.77	3966.8
2157.793	3920.8
2161.812	3895.8
2165.827	3827.8
2169.838	3762.8
2173.846	3704.8
2177.851	3615.8
2181.851	3577.8
2185.848	3545.8
2189.841	3516.8
2193.831	3473.8
2197.817	3449.8
2201.799	3431.8
2205.778	3399.8
2209.753	3382.8
2213.725	3374.8
2217.693	3377.8
2221.657	3366.8
2225.618	3369.8
2229.575	3358.8
2233.529	3309.8
2237.479	3259.8
2241.425	3244.8
2245.368	3192.8
2249.307	3154.8
2253.243	3116.8
2257.175	3080.8
2261.104	2997.8
2265.029	2980.8
2268.95	2941.8
2272.868	2918.8
2276.783	2866.8
2280.694	2861.8
2284.601	2822.8
2288.505	2825.8
2292.405	2787.8
2296.302	2744.8
2300.195	2728.8
2304.085	2689.8
2307.971	2662.8
2311.854	2590.8
2315.734	2561.8
2319.609	2556.8
2323.482	2507.8
2327.351	2479.8
2331.216	2500.8
2335.078	2458.8
2338.937	2438.8
2342.792	2440.8
2346.643	2436.8
2350.492	2437.8
2354.336	2418.8
2358.178	2432.8
2362.015	2449.8
2365.85	2444.8
2369.681	2434.8
2373.508	2466.8
2377.333	2457.8
2381.153	2455.8
2384.971	2444.8
2388.785	2392.8
2392.595	2421.8
2396.402	2377.8
2400.206	2375.8
2404.007	2324.8
2407.804	2302.8
2411.597	2298.8
2415.388	2288.8
2419.174	2278.8
2422.958	2264.8
2426.738	2253.8
2430.515	2240.8
2434.289	2222.8
2438.059	2214.8
2441.825	2163.8
2445.589	2158.8
2449.349	2141.8
2453.106	2095.8
2456.859	2073.8
2460.61	2068.8
2464.356	2025.8
2468.1	1980.8
2471.84	1975.8
2475.577	1948.8
2479.311	1943.8
2483.041	1921.8
2486.768	1932.8
2490.492	1917.8
2494.213	1900.8
2497.93	1895.8
2501.644	1905.8
2505.355	1905.8
2509.062	1855.8
2512.766	1864.8
2516.467	1839.8
2520.165	1837.8
2523.859	1817.8
2527.551	1838.8
2531.239	1798.8
2534.923	1776.8
2538.605	1763.8
2542.283	1783.8
2545.958	1764.8
2549.63	1747.8
2553.299	1742.8
2556.964	1765.8
2560.626	1751.8
2564.285	1728.8
2567.941	1737.8
2571.594	1699.8
2575.243	1724.8
2578.89	1696.8
2582.533	1690.8
2586.173	1690.8
2589.809	1640.8
2593.443	1632.8
2597.073	1612.8
2600.701	1609.8
2604.325	1581.8
2607.946	1569.8
2611.564	1573.8
2615.178	1585.8
2618.79	1538.8
2622.398	1538.8
2626.004	1534.8
2629.606	1503.8
2633.205	1467.8
2636.801	1454.8
2640.394	1452.8
2643.983	1429.8
2647.57	1406.8
2651.153	1374.8
2654.734	1371.8
2658.311	1342.8
2661.885	1318.8
2665.456	1327.8
2669.025	1286.8
2672.589	1298.8
2676.151	1264.8
2679.71	1253.8
2683.266	1211.8
2686.819	1216.8
2690.368	1177.8
2693.915	1137.8
2697.458	1114.8
2700.999	1082.8
2704.536	1069.8
2708.071	1056.8
2711.602	1024.8
2715.13	1011.8
2718.656	985.8
2722.178	958.8
2725.697	950.8
2729.214	942.8
2732.727	910.8
2736.237	917.8
2739.744	923.8
2743.249	904.8
2746.75	925.8
2750.248	931.8
2753.743	942.8
2757.236	945.8
2760.725	959.8
2764.211	958.8
2767.695	980.8
2771.175	968.8
2774.652	947.8
2778.127	967.8
2781.598	947.8
2785.067	955.8
2788.532	941.8
2791.995	947.8
2795.455	952.8
2798.911	948.8
2802.365	962.8
2805.816	940.8
2809.264	942.8
2812.709	962.8
2816.151	932.8
2819.59	961.8
2823.026	948.8
2826.46	952.8
2829.89	951.8
2833.318	949.8
2836.742	977.8
2840.164	983.8
2843.583	1004.8
2846.999	996.8
2850.412	989.8
2853.822	1002.8
2857.229	1027.8
2860.634	1055.8
2864.035	1068.8
2867.434	1084.8
2870.83	1110.8
2874.223	1132.8
2877.613	1159.8
2881	1174.8
2884.385	1180.8
2887.766	1179.8
2891.145	1194.8
2894.521	1175.8
2897.894	1168.8
2901.264	1177.8
2904.631	1172.8
2907.996	1174.8
2911.358	1199.8
2914.717	1202.8
2918.073	1190.8
2921.426	1216.8
2924.777	1236.8
2928.124	1261.8
2931.469	1284.8
2934.811	1310.8
2938.15	1326.8
2941.487	1318.8
2944.821	1341.8
2948.152	1330.8
2951.48	1318.8
2954.805	1316.8
2958.128	1289.8
2961.447	1283.8
2964.765	1271.8
2968.079	1291.8
2971.39	1301.8
2974.699	1302.8
2978.005	1307.8
2981.308	1352.8
2984.609	1368.8
2987.907	1410.8
2991.202	1416.8
2994.494	1463.8
2997.784	1512.8
3001.07	1529.8
3004.355	1535.8
3007.636	1558.8
3010.915	1584.8
3014.191	1612.8
3017.464	1624.8
3020.734	1625.8
3024.002	1639.8
3027.267	1666.8
3030.53	1657.8
3033.789	1685.8
3037.046	1703.8
3040.301	1735.8
3043.552	1782.8
3046.801	1807.8
3050.048	1863.8
3053.291	1917.8
3056.532	1965.8
3059.771	2011.8
3063.006	2094.8
3066.239	2148.8
3069.469	2186.8
3072.697	2250.8
3075.922	2302.8
3079.144	2370.8
3082.364	2412.8
3085.581	2489.8
3088.795	2528.8
3092.007	2570.8
3095.216	2610.8
3098.423	2686.8
3101.627	2751.8
3104.828	2805.8
3108.026	2858.8
3111.222	2931.8
3114.416	2988.8
3117.607	3067.8
3120.795	3148.8
3123.98	3231.8
3127.163	3304.8
3130.344	3364.8
3133.521	3465.8
3136.696	3536.8
3139.869	3612.8
3143.039	3672.8
3146.206	3700.8
3149.371	3789.8
3152.533	3801.8
3155.693	3841.8
3158.85	3834.8
3162.005	3887.8
3165.157	3897.8
3168.306	3868.8
3171.453	3905.8
3174.597	3933.8
3177.739	3912.8
3180.878	3908.8
3184.014	3943.8
3187.149	3928.8
3190.28	3939.8
3193.409	3957.8
3196.536	3966.8
3199.659	3960.8
3202.781	3959.8
3205.9	3970.8
3209.016	3939.8
3212.13	3935.8
3215.241	3887.8
3218.35	3873.8
3221.456	3813.8
3224.56	3792.8
3227.661	3749.8
3230.76	3697.8
3233.856	3658.8
3236.95	3641.8
3240.041	3621.8
3243.13	3577.8
3246.216	3560.8
3249.3	3534.8
3252.382	3514.8
3255.46	3501.8
3258.537	3497.8
3261.611	3508.8
3264.682	3489.8
3267.751	3474.8
3270.818	3493.8
3273.882	3493.8
3276.943	3440.8
3280.002	3416.8
3283.059	3403.8
3286.113	3379.8
3289.165	3326.8
3292.214	3291.8
3295.261	3216.8
3298.306	3143.8
3301.348	3101.8
3304.387	3064.8
3307.425	3043.8
3310.459	2977.8
3313.492	2921.8
3316.521	2891.8
3319.549	2857.8
3322.574	2838.8
3325.597	2792.8
3328.617	2788.8
3331.635	2773.8
3334.65	2763.8
3337.663	2745.8
3340.674	2718.8
3343.682	2712.8
3346.688	2700.8
3349.691	2721.8
3352.692	2659.8
3355.691	2672.8
3358.687	2644.8
3361.681	2618.8
3364.673	2604.8
3367.662	2539.8
3370.649	2500.8
3373.633	2477.8
3376.615	2424.8
3379.595	2419.8
3382.572	2358.8
3385.547	2329.8
3388.52	2291.8
3391.49	2274.8
3394.458	2243.8
3397.424	2194.8
3400.387	2159.8
3403.348	2145.8
3406.307	2111.8
3409.263	2108.8
3412.217	2056.8
3415.168	2036.8
3418.118	2008.8
3421.065	1983.8
3424.009	1990.8
3426.951	1932.8
3429.891	1885.8
3432.829	1814.8
3435.764	1799.8
3438.697	1764.8
3441.628	1715.8
3444.557	1677.8
3447.483	1604.8
3450.407	1562.8
3453.328	1514.8
3456.247	1471.8
3459.164	1411.8
3462.079	1358.8
3464.991	1328.8
3467.902	1258.8
3470.809	1215.8
3473.715	1161.8
3476.618	1153.8
3479.519	1080.8
3482.418	1045.8
3485.315	1006.8
3488.209	959.8
3491.101	938.8
3493.99	895.8
3496.878	859.8
3499.763	834.8
3502.646	794.8
3505.527	750.8
3508.405	725.8
3511.281	673.8
3514.155	637.8
3517.027	615.8
3519.897	582.8
3522.764	536.8
3525.629	491.8
3528.492	440.8
3531.352	398.8
3534.211	371.8
3537.067	327.8
3539.921	299.8
3542.773	266.8
3545.622	243.8
3548.469	199.8
3551.315	176.8
3554.157	154.8
3556.998	124.8
3559.837	94.8
3562.673	74.8
3565.507	56.8
3568.339	26.8
3571.169	5.8
3573.996	-1.2
3576.822	-17.2
3579.645	-44.2
3582.466	-67.2
3585.285	-89.2
3588.101	-104.2
3590.916	-117.2
3593.728	-146.2
3596.538	-165.2
3599.346	-179.2
3602.152	-191.2
3604.956	-220.2
3607.757	-222.2
3610.556	-241.2
3613.354	-250.2
3616.149	-261.2
3618.942	-280.2
3621.732	-289.2
3624.521	-289.2
3627.307	-313.2
3630.092	-320.2
3632.874	-328.2
3635.654	-332.2
3638.432	-338.2
3641.208	-353.2
3643.982	-363.2
3646.753	-362.2
3649.523	-381.2
3652.29	-393.2
3655.055	-389.2
3657.818	-412.2
3660.579	-413.2
3663.338	-420.2
3666.095	-434.2
3668.849	-451.2
3671.602	-453.2
3674.352	-464.2
3677.101	-459.2
3679.847	-478.2
3682.591	-478.2
3685.333	-479.2
3688.073	-486.2
3690.811	-497.2
3693.547	-490.2
3696.281	-501.2
3699.013	-502.2
3701.742	-510.2
3704.47	-514.2
3707.195	-530.2
3709.919	-523.2
3712.64	-534.2
3715.359	-540.2
3718.076	-546.2
3720.792	-547.2
3723.505	-542.2
3726.216	-544.2
3728.925	-554.2
3731.632	-561.2
3734.336	-563.2
3737.039	-569.2
3739.74	-568.2
3742.439	-570.2
3745.136	-571.2
3747.83	-575.2
3750.523	-573.2
3753.213	-579.2
3755.902	-580.2
3758.589	-577.2
3761.273	-574.2
3763.956	-587.2
3766.636	-585.2
3769.315	-588.2
3771.991	-591.2
3774.665	-586.2
3777.338	-586.2
3780.008	-584.2
3782.677	-591.2
3785.343	-594.2
3788.007	-590.2
3790.67	-593.2
3793.33	-599.2
3795.989	-597.2
3798.645	-605.2
3801.299	-604.2
3803.952	-605.2
3806.602	-602.2
3809.251	-606.2
3811.897	-605.2
3814.542	-604.2
3817.184	-610.2
3819.825	-612.2
3822.463	-601.2
3825.1	-613.2
3827.735	-618.2
3830.367	-613.2
3832.998	-613.2
3835.627	-615.2
3838.253	-616.2
3840.878	-615.2
3843.501	-622.2
3846.122	-613.2
3848.741	-617.2
3851.358	-620.2
3853.973	-615.2
3856.586	-616.2
3859.197	-618.2
3861.806	-612.2
3864.414	-613.2
3867.019	-613.2
3869.622	-618.2
3872.224	-611.2
3874.823	-599.2
3877.421	-583.2
3880.016	-565.2
3882.61	-538.2
3885.202	-535.2
3887.792	-554.2
3890.38	-581.2
3892.966	-608.2
3895.55	-617.2
3898.132	-619.2
3900.713	-628.2
3903.291	-630.2
3905.868	-628.2
3908.442	-631.2
3911.015	-627.2
3913.586	-629.2
3916.155	-626.2
3918.722	-628.2
3921.287	-629.2
3923.85	-630.2
3926.411	-631.2
3928.971	-634.2
3931.528	-636.2
3934.084	-631.2
3936.638	-634.2
3939.19	-637.2
3941.74	-637.2
3944.288	-640.2
3946.834	-640.2
3949.378	-642.2
3951.921	-641.2
3954.462	-643.2
3957	-632.2
3959.537	-631.2
3962.072	-628.2
3964.606	-627.2
3967.137	-633.2
3969.667	-632.2
3972.194	-624.2
3974.72	-625.2
3977.244	-619.2
3979.766	-622.2
3982.286	-624.2
3984.805	-612.2
3987.321	-610.2
3989.836	-614.2
3992.349	-620.2
3994.86	-612.2
3997.369	-629.2
3999.877	-617.2
4002.382	-616.2
4004.886	-617.2
4007.388	-622.2
4009.888	-623.2
4012.386	-622.2
4014.883	-622.2
4017.377	-624.2
4019.87	-623.2
4022.361	-623.2
4024.85	-628.2
4027.338	-624.2
4029.823	-617.2
4032.307	-620.2
4034.789	-626.2
4037.269	-624.2
4039.747	-626.2
4042.224	-622.2
4044.699	-620.2
4047.172	-628.2
4049.643	-623.2
4052.112	-620.2
4054.58	-618.2
4057.046	-628.2
4059.51	-622.2
4061.972	-625.2
4064.432	-620.2
4066.891	-620.2
4069.348	-626.2
4071.803	-630.2
4074.256	-622.2
4076.708	-624.2
4079.158	-623.2
4081.606	-620.2
4084.052	-626.2
4086.497	-625.2
4088.939	-624.2
4091.38	-614.2
4093.819	-620.2
4096.257	-655.2
4098.693	-654.2
4101.127	-654.2
4103.559	-654.2
4105.989	-383.2
4108.418	-367.2
4110.845	-349.2
4113.27	-327.2
4115.694	-282.2
4118.115	-234.2
4120.535	-621.2
4122.954	-628.2
4125.37	-624.2
4127.785	-622.2
4130.198	-626.2
4132.609	-618.2
4135.019	-658.2
4137.427	-659.2
4139.833	-656.2
4142.237	-654.2
