Data from 2018-2-7_conc=3_RamanShift_24.txt Node
Date: Tue Feb 13 12:39:14 IST 2018
User: aro
Spectrometer: QEPB0276
Trigger mode: 0
Integration Time (sec): 3.000000E1
Scans to average: 1
Electric dark correction enabled: true
Nonlinearity correction enabled: false
Boxcar width: 0
XAxis mode: Raman Shifts
Number of Pixels in Spectrum: 1044
>>>>>Begin Spectral Data<<<<<
160.701	-158.4
166.742	29.6
172.777	595.6
178.805	2298.6
184.826	6269.6
190.841	12952.6
196.849	20434.6
202.85	25712.6
208.845	27399.6
214.833	27140.6
220.815	26704.6
226.789	26471.6
232.758	26366.6
238.719	26181.6
244.674	25835.6
250.623	25455.6
256.565	24922.6
262.5	24404.6
268.429	23942.6
274.351	23609.6
280.267	23337.6
286.176	23065.6
292.079	22843.6
297.975	22633.6
303.865	22519.6
309.748	22291.6
315.625	22074.6
321.495	22061.6
327.359	21969.6
333.217	21970.6
339.068	21956.6
344.912	21898.6
350.751	21872.6
356.583	21779.6
362.408	21858.6
368.227	21813.6
374.04	21771.6
379.847	21837.6
385.647	21902.6
391.44	22021.6
397.228	22107.6
403.009	22201.6
408.784	22209.6
414.553	22410.6
420.315	22385.6
426.071	22454.6
431.821	22418.6
437.565	22363.6
443.302	22362.6
449.033	22385.6
454.758	22296.6
460.477	22230.6
466.189	22195.6
471.896	22123.6
477.596	22128.6
483.29	22063.6
488.978	22021.6
494.66	21932.6
500.335	21857.6
506.005	21596.6
511.668	21323.6
517.325	21097.6
522.977	20919.6
528.622	20782.6
534.261	20675.6
539.894	20550.6
545.521	20437.6
551.141	20401.6
556.756	20434.6
562.365	20324.6
567.968	20208.6
573.565	20165.6
579.155	20060.6
584.74	19964.6
590.319	19926.6
595.892	19845.6
601.459	19750.6
607.02	19633.6
612.575	19536.6
618.124	19450.6
623.667	19323.6
629.204	19254.6
634.735	19147.6
640.261	19137.6
645.781	19030.6
651.294	18984.6
656.802	19006.6
662.304	18927.6
667.8	18933.6
673.29	18882.6
678.775	18865.6
684.254	18787.6
689.726	18716.6
695.193	18601.6
700.655	18531.6
706.11	18456.6
711.56	18434.6
717.004	18304.6
722.442	18257.6
727.874	18136.6
733.301	18073.6
738.722	18010.6
744.137	18014.6
749.547	18024.6
754.951	18095.6
760.349	18037.6
765.741	18015.6
771.128	18059.6
776.509	18046.6
781.885	18030.6
787.254	17978.6
792.618	17877.6
797.977	17782.6
803.33	17700.6
808.677	17588.6
814.019	17511.6
819.355	17413.6
824.686	17309.6
830.011	17328.6
835.33	17262.6
840.644	17312.6
845.952	17393.6
851.255	17467.6
856.552	17427.6
861.844	17351.6
867.13	17330.6
872.41	17231.6
877.686	17157.6
882.955	17061.6
888.219	16890.6
893.478	16748.6
898.731	16537.6
903.979	16346.6
909.221	16250.6
914.458	16155.6
919.69	16230.6
924.916	16221.6
930.136	16245.6
935.351	16293.6
940.561	16319.6
945.766	16301.6
950.965	16176.6
956.158	16088.6
961.347	15894.6
966.529	15691.6
971.707	15507.6
976.879	15336.6
982.046	15239.6
987.208	15136.6
992.364	15163.6
997.515	15278.6
1002.66	15397.6
1007.801	15575.6
1012.936	15672.6
1018.066	15708.6
1023.19	15634.6
1028.309	15738.6
1033.423	15638.6
1038.532	15540.6
1043.636	15376.6
1048.734	15208.6
1053.827	15052.6
1058.915	14897.6
1063.998	14787.6
1069.075	14702.6
1074.147	14718.6
1079.214	14830.6
1084.276	14869.6
1089.333	15001.6
1094.385	15050.6
1099.431	15140.6
1104.472	15059.6
1109.509	14958.6
1114.54	14806.6
1119.565	14682.6
1124.586	14391.6
1129.602	14312.6
1134.613	14209.6
1139.618	14136.6
1144.619	14132.6
1149.614	14134.6
1154.604	14117.6
1159.589	14215.6
1164.57	14214.6
1169.545	14283.6
1174.515	14242.6
1179.48	14132.6
1184.44	13998.6
1189.395	13946.6
1194.345	13836.6
1199.29	13765.6
1204.23	13741.6
1209.165	13800.6
1214.095	13918.6
1219.021	13925.6
1223.941	14075.6
1228.856	14097.6
1233.766	14141.6
1238.672	14178.6
1243.572	14145.6
1248.467	14068.6
1253.358	13910.6
1258.244	13719.6
1263.124	13535.6
1268	13284.6
1272.871	13109.6
1277.737	13042.6
1282.599	13026.6
1287.455	13026.6
1292.306	12986.6
1297.153	13044.6
1301.995	13091.6
1306.832	13131.6
1311.664	13119.6
1316.491	13058.6
1321.314	12943.6
1326.132	12761.6
1330.945	12452.6
1335.753	12168.6
1340.556	11900.6
1345.354	11633.6
1350.148	11465.6
1354.937	11365.6
1359.722	11316.6
1364.501	11354.6
1369.276	11477.6
1374.046	11670.6
1378.811	11779.6
1383.572	11900.6
1388.327	11942.6
1393.079	11905.6
1397.825	11794.6
1402.567	11589.6
1407.304	11524.6
1412.036	11383.6
1416.764	11316.6
1421.487	11189.6
1426.205	11181.6
1430.919	11122.6
1435.628	11154.6
1440.333	11165.6
1445.032	11210.6
1449.727	11213.6
1454.418	11148.6
1459.104	11006.6
1463.785	10833.6
1468.462	10607.6
1473.134	10328.6
1477.802	10152.6
1482.465	9931.6
1487.123	9832.6
1491.777	9774.6
1496.426	9833.6
1501.071	9914.6
1505.711	10103.6
1510.347	10246.6
1514.978	10386.6
1519.604	10603.6
1524.226	10669.6
1528.844	10668.6
1533.457	10672.6
1538.065	10632.6
1542.669	10572.6
1547.269	10486.6
1551.864	10441.6
1556.454	10437.6
1561.041	10396.6
1565.622	10377.6
1570.199	10467.6
1574.772	10441.6
1579.34	10564.6
1583.904	10613.6
1588.464	10602.6
1593.019	10665.6
1597.569	10567.6
1602.115	10554.6
1606.657	10471.6
1611.195	10390.6
1615.728	10290.6
1620.256	10269.6
1624.78	10231.6
1629.3	10245.6
1633.816	10241.6
1638.327	10289.6
1642.834	10318.6
1647.336	10432.6
1651.834	10435.6
1656.328	10400.6
1660.817	10296.6
1665.302	10184.6
1669.783	10044.6
1674.259	9797.6
1678.732	9520.6
1683.199	9164.6
1687.663	8819.6
1692.122	8602.6
1696.577	8426.6
1701.028	8354.6
1705.474	8432.6
1709.917	8540.6
1714.355	8571.6
1718.788	8524.6
1723.218	8420.6
1727.643	8280.6
1732.064	8187.6
1736.481	7975.6
1740.893	7783.6
1745.301	7555.6
1749.705	7353.6
1754.105	7157.6
1758.501	6966.6
1762.893	6761.6
1767.28	6559.6
1771.663	6407.6
1776.042	6264.6
1780.417	6226.6
1784.787	6235.6
1789.154	6242.6
1793.516	6363.6
1797.874	6494.6
1802.228	6616.6
1806.578	6694.6
1810.924	6709.6
1815.266	6670.6
1819.603	6547.6
1823.937	6452.6
1828.266	6340.6
1832.591	6310.6
1836.913	6210.6
1841.23	6151.6
1845.543	6119.6
1849.852	6083.6
1854.156	6070.6
1858.457	6038.6
1862.754	6049.6
1867.047	6016.6
1871.335	5991.6
1875.62	5981.6
1879.9	5917.6
1884.177	5910.6
1888.449	5864.6
1892.718	5756.6
1896.982	5690.6
1901.243	5653.6
1905.499	5601.6
1909.752	5563.6
1914	5548.6
1918.245	5588.6
1922.485	5592.6
1926.722	5665.6
1930.954	5699.6
1935.183	5818.6
1939.408	5860.6
1943.628	5898.6
1947.845	5940.6
1952.058	5923.6
1956.267	5855.6
1960.472	5803.6
1964.673	5737.6
1968.87	5634.6
1973.063	5546.6
1977.252	5480.6
1981.438	5429.6
1985.619	5345.6
1989.797	5300.6
1993.971	5263.6
1998.14	5284.6
2002.306	5262.6
2006.469	5233.6
2010.627	5192.6
2014.781	5182.6
2018.932	5135.6
2023.078	5037.6
2027.221	4970.6
2031.36	4908.6
2035.495	4829.6
2039.627	4742.6
2043.754	4722.6
2047.878	4653.6
2051.998	4635.6
2056.114	4586.6
2060.226	4603.6
2064.334	4604.6
2068.439	4609.6
2072.54	4629.6
2076.637	4652.6
2080.73	4696.6
2084.82	4726.6
2088.906	4729.6
2092.988	4731.6
2097.066	4731.6
2101.14	4671.6
2105.211	4640.6
2109.278	4636.6
2113.342	4644.6
2117.401	4576.6
2121.457	4560.6
2125.509	4543.6
2129.558	4528.6
2133.602	4480.6
2137.643	4480.6
2141.681	4443.6
2145.714	4434.6
2149.744	4377.6
2153.77	4390.6
2157.793	4333.6
2161.812	4284.6
2165.827	4207.6
2169.838	4126.6
2173.846	4104.6
2177.851	4040.6
2181.851	3993.6
2185.848	3925.6
2189.841	3872.6
2193.831	3845.6
2197.817	3820.6
2201.799	3798.6
2205.778	3778.6
2209.753	3765.6
2213.725	3763.6
2217.693	3734.6
2221.657	3713.6
2225.618	3700.6
2229.575	3693.6
2233.529	3667.6
2237.479	3673.6
2241.425	3568.6
2245.368	3552.6
2249.307	3481.6
2253.243	3451.6
2257.175	3427.6
2261.104	3360.6
2265.029	3313.6
2268.95	3295.6
2272.868	3238.6
2276.783	3210.6
2280.694	3176.6
2284.601	3177.6
2288.505	3128.6
2292.405	3097.6
2296.302	3063.6
2300.195	3029.6
2304.085	2999.6
2307.971	2969.6
2311.854	2930.6
2315.734	2883.6
2319.609	2825.6
2323.482	2795.6
2327.351	2804.6
2331.216	2787.6
2335.078	2731.6
2338.937	2728.6
2342.792	2738.6
2346.643	2725.6
2350.492	2755.6
2354.336	2749.6
2358.178	2730.6
2362.015	2754.6
2365.85	2754.6
2369.681	2742.6
2373.508	2733.6
2377.333	2771.6
2381.153	2752.6
2384.971	2729.6
2388.785	2711.6
2392.595	2713.6
2396.402	2655.6
2400.206	2661.6
2404.007	2613.6
2407.804	2619.6
2411.597	2601.6
2415.388	2582.6
2419.174	2582.6
2422.958	2536.6
2426.738	2522.6
2430.515	2527.6
2434.289	2480.6
2438.059	2473.6
2441.825	2456.6
2445.589	2440.6
2449.349	2408.6
2453.106	2373.6
2456.859	2316.6
2460.61	2294.6
2464.356	2281.6
2468.1	2242.6
2471.84	2222.6
2475.577	2183.6
2479.311	2209.6
2483.041	2179.6
2486.768	2171.6
2490.492	2171.6
2494.213	2164.6
2497.93	2153.6
2501.644	2129.6
2505.355	2107.6
2509.062	2113.6
2512.766	2100.6
2516.467	2087.6
2520.165	2067.6
2523.859	2047.6
2527.551	2032.6
2531.239	2037.6
2534.923	2002.6
2538.605	1993.6
2542.283	2005.6
2545.958	1983.6
2549.63	1969.6
2553.299	1980.6
2556.964	1975.6
2560.626	1965.6
2564.285	1947.6
2567.941	1942.6
2571.594	1919.6
2575.243	1947.6
2578.89	1924.6
2582.533	1895.6
2586.173	1893.6
2589.809	1873.6
2593.443	1851.6
2597.073	1837.6
2600.701	1824.6
2604.325	1822.6
2607.946	1782.6
2611.564	1775.6
2615.178	1805.6
2618.79	1751.6
2622.398	1748.6
2626.004	1748.6
2629.606	1723.6
2633.205	1680.6
2636.801	1646.6
2640.394	1640.6
2643.983	1616.6
2647.57	1604.6
2651.153	1587.6
2654.734	1543.6
2658.311	1528.6
2661.885	1482.6
2665.456	1487.6
2669.025	1460.6
2672.589	1458.6
2676.151	1439.6
2679.71	1430.6
2683.266	1380.6
2686.819	1373.6
2690.368	1330.6
2693.915	1291.6
2697.458	1286.6
2700.999	1252.6
2704.536	1225.6
2708.071	1194.6
2711.602	1173.6
2715.13	1149.6
2718.656	1105.6
2722.178	1102.6
2725.697	1085.6
2729.214	1062.6
2732.727	1049.6
2736.237	1045.6
2739.744	1046.6
2743.249	1034.6
2746.75	1038.6
2750.248	1049.6
2753.743	1048.6
2757.236	1065.6
2760.725	1073.6
2764.211	1099.6
2767.695	1077.6
2771.175	1104.6
2774.652	1095.6
2778.127	1101.6
2781.598	1071.6
2785.067	1082.6
2788.532	1072.6
2791.995	1064.6
2795.455	1050.6
2798.911	1072.6
2802.365	1055.6
2805.816	1078.6
2809.264	1068.6
2812.709	1072.6
2816.151	1065.6
2819.59	1082.6
2823.026	1064.6
2826.46	1071.6
2829.89	1055.6
2833.318	1048.6
2836.742	1075.6
2840.164	1086.6
2843.583	1058.6
2846.999	1094.6
2850.412	1119.6
2853.822	1136.6
2857.229	1126.6
2860.634	1145.6
2864.035	1176.6
2867.434	1205.6
2870.83	1210.6
2874.223	1216.6
2877.613	1254.6
2881	1241.6
2884.385	1274.6
2887.766	1255.6
2891.145	1269.6
2894.521	1247.6
2897.894	1248.6
2901.264	1273.6
2904.631	1248.6
2907.996	1255.6
2911.358	1253.6
2914.717	1276.6
2918.073	1289.6
2921.426	1300.6
2924.777	1316.6
2928.124	1338.6
2931.469	1347.6
2934.811	1379.6
2938.15	1398.6
2941.487	1405.6
2944.821	1389.6
2948.152	1393.6
2951.48	1382.6
2954.805	1355.6
2958.128	1346.6
2961.447	1342.6
2964.765	1345.6
2968.079	1339.6
2971.39	1342.6
2974.699	1360.6
2978.005	1380.6
2981.308	1421.6
2984.609	1446.6
2987.907	1453.6
2991.202	1498.6
2994.494	1534.6
2997.784	1546.6
3001.07	1570.6
3004.355	1600.6
3007.636	1621.6
3010.915	1636.6
3014.191	1649.6
3017.464	1671.6
3020.734	1670.6
3024.002	1668.6
3027.267	1692.6
3030.53	1728.6
3033.789	1743.6
3037.046	1748.6
3040.301	1799.6
3043.552	1818.6
3046.801	1855.6
3050.048	1905.6
3053.291	1956.6
3056.532	2006.6
3059.771	2058.6
3063.006	2105.6
3066.239	2168.6
3069.469	2242.6
3072.697	2326.6
3075.922	2340.6
3079.144	2405.6
3082.364	2475.6
3085.581	2516.6
3088.795	2573.6
3092.007	2650.6
3095.216	2659.6
3098.423	2740.6
3101.627	2774.6
3104.828	2879.6
3108.026	2921.6
3111.222	2986.6
3114.416	3062.6
3117.607	3119.6
3120.795	3172.6
3123.98	3251.6
3127.163	3338.6
3130.344	3446.6
3133.521	3511.6
3136.696	3568.6
3139.869	3642.6
3143.039	3721.6
3146.206	3738.6
3149.371	3798.6
3152.533	3841.6
3155.693	3851.6
3158.85	3900.6
3162.005	3897.6
3165.157	3936.6
3168.306	3919.6
3171.453	3950.6
3174.597	3949.6
3177.739	3938.6
3180.878	3944.6
3184.014	3949.6
3187.149	3976.6
3190.28	3948.6
3193.409	3951.6
3196.536	3981.6
3199.659	3953.6
3202.781	3956.6
3205.9	3951.6
3209.016	3968.6
3212.13	3945.6
3215.241	3909.6
3218.35	3870.6
3221.456	3830.6
3224.56	3784.6
3227.661	3741.6
3230.76	3720.6
3233.856	3655.6
3236.95	3652.6
3240.041	3581.6
3243.13	3563.6
3246.216	3555.6
3249.3	3511.6
3252.382	3518.6
3255.46	3467.6
3258.537	3488.6
3261.611	3486.6
3264.682	3496.6
3267.751	3490.6
3270.818	3489.6
3273.882	3460.6
3276.943	3447.6
3280.002	3413.6
3283.059	3357.6
3286.113	3345.6
3289.165	3291.6
3292.214	3252.6
3295.261	3206.6
3298.306	3142.6
3301.348	3107.6
3304.387	3043.6
3307.425	3008.6
3310.459	2947.6
3313.492	2900.6
3316.521	2874.6
3319.549	2834.6
3322.574	2803.6
3325.597	2773.6
3328.617	2758.6
3331.635	2750.6
3334.65	2749.6
3337.663	2695.6
3340.674	2705.6
3343.682	2690.6
3346.688	2669.6
3349.691	2699.6
3352.692	2655.6
3355.691	2615.6
3358.687	2601.6
3361.681	2577.6
3364.673	2539.6
3367.662	2518.6
3370.649	2462.6
3373.633	2441.6
3376.615	2402.6
3379.595	2361.6
3382.572	2324.6
3385.547	2289.6
3388.52	2258.6
3391.49	2217.6
3394.458	2198.6
3397.424	2149.6
3400.387	2126.6
3403.348	2104.6
3406.307	2093.6
3409.263	2045.6
3412.217	2046.6
3415.168	1999.6
3418.118	1988.6
3421.065	1925.6
3424.009	1932.6
3426.951	1882.6
3429.891	1846.6
3432.829	1824.6
3435.764	1764.6
3438.697	1716.6
3441.628	1671.6
3444.557	1623.6
3447.483	1585.6
3450.407	1527.6
3453.328	1459.6
3456.247	1419.6
3459.164	1368.6
3462.079	1303.6
3464.991	1255.6
3467.902	1216.6
3470.809	1149.6
3473.715	1146.6
3476.618	1064.6
3479.519	1063.6
3482.418	997.6
3485.315	963.6
3488.209	927.6
3491.101	896.6
3493.99	854.6
3496.878	817.6
3499.763	785.6
3502.646	752.6
3505.527	720.6
3508.405	696.6
3511.281	655.6
3514.155	610.6
3517.027	579.6
3519.897	528.6
3522.764	485.6
3525.629	446.6
3528.492	411.6
3531.352	380.6
3534.211	328.6
3537.067	296.6
3539.921	260.6
3542.773	233.6
3545.622	191.6
3548.469	158.6
3551.315	139.6
3554.157	114.6
3556.998	81.6
3559.837	74.6
3562.673	36.6
3565.507	22.6
3568.339	-0.4
3571.169	-30.4
3573.996	-45.4
3576.822	-60.4
3579.645	-79.4
3582.466	-99.4
3585.285	-120.4
3588.101	-132.4
3590.916	-163.4
3593.728	-175.4
3596.538	-199.4
3599.346	-222.4
3602.152	-228.4
3604.956	-240.4
3607.757	-258.4
3610.556	-276.4
3613.354	-284.4
3616.149	-298.4
3618.942	-304.4
3621.732	-327.4
3624.521	-332.4
3627.307	-343.4
3630.092	-343.4
3632.874	-353.4
3635.654	-371.4
3638.432	-379.4
3641.208	-379.4
3643.982	-394.4
3646.753	-408.4
3649.523	-421.4
3652.29	-426.4
3655.055	-432.4
3657.818	-437.4
3660.579	-453.4
3663.338	-454.4
3666.095	-463.4
3668.849	-485.4
3671.602	-480.4
3674.352	-487.4
3677.101	-492.4
3679.847	-512.4
3682.591	-507.4
3685.333	-509.4
3688.073	-514.4
3690.811	-527.4
3693.547	-528.4
3696.281	-536.4
3699.013	-541.4
3701.742	-550.4
3704.47	-554.4
3707.195	-564.4
3709.919	-566.4
3712.64	-567.4
3715.359	-569.4
3718.076	-566.4
3720.792	-572.4
3723.505	-570.4
3726.216	-582.4
3728.925	-587.4
3731.632	-590.4
3734.336	-594.4
3737.039	-600.4
3739.74	-591.4
3742.439	-597.4
3745.136	-599.4
3747.83	-606.4
3750.523	-599.4
3753.213	-608.4
3755.902	-610.4
3758.589	-609.4
3761.273	-604.4
3763.956	-611.4
3766.636	-610.4
3769.315	-618.4
3771.991	-622.4
3774.665	-620.4
3777.338	-617.4
3780.008	-624.4
3782.677	-622.4
3785.343	-628.4
3788.007	-616.4
3790.67	-625.4
3793.33	-634.4
3795.989	-631.4
3798.645	-637.4
3801.299	-635.4
3803.952	-636.4
3806.602	-634.4
3809.251	-641.4
3811.897	-632.4
3814.542	-629.4
3817.184	-640.4
3819.825	-637.4
3822.463	-643.4
3825.1	-649.4
3827.735	-647.4
3830.367	-647.4
3832.998	-647.4
3835.627	-644.4
3838.253	-649.4
3840.878	-644.4
3843.501	-645.4
3846.122	-647.4
3848.741	-648.4
3851.358	-651.4
3853.973	-650.4
3856.586	-649.4
3859.197	-652.4
3861.806	-652.4
3864.414	-648.4
3867.019	-644.4
3869.622	-649.4
3872.224	-645.4
3874.823	-633.4
3877.421	-614.4
3880.016	-601.4
3882.61	-567.4
3885.202	-570.4
3887.792	-590.4
3890.38	-617.4
3892.966	-640.4
3895.55	-646.4
3898.132	-655.4
3900.713	-666.4
3903.291	-660.4
3905.868	-664.4
3908.442	-665.4
3911.015	-664.4
3913.586	-664.4
3916.155	-659.4
3918.722	-662.4
3921.287	-664.4
3923.85	-663.4
3926.411	-663.4
3928.971	-663.4
3931.528	-665.4
3934.084	-663.4
3936.638	-668.4
3939.19	-666.4
3941.74	-670.4
3944.288	-670.4
3946.834	-667.4
3949.378	-672.4
3951.921	-670.4
3954.462	-663.4
3957	-664.4
3959.537	-659.4
3962.072	-660.4
3964.606	-665.4
3967.137	-667.4
3969.667	-668.4
3972.194	-662.4
3974.72	-663.4
3977.244	-657.4
3979.766	-656.4
3982.286	-655.4
3984.805	-645.4
3987.321	-651.4
3989.836	-648.4
3992.349	-652.4
3994.86	-644.4
3997.369	-656.4
3999.877	-645.4
4002.382	-649.4
4004.886	-650.4
4007.388	-655.4
4009.888	-649.4
4012.386	-655.4
4014.883	-652.4
4017.377	-649.4
4019.87	-652.4
4022.361	-654.4
4024.85	-656.4
4027.338	-660.4
4029.823	-654.4
4032.307	-661.4
4034.789	-651.4
4037.269	-660.4
4039.747	-660.4
4042.224	-651.4
4044.699	-659.4
4047.172	-651.4
4049.643	-655.4
4052.112	-657.4
4054.58	-653.4
4057.046	-655.4
4059.51	-656.4
4061.972	-662.4
4064.432	-658.4
4066.891	-655.4
4069.348	-661.4
4071.803	-661.4
4074.256	-655.4
4076.708	-653.4
4079.158	-661.4
4081.606	-647.4
4084.052	-648.4
4086.497	-653.4
4088.939	-645.4
4091.38	-644.4
4093.819	-647.4
4096.257	-689.4
4098.693	-690.4
4101.127	-694.4
4103.559	-693.4
4105.989	-408.4
4108.418	-401.4
4110.845	-364.4
4113.27	-345.4
4115.694	-302.4
4118.115	-250.4
4120.535	-646.4
4122.954	-658.4
4125.37	-655.4
4127.785	-652.4
4130.198	-659.4
4132.609	-651.4
4135.019	-693.4
4137.427	-690.4
4139.833	-692.4
4142.237	-689.4
