Data from 2018-2-7_conc=3_RamanShift_14.txt Node
Date: Tue Feb 13 12:30:14 IST 2018
User: aro
Spectrometer: QEPB0276
Trigger mode: 0
Integration Time (sec): 3.000000E1
Scans to average: 1
Electric dark correction enabled: true
Nonlinearity correction enabled: false
Boxcar width: 0
XAxis mode: Raman Shifts
Number of Pixels in Spectrum: 1044
>>>>>Begin Spectral Data<<<<<
160.701	-164.1
166.742	17.9
172.777	575.9
178.805	2227.9
184.826	6063.9
190.841	12495.9
196.849	19841.9
202.85	24887.9
208.845	26509.9
214.833	26132.9
220.815	25651.9
226.789	25479.9
232.758	25264.9
238.719	25053.9
244.674	24791.9
250.623	24282.9
256.565	23761.9
262.5	23225.9
268.429	22884.9
274.351	22443.9
280.267	22181.9
286.176	21881.9
292.079	21607.9
297.975	21449.9
303.865	21176.9
309.748	21071.9
315.625	20894.9
321.495	20747.9
327.359	20794.9
333.217	20649.9
339.068	20651.9
344.912	20632.9
350.751	20567.9
356.583	20597.9
362.408	20532.9
368.227	20570.9
374.04	20556.9
379.847	20604.9
385.647	20746.9
391.44	20787.9
397.228	20911.9
403.009	20961.9
408.784	21044.9
414.553	21086.9
420.315	21075.9
426.071	21137.9
431.821	21184.9
437.565	21075.9
443.302	21072.9
449.033	21032.9
454.758	21019.9
460.477	20973.9
466.189	20961.9
471.896	20886.9
477.596	20847.9
483.29	20774.9
488.978	20724.9
494.66	20693.9
500.335	20507.9
506.005	20325.9
511.668	20152.9
517.325	19870.9
522.977	19703.9
528.622	19581.9
534.261	19464.9
539.894	19365.9
545.521	19334.9
551.141	19232.9
556.756	19167.9
562.365	19139.9
567.968	19005.9
573.565	18930.9
579.155	18872.9
584.74	18777.9
590.319	18689.9
595.892	18577.9
601.459	18573.9
607.02	18504.9
612.575	18385.9
618.124	18277.9
623.667	18196.9
629.204	18080.9
634.735	17928.9
640.261	17943.9
645.781	17866.9
651.294	17816.9
656.802	17832.9
662.304	17834.9
667.8	17786.9
673.29	17721.9
678.775	17738.9
684.254	17647.9
689.726	17558.9
695.193	17539.9
700.655	17453.9
706.11	17348.9
711.56	17310.9
717.004	17221.9
722.442	17118.9
727.874	17040.9
733.301	17044.9
738.722	16952.9
744.137	16902.9
749.547	16899.9
754.951	16933.9
760.349	16952.9
765.741	16958.9
771.128	16924.9
776.509	16973.9
781.885	16964.9
787.254	16825.9
792.618	16870.9
797.977	16759.9
803.33	16645.9
808.677	16481.9
814.019	16438.9
819.355	16332.9
824.686	16268.9
830.011	16253.9
835.33	16225.9
840.644	16225.9
845.952	16301.9
851.255	16328.9
856.552	16335.9
861.844	16269.9
867.13	16299.9
872.41	16190.9
877.686	16099.9
882.955	16009.9
888.219	15836.9
893.478	15702.9
898.731	15506.9
903.979	15296.9
909.221	15227.9
914.458	15175.9
919.69	15158.9
924.916	15228.9
930.136	15283.9
935.351	15283.9
940.561	15237.9
945.766	15277.9
950.965	15175.9
956.158	15068.9
961.347	14934.9
966.529	14717.9
971.707	14535.9
976.879	14399.9
982.046	14223.9
987.208	14210.9
992.364	14165.9
997.515	14267.9
1002.66	14419.9
1007.801	14617.9
1012.936	14706.9
1018.066	14735.9
1023.19	14714.9
1028.309	14693.9
1033.423	14651.9
1038.532	14532.9
1043.636	14480.9
1048.734	14273.9
1053.827	14081.9
1058.915	13949.9
1063.998	13835.9
1069.075	13831.9
1074.147	13844.9
1079.214	13886.9
1084.276	13936.9
1089.333	14065.9
1094.385	14144.9
1099.431	14141.9
1104.472	14126.9
1109.509	14035.9
1114.54	13920.9
1119.565	13723.9
1124.586	13564.9
1129.602	13479.9
1134.613	13351.9
1139.618	13329.9
1144.619	13197.9
1149.614	13250.9
1154.604	13285.9
1159.589	13325.9
1164.57	13351.9
1169.545	13365.9
1174.515	13357.9
1179.48	13280.9
1184.44	13185.9
1189.395	13066.9
1194.345	13019.9
1199.29	12901.9
1204.23	12963.9
1209.165	12995.9
1214.095	13075.9
1219.021	13107.9
1223.941	13201.9
1228.856	13238.9
1233.766	13297.9
1238.672	13355.9
1243.572	13342.9
1248.467	13210.9
1253.358	13082.9
1258.244	12858.9
1263.124	12745.9
1268	12475.9
1272.871	12377.9
1277.737	12232.9
1282.599	12243.9
1287.455	12188.9
1292.306	12204.9
1297.153	12253.9
1301.995	12287.9
1306.832	12379.9
1311.664	12372.9
1316.491	12326.9
1321.314	12245.9
1326.132	12026.9
1330.945	11743.9
1335.753	11462.9
1340.556	11196.9
1345.354	10979.9
1350.148	10810.9
1354.937	10752.9
1359.722	10768.9
1364.501	10855.9
1369.276	10908.9
1374.046	11054.9
1378.811	11179.9
1383.572	11321.9
1388.327	11269.9
1393.079	11270.9
1397.825	11138.9
1402.567	10986.9
1407.304	10871.9
1412.036	10716.9
1416.764	10696.9
1421.487	10611.9
1426.205	10570.9
1430.919	10543.9
1435.628	10539.9
1440.333	10554.9
1445.032	10559.9
1449.727	10620.9
1454.418	10586.9
1459.104	10472.9
1463.785	10236.9
1468.462	10061.9
1473.134	9832.9
1477.802	9606.9
1482.465	9445.9
1487.123	9329.9
1491.777	9350.9
1496.426	9384.9
1501.071	9519.9
1505.711	9626.9
1510.347	9795.9
1514.978	10020.9
1519.604	10088.9
1524.226	10246.9
1528.844	10174.9
1533.457	10140.9
1538.065	10090.9
1542.669	10066.9
1547.269	9991.9
1551.864	9922.9
1556.454	9910.9
1561.041	9910.9
1565.622	9894.9
1570.199	9934.9
1574.772	9981.9
1579.34	10077.9
1583.904	10103.9
1588.464	10119.9
1593.019	10118.9
1597.569	10080.9
1602.115	10026.9
1606.657	9979.9
1611.195	9948.9
1615.728	9856.9
1620.256	9793.9
1624.78	9813.9
1629.3	9870.9
1633.816	9854.9
1638.327	9873.9
1642.834	9908.9
1647.336	9984.9
1651.834	9991.9
1656.328	9978.9
1660.817	9923.9
1665.302	9765.9
1669.783	9617.9
1674.259	9451.9
1678.732	9166.9
1683.199	8832.9
1687.663	8518.9
1692.122	8265.9
1696.577	8147.9
1701.028	8139.9
1705.474	8195.9
1709.917	8249.9
1714.355	8277.9
1718.788	8235.9
1723.218	8071.9
1727.643	7953.9
1732.064	7783.9
1736.481	7632.9
1740.893	7438.9
1745.301	7256.9
1749.705	7082.9
1754.105	6849.9
1758.501	6629.9
1762.893	6460.9
1767.28	6292.9
1771.663	6208.9
1776.042	6073.9
1780.417	6010.9
1784.787	6018.9
1789.154	6102.9
1793.516	6190.9
1797.874	6310.9
1802.228	6442.9
1806.578	6477.9
1810.924	6449.9
1815.266	6417.9
1819.603	6315.9
1823.937	6242.9
1828.266	6131.9
1832.591	6001.9
1836.913	5945.9
1841.23	5920.9
1845.543	5907.9
1849.852	5834.9
1854.156	5822.9
1858.457	5830.9
1862.754	5789.9
1867.047	5769.9
1871.335	5784.9
1875.62	5772.9
1879.9	5723.9
1884.177	5718.9
1888.449	5650.9
1892.718	5578.9
1896.982	5523.9
1901.243	5490.9
1905.499	5449.9
1909.752	5433.9
1914	5432.9
1918.245	5448.9
1922.485	5474.9
1926.722	5534.9
1930.954	5590.9
1935.183	5647.9
1939.408	5728.9
1943.628	5747.9
1947.845	5753.9
1952.058	5755.9
1956.267	5719.9
1960.472	5616.9
1964.673	5549.9
1968.87	5457.9
1973.063	5390.9
1977.252	5327.9
1981.438	5262.9
1985.619	5197.9
1989.797	5140.9
1993.971	5126.9
1998.14	5110.9
2002.306	5094.9
2006.469	5103.9
2010.627	5055.9
2014.781	5000.9
2018.932	4952.9
2023.078	4924.9
2027.221	4854.9
2031.36	4775.9
2035.495	4671.9
2039.627	4602.9
2043.754	4616.9
2047.878	4532.9
2051.998	4521.9
2056.114	4491.9
2060.226	4482.9
2064.334	4498.9
2068.439	4521.9
2072.54	4558.9
2076.637	4557.9
2080.73	4599.9
2084.82	4639.9
2088.906	4641.9
2092.988	4650.9
2097.066	4617.9
2101.14	4592.9
2105.211	4556.9
2109.278	4569.9
2113.342	4499.9
2117.401	4506.9
2121.457	4467.9
2125.509	4444.9
2129.558	4412.9
2133.602	4401.9
2137.643	4367.9
2141.681	4349.9
2145.714	4336.9
2149.744	4294.9
2153.77	4235.9
2157.793	4211.9
2161.812	4194.9
2165.827	4116.9
2169.838	4050.9
2173.846	3988.9
2177.851	3924.9
2181.851	3868.9
2185.848	3813.9
2189.841	3774.9
2193.831	3744.9
2197.817	3722.9
2201.799	3703.9
2205.778	3682.9
2209.753	3669.9
2213.725	3675.9
2217.693	3623.9
2221.657	3620.9
2225.618	3624.9
2229.575	3617.9
2233.529	3594.9
2237.479	3536.9
2241.425	3477.9
2245.368	3461.9
2249.307	3401.9
2253.243	3373.9
2257.175	3318.9
2261.104	3277.9
2265.029	3240.9
2268.95	3211.9
2272.868	3175.9
2276.783	3135.9
2280.694	3079.9
2284.601	3047.9
2288.505	3065.9
2292.405	3022.9
2296.302	3003.9
2300.195	2974.9
2304.085	2928.9
2307.971	2889.9
2311.854	2859.9
2315.734	2806.9
2319.609	2788.9
2323.482	2710.9
2327.351	2677.9
2331.216	2704.9
2335.078	2667.9
2338.937	2650.9
2342.792	2639.9
2346.643	2622.9
2350.492	2645.9
2354.336	2630.9
2358.178	2624.9
2362.015	2631.9
2365.85	2638.9
2369.681	2659.9
2373.508	2620.9
2377.333	2650.9
2381.153	2637.9
2384.971	2613.9
2388.785	2602.9
2392.595	2608.9
2396.402	2555.9
2400.206	2538.9
2404.007	2511.9
2407.804	2523.9
2411.597	2494.9
2415.388	2474.9
2419.174	2456.9
2422.958	2469.9
2426.738	2432.9
2430.515	2407.9
2434.289	2381.9
2438.059	2373.9
2441.825	2363.9
2445.589	2331.9
2449.349	2295.9
2453.106	2277.9
2456.859	2241.9
2460.61	2218.9
2464.356	2183.9
2468.1	2164.9
2471.84	2135.9
2475.577	2110.9
2479.311	2116.9
2483.041	2108.9
2486.768	2092.9
2490.492	2075.9
2494.213	2053.9
2497.93	2053.9
2501.644	2063.9
2505.355	2048.9
2509.062	2027.9
2512.766	2014.9
2516.467	2016.9
2520.165	2002.9
2523.859	1981.9
2527.551	1966.9
2531.239	1956.9
2534.923	1938.9
2538.605	1936.9
2542.283	1947.9
2545.958	1941.9
2549.63	1919.9
2553.299	1914.9
2556.964	1933.9
2560.626	1899.9
2564.285	1913.9
2567.941	1893.9
2571.594	1858.9
2575.243	1864.9
2578.89	1838.9
2582.533	1840.9
2586.173	1829.9
2589.809	1809.9
2593.443	1800.9
2597.073	1776.9
2600.701	1746.9
2604.325	1762.9
2607.946	1737.9
2611.564	1749.9
2615.178	1724.9
2618.79	1698.9
2622.398	1705.9
2626.004	1659.9
2629.606	1657.9
2633.205	1640.9
2636.801	1611.9
2640.394	1592.9
2643.983	1583.9
2647.57	1536.9
2651.153	1520.9
2654.734	1503.9
2658.311	1479.9
2661.885	1444.9
2665.456	1429.9
2669.025	1393.9
2672.589	1412.9
2676.151	1373.9
2679.71	1369.9
2683.266	1340.9
2686.819	1327.9
2690.368	1298.9
2693.915	1263.9
2697.458	1213.9
2700.999	1211.9
2704.536	1199.9
2708.071	1151.9
2711.602	1131.9
2715.13	1118.9
2718.656	1088.9
2722.178	1063.9
2725.697	1044.9
2729.214	1045.9
2732.727	1031.9
2736.237	1025.9
2739.744	1023.9
2743.249	1020.9
2746.75	1043.9
2750.248	1050.9
2753.743	1057.9
2757.236	1080.9
2760.725	1064.9
2764.211	1076.9
2767.695	1077.9
2771.175	1091.9
2774.652	1068.9
2778.127	1068.9
2781.598	1057.9
2785.067	1056.9
2788.532	1053.9
2791.995	1042.9
2795.455	1058.9
2798.911	1070.9
2802.365	1062.9
2805.816	1068.9
2809.264	1048.9
2812.709	1054.9
2816.151	1045.9
2819.59	1055.9
2823.026	1048.9
2826.46	1057.9
2829.89	1052.9
2833.318	1042.9
2836.742	1050.9
2840.164	1076.9
2843.583	1084.9
2846.999	1072.9
2850.412	1100.9
2853.822	1094.9
2857.229	1128.9
2860.634	1141.9
2864.035	1150.9
2867.434	1180.9
2870.83	1188.9
2874.223	1211.9
2877.613	1242.9
2881	1247.9
2884.385	1248.9
2887.766	1259.9
2891.145	1243.9
2894.521	1254.9
2897.894	1251.9
2901.264	1250.9
2904.631	1255.9
2907.996	1241.9
2911.358	1277.9
2914.717	1278.9
2918.073	1266.9
2921.426	1294.9
2924.777	1299.9
2928.124	1321.9
2931.469	1353.9
2934.811	1370.9
2938.15	1364.9
2941.487	1399.9
2944.821	1413.9
2948.152	1391.9
2951.48	1388.9
2954.805	1379.9
2958.128	1325.9
2961.447	1360.9
2964.765	1350.9
2968.079	1341.9
2971.39	1373.9
2974.699	1385.9
2978.005	1401.9
2981.308	1426.9
2984.609	1446.9
2987.907	1469.9
2991.202	1491.9
2994.494	1520.9
2997.784	1560.9
3001.07	1590.9
3004.355	1602.9
3007.636	1631.9
3010.915	1653.9
3014.191	1662.9
3017.464	1668.9
3020.734	1684.9
3024.002	1700.9
3027.267	1705.9
3030.53	1722.9
3033.789	1756.9
3037.046	1750.9
3040.301	1795.9
3043.552	1830.9
3046.801	1855.9
3050.048	1919.9
3053.291	1962.9
3056.532	2013.9
3059.771	2061.9
3063.006	2134.9
3066.239	2183.9
3069.469	2252.9
3072.697	2305.9
3075.922	2347.9
3079.144	2412.9
3082.364	2476.9
3085.581	2511.9
3088.795	2570.9
3092.007	2622.9
3095.216	2680.9
3098.423	2745.9
3101.627	2796.9
3104.828	2870.9
3108.026	2934.9
3111.222	3001.9
3114.416	3070.9
3117.607	3145.9
3120.795	3180.9
3123.98	3271.9
3127.163	3358.9
3130.344	3419.9
3133.521	3509.9
3136.696	3581.9
3139.869	3641.9
3143.039	3686.9
3146.206	3773.9
3149.371	3817.9
3152.533	3835.9
3155.693	3887.9
3158.85	3894.9
3162.005	3907.9
3165.157	3941.9
3168.306	3952.9
3171.453	3964.9
3174.597	3958.9
3177.739	3945.9
3180.878	3966.9
3184.014	3975.9
3187.149	3981.9
3190.28	3977.9
3193.409	3971.9
3196.536	4019.9
3199.659	3958.9
3202.781	4025.9
3205.9	4000.9
3209.016	3966.9
3212.13	3959.9
3215.241	3930.9
3218.35	3888.9
3221.456	3864.9
3224.56	3808.9
3227.661	3778.9
3230.76	3712.9
3233.856	3702.9
3236.95	3650.9
3240.041	3617.9
3243.13	3613.9
3246.216	3555.9
3249.3	3551.9
3252.382	3525.9
3255.46	3507.9
3258.537	3539.9
3261.611	3501.9
3264.682	3498.9
3267.751	3528.9
3270.818	3491.9
3273.882	3467.9
3276.943	3463.9
3280.002	3419.9
3283.059	3389.9
3286.113	3362.9
3289.165	3302.9
3292.214	3286.9
3295.261	3217.9
3298.306	3191.9
3301.348	3116.9
3304.387	3069.9
3307.425	3004.9
3310.459	2974.9
3313.492	2936.9
3316.521	2903.9
3319.549	2871.9
3322.574	2805.9
3325.597	2816.9
3328.617	2795.9
3331.635	2781.9
3334.65	2757.9
3337.663	2745.9
3340.674	2744.9
3343.682	2724.9
3346.688	2688.9
3349.691	2679.9
3352.692	2659.9
3355.691	2634.9
3358.687	2643.9
3361.681	2588.9
3364.673	2561.9
3367.662	2535.9
3370.649	2484.9
3373.633	2479.9
3376.615	2413.9
3379.595	2399.9
3382.572	2361.9
3385.547	2341.9
3388.52	2284.9
3391.49	2237.9
3394.458	2203.9
3397.424	2186.9
3400.387	2153.9
3403.348	2131.9
3406.307	2085.9
3409.263	2084.9
3412.217	2038.9
3415.168	2001.9
3418.118	2017.9
3421.065	1955.9
3424.009	1937.9
3426.951	1887.9
3429.891	1866.9
3432.829	1828.9
3435.764	1794.9
3438.697	1739.9
3441.628	1706.9
3444.557	1651.9
3447.483	1613.9
3450.407	1533.9
3453.328	1509.9
3456.247	1446.9
3459.164	1401.9
3462.079	1343.9
3464.991	1292.9
3467.902	1220.9
3470.809	1220.9
3473.715	1144.9
3476.618	1098.9
3479.519	1090.9
3482.418	1034.9
3485.315	1014.9
3488.209	942.9
3491.101	926.9
3493.99	897.9
3496.878	846.9
3499.763	826.9
3502.646	781.9
3505.527	751.9
3508.405	717.9
3511.281	669.9
3514.155	634.9
3517.027	597.9
3519.897	540.9
3522.764	516.9
3525.629	479.9
3528.492	433.9
3531.352	382.9
3534.211	356.9
3537.067	320.9
3539.921	275.9
3542.773	256.9
3545.622	223.9
3548.469	188.9
3551.315	166.9
3554.157	146.9
3556.998	118.9
3559.837	95.9
3562.673	63.9
3565.507	51.9
3568.339	12.9
3571.169	-1.1
3573.996	-17.1
3576.822	-45.1
3579.645	-56.1
3582.466	-74.1
3585.285	-103.1
3588.101	-106.1
3590.916	-128.1
3593.728	-156.1
3596.538	-166.1
3599.346	-185.1
3602.152	-196.1
3604.956	-215.1
3607.757	-224.1
3610.556	-247.1
3613.354	-264.1
3616.149	-272.1
3618.942	-275.1
3621.732	-299.1
3624.521	-301.1
3627.307	-320.1
3630.092	-334.1
3632.874	-337.1
3635.654	-337.1
3638.432	-352.1
3641.208	-362.1
3643.982	-368.1
3646.753	-372.1
3649.523	-389.1
3652.29	-402.1
3655.055	-402.1
3657.818	-421.1
3660.579	-418.1
3663.338	-425.1
3666.095	-443.1
3668.849	-460.1
3671.602	-462.1
3674.352	-469.1
3677.101	-473.1
3679.847	-481.1
3682.591	-483.1
3685.333	-486.1
3688.073	-489.1
3690.811	-498.1
3693.547	-509.1
3696.281	-519.1
3699.013	-511.1
3701.742	-522.1
3704.47	-527.1
3707.195	-536.1
3709.919	-536.1
3712.64	-541.1
3715.359	-545.1
3718.076	-537.1
3720.792	-550.1
3723.505	-554.1
3726.216	-558.1
3728.925	-557.1
3731.632	-570.1
3734.336	-569.1
3737.039	-573.1
3739.74	-564.1
3742.439	-576.1
3745.136	-571.1
3747.83	-576.1
3750.523	-569.1
3753.213	-586.1
3755.902	-588.1
3758.589	-577.1
3761.273	-579.1
3763.956	-594.1
3766.636	-589.1
3769.315	-594.1
3771.991	-594.1
3774.665	-592.1
3777.338	-596.1
3780.008	-593.1
3782.677	-599.1
3785.343	-601.1
3788.007	-592.1
3790.67	-599.1
3793.33	-608.1
3795.989	-606.1
3798.645	-609.1
3801.299	-609.1
3803.952	-612.1
3806.602	-611.1
3809.251	-615.1
3811.897	-610.1
3814.542	-610.1
3817.184	-614.1
3819.825	-612.1
3822.463	-618.1
3825.1	-616.1
3827.735	-616.1
3830.367	-618.1
3832.998	-620.1
3835.627	-623.1
3838.253	-621.1
3840.878	-618.1
3843.501	-620.1
3846.122	-620.1
3848.741	-622.1
3851.358	-622.1
3853.973	-627.1
3856.586	-626.1
3859.197	-629.1
3861.806	-619.1
3864.414	-620.1
3867.019	-619.1
3869.622	-628.1
3872.224	-619.1
3874.823	-608.1
3877.421	-591.1
3880.016	-574.1
3882.61	-545.1
3885.202	-546.1
3887.792	-568.1
3890.38	-597.1
3892.966	-615.1
3895.55	-623.1
3898.132	-625.1
3900.713	-635.1
3903.291	-635.1
3905.868	-638.1
3908.442	-640.1
3911.015	-634.1
3913.586	-638.1
3916.155	-638.1
3918.722	-638.1
3921.287	-638.1
3923.85	-637.1
3926.411	-642.1
3928.971	-637.1
3931.528	-635.1
3934.084	-631.1
3936.638	-641.1
3939.19	-644.1
3941.74	-642.1
3944.288	-645.1
3946.834	-642.1
3949.378	-643.1
3951.921	-641.1
3954.462	-641.1
3957	-636.1
3959.537	-637.1
3962.072	-636.1
3964.606	-635.1
3967.137	-647.1
3969.667	-638.1
3972.194	-634.1
3974.72	-632.1
3977.244	-627.1
3979.766	-630.1
3982.286	-627.1
3984.805	-617.1
3987.321	-628.1
3989.836	-627.1
3992.349	-622.1
3994.86	-621.1
3997.369	-632.1
3999.877	-625.1
4002.382	-620.1
4004.886	-621.1
4007.388	-626.1
4009.888	-623.1
4012.386	-625.1
4014.883	-625.1
4017.377	-626.1
4019.87	-623.1
4022.361	-630.1
4024.85	-624.1
4027.338	-632.1
4029.823	-626.1
4032.307	-628.1
4034.789	-625.1
4037.269	-631.1
4039.747	-631.1
4042.224	-622.1
4044.699	-629.1
4047.172	-628.1
4049.643	-623.1
4052.112	-631.1
4054.58	-622.1
4057.046	-635.1
4059.51	-629.1
4061.972	-635.1
4064.432	-628.1
4066.891	-630.1
4069.348	-634.1
4071.803	-633.1
4074.256	-631.1
4076.708	-632.1
4079.158	-632.1
4081.606	-625.1
4084.052	-622.1
4086.497	-627.1
4088.939	-620.1
4091.38	-617.1
4093.819	-622.1
4096.257	-661.1
4098.693	-664.1
4101.127	-667.1
4103.559	-665.1
4105.989	-394.1
4108.418	-379.1
4110.845	-359.1
4113.27	-323.1
4115.694	-284.1
4118.115	-236.1
4120.535	-628.1
4122.954	-634.1
4125.37	-626.1
4127.785	-627.1
4130.198	-634.1
4132.609	-624.1
4135.019	-669.1
4137.427	-665.1
4139.833	-663.1
4142.237	-660.1
