Data from 2018-2-7_conc=2_RamanShift_20.txt Node
Date: Tue Feb 13 11:58:14 IST 2018
User: aro
Spectrometer: QEPB0276
Trigger mode: 0
Integration Time (sec): 3.000000E1
Scans to average: 1
Electric dark correction enabled: true
Nonlinearity correction enabled: false
Boxcar width: 0
XAxis mode: Raman Shifts
Number of Pixels in Spectrum: 1044
>>>>>Begin Spectral Data<<<<<
160.701	-150
166.742	31
172.777	564
178.805	2141
184.826	5845
190.841	12084
196.849	19110
202.85	23921
208.845	25393
214.833	25108
220.815	24596
226.789	24334
232.758	24273
238.719	24016
244.674	23744
250.623	23219
256.565	22732
262.5	22208
268.429	21762
274.351	21459
280.267	21114
286.176	20831
292.079	20599
297.975	20380
303.865	20225
309.748	20050
315.625	19958
321.495	19807
327.359	19684
333.217	19610
339.068	19653
344.912	19647
350.751	19544
356.583	19590
362.408	19541
368.227	19582
374.04	19584
379.847	19653
385.647	19720
391.44	19770
397.228	19849
403.009	19947
408.784	20008
414.553	20112
420.315	20123
426.071	20185
431.821	20106
437.565	20127
443.302	20036
449.033	20099
454.758	20035
460.477	19900
466.189	19933
471.896	19869
477.596	19808
483.29	19723
488.978	19741
494.66	19599
500.335	19546
506.005	19265
511.668	19088
517.325	18853
522.977	18688
528.622	18520
534.261	18374
539.894	18337
545.521	18290
551.141	18207
556.756	18108
562.365	18066
567.968	18023
573.565	17947
579.155	17903
584.74	17764
590.319	17768
595.892	17638
601.459	17562
607.02	17511
612.575	17381
618.124	17253
623.667	17163
629.204	17104
634.735	17011
640.261	16967
645.781	16849
651.294	16834
656.802	16837
662.304	16761
667.8	16740
673.29	16747
678.775	16714
684.254	16654
689.726	16580
695.193	16551
700.655	16445
706.11	16340
711.56	16322
717.004	16204
722.442	16155
727.874	16102
733.301	15987
738.722	15938
744.137	15954
749.547	15910
754.951	15978
760.349	15975
765.741	15990
771.128	15976
776.509	15979
781.885	15959
787.254	15943
792.618	15868
797.977	15720
803.33	15621
808.677	15594
814.019	15483
819.355	15456
824.686	15335
830.011	15289
835.33	15333
840.644	15304
845.952	15384
851.255	15395
856.552	15439
861.844	15358
867.13	15371
872.41	15256
877.686	15226
882.955	15024
888.219	14902
893.478	14746
898.731	14563
903.979	14432
909.221	14277
914.458	14252
919.69	14244
924.916	14312
930.136	14374
935.351	14283
940.561	14317
945.766	14319
950.965	14294
956.158	14112
961.347	13991
966.529	13805
971.707	13593
976.879	13477
982.046	13382
987.208	13336
992.364	13358
997.515	13376
1002.66	13577
1007.801	13690
1012.936	13802
1018.066	13825
1023.19	13791
1028.309	13768
1033.423	13748
1038.532	13677
1043.636	13538
1048.734	13398
1053.827	13221
1058.915	13084
1063.998	12970
1069.075	12884
1074.147	12928
1079.214	13000
1084.276	13120
1089.333	13180
1094.385	13216
1099.431	13272
1104.472	13290
1109.509	13192
1114.54	13040
1119.565	12870
1124.586	12701
1129.602	12597
1134.613	12496
1139.618	12413
1144.619	12375
1149.614	12391
1154.604	12416
1159.589	12483
1164.57	12480
1169.545	12509
1174.515	12498
1179.48	12406
1184.44	12333
1189.395	12240
1194.345	12186
1199.29	12109
1204.23	12085
1209.165	12148
1214.095	12223
1219.021	12251
1223.941	12317
1228.856	12452
1233.766	12400
1238.672	12486
1243.572	12465
1248.467	12362
1253.358	12213
1258.244	12059
1263.124	11902
1268	11715
1272.871	11545
1277.737	11429
1282.599	11403
1287.455	11404
1292.306	11437
1297.153	11452
1301.995	11447
1306.832	11520
1311.664	11539
1316.491	11530
1321.314	11393
1326.132	11215
1330.945	10994
1335.753	10687
1340.556	10489
1345.354	10247
1350.148	10116
1354.937	10025
1359.722	9973
1364.501	9983
1369.276	10078
1374.046	10180
1378.811	10272
1383.572	10386
1388.327	10405
1393.079	10377
1397.825	10314
1402.567	10165
1407.304	10063
1412.036	10008
1416.764	9931
1421.487	9897
1426.205	9836
1430.919	9790
1435.628	9787
1440.333	9814
1445.032	9825
1449.727	9860
1454.418	9819
1459.104	9713
1463.785	9537
1468.462	9340
1473.134	9120
1477.802	8903
1482.465	8755
1487.123	8612
1491.777	8607
1496.426	8555
1501.071	8672
1505.711	8793
1510.347	8905
1514.978	9074
1519.604	9154
1524.226	9291
1528.844	9276
1533.457	9310
1538.065	9268
1542.669	9235
1547.269	9154
1551.864	9109
1556.454	9118
1561.041	9116
1565.622	9079
1570.199	9144
1574.772	9218
1579.34	9250
1583.904	9320
1588.464	9348
1593.019	9364
1597.569	9356
1602.115	9301
1606.657	9259
1611.195	9177
1615.728	9144
1620.256	9090
1624.78	9110
1629.3	9112
1633.816	9114
1638.327	9199
1642.834	9226
1647.336	9274
1651.834	9208
1656.328	9223
1660.817	9140
1665.302	9061
1669.783	8860
1674.259	8643
1678.732	8346
1683.199	8080
1687.663	7770
1692.122	7548
1696.577	7399
1701.028	7325
1705.474	7317
1709.917	7384
1714.355	7418
1718.788	7382
1723.218	7320
1727.643	7228
1732.064	7041
1736.481	6873
1740.893	6753
1745.301	6556
1749.705	6375
1754.105	6188
1758.501	6043
1762.893	5851
1767.28	5687
1771.663	5588
1776.042	5439
1780.417	5382
1784.787	5386
1789.154	5388
1793.516	5501
1797.874	5507
1802.228	5669
1806.578	5711
1810.924	5710
1815.266	5674
1819.603	5610
1823.937	5509
1828.266	5451
1832.591	5382
1836.913	5326
1841.23	5284
1845.543	5215
1849.852	5182
1854.156	5202
1858.457	5183
1862.754	5179
1867.047	5170
1871.335	5163
1875.62	5135
1879.9	5110
1884.177	5083
1888.449	5030
1892.718	4970
1896.982	4874
1901.243	4834
1905.499	4766
1909.752	4756
1914	4758
1918.245	4750
1922.485	4789
1926.722	4788
1930.954	4874
1935.183	4917
1939.408	4973
1943.628	5022
1947.845	5042
1952.058	5007
1956.267	4977
1960.472	4961
1964.673	4848
1968.87	4774
1973.063	4737
1977.252	4667
1981.438	4619
1985.619	4601
1989.797	4548
1993.971	4531
1998.14	4528
2002.306	4513
2006.469	4480
2010.627	4479
2014.781	4421
2018.932	4379
2023.078	4356
2027.221	4288
2031.36	4262
2035.495	4191
2039.627	4080
2043.754	4076
2047.878	3978
2051.998	3963
2056.114	3964
2060.226	3944
2064.334	3951
2068.439	3960
2072.54	3985
2076.637	3990
2080.73	4026
2084.82	4034
2088.906	4048
2092.988	4028
2097.066	4071
2101.14	4011
2105.211	3968
2109.278	3934
2113.342	3944
2117.401	3914
2121.457	3901
2125.509	3905
2129.558	3855
2133.602	3839
2137.643	3836
2141.681	3833
2145.714	3803
2149.744	3762
2153.77	3765
2157.793	3714
2161.812	3668
2165.827	3625
2169.838	3565
2173.846	3537
2177.851	3446
2181.851	3412
2185.848	3386
2189.841	3337
2193.831	3336
2197.817	3271
2201.799	3252
2205.778	3252
2209.753	3225
2213.725	3213
2217.693	3221
2221.657	3219
2225.618	3222
2229.575	3189
2233.529	3136
2237.479	3115
2241.425	3072
2245.368	3049
2249.307	2987
2253.243	2954
2257.175	2916
2261.104	2890
2265.029	2841
2268.95	2824
2272.868	2781
2276.783	2761
2280.694	2714
2284.601	2703
2288.505	2693
2292.405	2655
2296.302	2636
2300.195	2590
2304.085	2567
2307.971	2523
2311.854	2485
2315.734	2458
2319.609	2442
2323.482	2419
2327.351	2387
2331.216	2393
2335.078	2378
2338.937	2344
2342.792	2350
2346.643	2357
2350.492	2329
2354.336	2351
2358.178	2345
2362.015	2378
2365.85	2371
2369.681	2348
2373.508	2370
2377.333	2382
2381.153	2364
2384.971	2348
2388.785	2337
2392.595	2311
2396.402	2276
2400.206	2278
2404.007	2273
2407.804	2255
2411.597	2216
2415.388	2240
2419.174	2202
2422.958	2196
2426.738	2186
2430.515	2142
2434.289	2142
2438.059	2106
2441.825	2087
2445.589	2083
2449.349	2051
2453.106	2017
2456.859	2015
2460.61	1994
2464.356	1975
2468.1	1931
2471.84	1917
2475.577	1897
2479.311	1887
2483.041	1864
2486.768	1873
2490.492	1869
2494.213	1852
2497.93	1851
2501.644	1819
2505.355	1803
2509.062	1796
2512.766	1779
2516.467	1775
2520.165	1765
2523.859	1753
2527.551	1716
2531.239	1701
2534.923	1702
2538.605	1702
2542.283	1686
2545.958	1680
2549.63	1671
2553.299	1673
2556.964	1675
2560.626	1661
2564.285	1661
2567.941	1646
2571.594	1622
2575.243	1647
2578.89	1635
2582.533	1607
2586.173	1580
2589.809	1575
2593.443	1577
2597.073	1561
2600.701	1552
2604.325	1523
2607.946	1513
2611.564	1503
2615.178	1489
2618.79	1494
2622.398	1462
2626.004	1484
2629.606	1439
2633.205	1411
2636.801	1409
2640.394	1391
2643.983	1376
2647.57	1356
2651.153	1333
2654.734	1308
2658.311	1287
2661.885	1271
2665.456	1264
2669.025	1242
2672.589	1238
2676.151	1219
2679.71	1192
2683.266	1165
2686.819	1159
2690.368	1129
2693.915	1105
2697.458	1086
2700.999	1054
2704.536	1037
2708.071	997
2711.602	980
2715.13	963
2718.656	926
2722.178	932
2725.697	900
2729.214	905
2732.727	892
2736.237	883
2739.744	869
2743.249	869
2746.75	869
2750.248	856
2753.743	878
2757.236	876
2760.725	892
2764.211	897
2767.695	901
2771.175	912
2774.652	912
2778.127	896
2781.598	895
2785.067	884
2788.532	893
2791.995	874
2795.455	892
2798.911	874
2802.365	902
2805.816	901
2809.264	895
2812.709	876
2816.151	890
2819.59	898
2823.026	912
2826.46	894
2829.89	906
2833.318	903
2836.742	909
2840.164	922
2843.583	918
2846.999	941
2850.412	961
2853.822	958
2857.229	964
2860.634	1002
2864.035	995
2867.434	1030
2870.83	1046
2874.223	1081
2877.613	1094
2881	1080
2884.385	1106
2887.766	1106
2891.145	1106
2894.521	1119
2897.894	1109
2901.264	1103
2904.631	1122
2907.996	1098
2911.358	1124
2914.717	1125
2918.073	1130
2921.426	1172
2924.777	1162
2928.124	1189
2931.469	1201
2934.811	1244
2938.15	1267
2941.487	1260
2944.821	1265
2948.152	1262
2951.48	1251
2954.805	1240
2958.128	1240
2961.447	1221
2964.765	1213
2968.079	1205
2971.39	1208
2974.699	1244
2978.005	1258
2981.308	1279
2984.609	1313
2987.907	1323
2991.202	1358
2994.494	1394
2997.784	1409
3001.07	1429
3004.355	1435
3007.636	1482
3010.915	1503
3014.191	1516
3017.464	1532
3020.734	1542
3024.002	1548
3027.267	1565
3030.53	1579
3033.789	1613
3037.046	1602
3040.301	1649
3043.552	1671
3046.801	1710
3050.048	1755
3053.291	1810
3056.532	1849
3059.771	1901
3063.006	1980
3066.239	2012
3069.469	2072
3072.697	2147
3075.922	2215
3079.144	2272
3082.364	2285
3085.581	2332
3088.795	2398
3092.007	2449
3095.216	2503
3098.423	2576
3101.627	2634
3104.828	2670
3108.026	2748
3111.222	2822
3114.416	2873
3117.607	2947
3120.795	2989
3123.98	3061
3127.163	3137
3130.344	3212
3133.521	3318
3136.696	3358
3139.869	3408
3143.039	3499
3146.206	3527
3149.371	3593
3152.533	3597
3155.693	3631
3158.85	3669
3162.005	3679
3165.157	3691
3168.306	3718
3171.453	3704
3174.597	3728
3177.739	3747
3180.878	3750
3184.014	3725
3187.149	3728
3190.28	3758
3193.409	3752
3196.536	3749
3199.659	3738
3202.781	3773
3205.9	3759
3209.016	3761
3212.13	3706
3215.241	3670
3218.35	3676
3221.456	3624
3224.56	3607
3227.661	3579
3230.76	3507
3233.856	3466
3236.95	3437
3240.041	3422
3243.13	3378
3246.216	3367
3249.3	3356
3252.382	3331
3255.46	3309
3258.537	3303
3261.611	3310
3264.682	3300
3267.751	3322
3270.818	3304
3273.882	3278
3276.943	3259
3280.002	3244
3283.059	3189
3286.113	3187
3289.165	3124
3292.214	3103
3295.261	3037
3298.306	2985
3301.348	2938
3304.387	2889
3307.425	2866
3310.459	2819
3313.492	2772
3316.521	2723
3319.549	2700
3322.574	2675
3325.597	2655
3328.617	2637
3331.635	2628
3334.65	2610
3337.663	2561
3340.674	2582
3343.682	2566
3346.688	2558
3349.691	2528
3352.692	2548
3355.691	2513
3358.687	2487
3361.681	2452
3364.673	2438
3367.662	2389
3370.649	2350
3373.633	2322
3376.615	2281
3379.595	2271
3382.572	2236
3385.547	2196
3388.52	2171
3391.49	2095
3394.458	2109
3397.424	2055
3400.387	2030
3403.348	2015
3406.307	1987
3409.263	1968
3412.217	1936
3415.168	1916
3418.118	1909
3421.065	1848
3424.009	1836
3426.951	1793
3429.891	1775
3432.829	1755
3435.764	1688
3438.697	1643
3441.628	1591
3444.557	1548
3447.483	1491
3450.407	1448
3453.328	1407
3456.247	1361
3459.164	1299
3462.079	1276
3464.991	1211
3467.902	1158
3470.809	1105
3473.715	1073
3476.618	1042
3479.519	994
3482.418	952
3485.315	931
3488.209	890
3491.101	851
3493.99	846
3496.878	789
3499.763	760
3502.646	741
3505.527	697
3508.405	672
3511.281	626
3514.155	586
3517.027	541
3519.897	511
3522.764	473
3525.629	438
3528.492	393
3531.352	350
3534.211	311
3537.067	275
3539.921	237
3542.773	232
3545.622	184
3548.469	167
3551.315	134
3554.157	110
3556.998	94
3559.837	77
3562.673	39
3565.507	18
3568.339	5
3571.169	-13
3573.996	-51
3576.822	-59
3579.645	-71
3582.466	-95
3585.285	-108
3588.101	-124
3590.916	-142
3593.728	-174
3596.538	-174
3599.346	-195
3602.152	-204
3604.956	-222
3607.757	-234
3610.556	-261
3613.354	-269
3616.149	-274
3618.942	-291
3621.732	-297
3624.521	-310
3627.307	-318
3630.092	-326
3632.874	-342
3635.654	-351
3638.432	-356
3641.208	-364
3643.982	-380
3646.753	-381
3649.523	-396
3652.29	-398
3655.055	-400
3657.818	-412
3660.579	-428
3663.338	-424
3666.095	-441
3668.849	-448
3671.602	-462
3674.352	-460
3677.101	-469
3679.847	-479
3682.591	-481
3685.333	-479
3688.073	-486
3690.811	-492
3693.547	-497
3696.281	-503
3699.013	-503
3701.742	-520
3704.47	-517
3707.195	-524
3709.919	-531
3712.64	-528
3715.359	-534
3718.076	-530
3720.792	-543
3723.505	-549
3726.216	-550
3728.925	-545
3731.632	-566
3734.336	-559
3737.039	-566
3739.74	-555
3742.439	-567
3745.136	-564
3747.83	-565
3750.523	-562
3753.213	-563
3755.902	-575
3758.589	-565
3761.273	-573
3763.956	-582
3766.636	-579
3769.315	-580
3771.991	-581
3774.665	-581
3777.338	-584
3780.008	-583
3782.677	-585
3785.343	-590
3788.007	-580
3790.67	-588
3793.33	-592
3795.989	-593
3798.645	-596
3801.299	-598
3803.952	-599
3806.602	-598
3809.251	-602
3811.897	-596
3814.542	-594
3817.184	-603
3819.825	-604
3822.463	-603
3825.1	-606
3827.735	-609
3830.367	-604
3832.998	-607
3835.627	-606
3838.253	-610
3840.878	-608
3843.501	-610
3846.122	-604
3848.741	-610
3851.358	-616
3853.973	-608
3856.586	-615
3859.197	-616
3861.806	-613
3864.414	-614
3867.019	-607
3869.622	-610
3872.224	-610
3874.823	-593
3877.421	-579
3880.016	-567
3882.61	-542
3885.202	-550
3887.792	-569
3890.38	-583
3892.966	-601
3895.55	-611
3898.132	-615
3900.713	-626
3903.291	-618
3905.868	-628
3908.442	-627
3911.015	-621
3913.586	-625
3916.155	-621
3918.722	-625
3921.287	-622
3923.85	-620
3926.411	-624
3928.971	-622
3931.528	-621
3934.084	-621
3936.638	-626
3939.19	-624
3941.74	-630
3944.288	-632
3946.834	-630
3949.378	-634
3951.921	-629
3954.462	-631
3957	-622
3959.537	-618
3962.072	-626
3964.606	-618
3967.137	-626
3969.667	-625
3972.194	-620
3974.72	-619
3977.244	-613
3979.766	-617
3982.286	-613
3984.805	-603
3987.321	-613
3989.836	-612
3992.349	-610
3994.86	-612
3997.369	-621
3999.877	-609
4002.382	-609
4004.886	-612
4007.388	-613
4009.888	-611
4012.386	-612
4014.883	-605
4017.377	-610
4019.87	-605
4022.361	-613
4024.85	-610
4027.338	-614
4029.823	-612
4032.307	-617
4034.789	-621
4037.269	-625
4039.747	-618
4042.224	-614
4044.699	-616
4047.172	-619
4049.643	-619
4052.112	-611
4054.58	-604
4057.046	-616
4059.51	-614
4061.972	-617
4064.432	-619
4066.891	-615
4069.348	-617
4071.803	-620
4074.256	-614
4076.708	-616
4079.158	-613
4081.606	-617
4084.052	-621
4086.497	-624
4088.939	-613
4091.38	-610
4093.819	-614
4096.257	-643
4098.693	-647
4101.127	-649
4103.559	-652
4105.989	-386
4108.418	-375
4110.845	-349
4113.27	-331
4115.694	-280
4118.115	-245
4120.535	-612
4122.954	-623
4125.37	-615
4127.785	-613
4130.198	-619
4132.609	-612
4135.019	-648
4137.427	-646
4139.833	-648
4142.237	-644
