Data from 2018-2-7_conc=02_RamanShift_10.txt Node
Date: Tue Feb 13 11:31:44 IST 2018
User: aro
Spectrometer: QEPB0276
Trigger mode: 0
Integration Time (sec): 3.000000E1
Scans to average: 1
Electric dark correction enabled: true
Nonlinearity correction enabled: false
Boxcar width: 0
XAxis mode: Raman Shifts
Number of Pixels in Spectrum: 1044
>>>>>Begin Spectral Data<<<<<
160.701	-162.8
166.742	27.2
172.777	568.2
178.805	2209.2
184.826	6076.2
190.841	12450.2
196.849	19619.2
202.85	24539.2
208.845	25971.2
214.833	25698.2
220.815	25189.2
226.789	24932.2
232.758	24805.2
238.719	24535.2
244.674	24097.2
250.623	23694.2
256.565	23081.2
262.5	22573.2
268.429	22165.2
274.351	21775.2
280.267	21445.2
286.176	21158.2
292.079	20949.2
297.975	20601.2
303.865	20506.2
309.748	20369.2
315.625	20186.2
321.495	20058.2
327.359	20006.2
333.217	19917.2
339.068	19909.2
344.912	19854.2
350.751	19845.2
356.583	19814.2
362.408	19756.2
368.227	19806.2
374.04	19810.2
379.847	19825.2
385.647	19959.2
391.44	20022.2
397.228	20098.2
403.009	20199.2
408.784	20316.2
414.553	20292.2
420.315	20329.2
426.071	20375.2
431.821	20380.2
437.565	20336.2
443.302	20266.2
449.033	20244.2
454.758	20260.2
460.477	20191.2
466.189	20156.2
471.896	20039.2
477.596	20003.2
483.29	19975.2
488.978	19867.2
494.66	19878.2
500.335	19718.2
506.005	19518.2
511.668	19215.2
517.325	19072.2
522.977	18890.2
528.622	18683.2
534.261	18567.2
539.894	18497.2
545.521	18467.2
551.141	18365.2
556.756	18266.2
562.365	18225.2
567.968	18121.2
573.565	18066.2
579.155	17978.2
584.74	17922.2
590.319	17831.2
595.892	17762.2
601.459	17694.2
607.02	17635.2
612.575	17500.2
618.124	17380.2
623.667	17282.2
629.204	17204.2
634.735	17110.2
640.261	17062.2
645.781	16982.2
651.294	16947.2
656.802	16895.2
662.304	16870.2
667.8	16870.2
673.29	16791.2
678.775	16812.2
684.254	16782.2
689.726	16701.2
695.193	16603.2
700.655	16546.2
706.11	16480.2
711.56	16368.2
717.004	16304.2
722.442	16194.2
727.874	16111.2
733.301	16081.2
738.722	16039.2
744.137	15981.2
749.547	15997.2
754.951	16014.2
760.349	15978.2
765.741	16037.2
771.128	16005.2
776.509	16070.2
781.885	16017.2
787.254	15937.2
792.618	15907.2
797.977	15813.2
803.33	15694.2
808.677	15641.2
814.019	15524.2
819.355	15450.2
824.686	15362.2
830.011	15293.2
835.33	15358.2
840.644	15296.2
845.952	15343.2
851.255	15338.2
856.552	15427.2
861.844	15346.2
867.13	15306.2
872.41	15193.2
877.686	15166.2
882.955	15057.2
888.219	14925.2
893.478	14687.2
898.731	14540.2
903.979	14407.2
909.221	14315.2
914.458	14253.2
919.69	14247.2
924.916	14302.2
930.136	14324.2
935.351	14345.2
940.561	14338.2
945.766	14288.2
950.965	14242.2
956.158	14148.2
961.347	13955.2
966.529	13743.2
971.707	13620.2
976.879	13419.2
982.046	13297.2
987.208	13339.2
992.364	13320.2
997.515	13413.2
1002.66	13496.2
1007.801	13707.2
1012.936	13762.2
1018.066	13772.2
1023.19	13775.2
1028.309	13719.2
1033.423	13719.2
1038.532	13613.2
1043.636	13510.2
1048.734	13335.2
1053.827	13120.2
1058.915	13014.2
1063.998	12936.2
1069.075	12862.2
1074.147	12938.2
1079.214	12966.2
1084.276	13062.2
1089.333	13085.2
1094.385	13201.2
1099.431	13229.2
1104.472	13224.2
1109.509	13091.2
1114.54	12952.2
1119.565	12763.2
1124.586	12608.2
1129.602	12516.2
1134.613	12457.2
1139.618	12373.2
1144.619	12340.2
1149.614	12327.2
1154.604	12331.2
1159.589	12354.2
1164.57	12367.2
1169.545	12461.2
1174.515	12482.2
1179.48	12365.2
1184.44	12237.2
1189.395	12185.2
1194.345	12116.2
1199.29	12023.2
1204.23	12042.2
1209.165	12055.2
1214.095	12121.2
1219.021	12186.2
1223.941	12291.2
1228.856	12333.2
1233.766	12365.2
1238.672	12372.2
1243.572	12362.2
1248.467	12302.2
1253.358	12096.2
1258.244	11956.2
1263.124	11784.2
1268	11614.2
1272.871	11512.2
1277.737	11350.2
1282.599	11310.2
1287.455	11350.2
1292.306	11331.2
1297.153	11374.2
1301.995	11448.2
1306.832	11470.2
1311.664	11462.2
1316.491	11417.2
1321.314	11343.2
1326.132	11143.2
1330.945	10936.2
1335.753	10656.2
1340.556	10407.2
1345.354	10254.2
1350.148	10098.2
1354.937	10060.2
1359.722	10015.2
1364.501	10108.2
1369.276	10152.2
1374.046	10308.2
1378.811	10371.2
1383.572	10487.2
1388.327	10482.2
1393.079	10426.2
1397.825	10332.2
1402.567	10225.2
1407.304	10078.2
1412.036	9937.2
1416.764	9915.2
1421.487	9830.2
1426.205	9779.2
1430.919	9704.2
1435.628	9757.2
1440.333	9763.2
1445.032	9789.2
1449.727	9857.2
1454.418	9824.2
1459.104	9719.2
1463.785	9595.2
1468.462	9322.2
1473.134	9169.2
1477.802	9003.2
1482.465	8866.2
1487.123	8757.2
1491.777	8753.2
1496.426	8805.2
1501.071	8914.2
1505.711	9012.2
1510.347	9159.2
1514.978	9244.2
1519.604	9367.2
1524.226	9472.2
1528.844	9481.2
1533.457	9459.2
1538.065	9395.2
1542.669	9337.2
1547.269	9310.2
1551.864	9207.2
1556.454	9203.2
1561.041	9207.2
1565.622	9193.2
1570.199	9199.2
1574.772	9309.2
1579.34	9383.2
1583.904	9449.2
1588.464	9413.2
1593.019	9420.2
1597.569	9407.2
1602.115	9376.2
1606.657	9321.2
1611.195	9264.2
1615.728	9248.2
1620.256	9231.2
1624.78	9215.2
1629.3	9251.2
1633.816	9270.2
1638.327	9357.2
1642.834	9411.2
1647.336	9396.2
1651.834	9455.2
1656.328	9422.2
1660.817	9321.2
1665.302	9263.2
1669.783	9078.2
1674.259	8853.2
1678.732	8606.2
1683.199	8295.2
1687.663	8034.2
1692.122	7868.2
1696.577	7710.2
1701.028	7683.2
1705.474	7729.2
1709.917	7734.2
1714.355	7713.2
1718.788	7614.2
1723.218	7545.2
1727.643	7409.2
1732.064	7267.2
1736.481	7095.2
1740.893	6896.2
1745.301	6697.2
1749.705	6532.2
1754.105	6317.2
1758.501	6174.2
1762.893	5994.2
1767.28	5864.2
1771.663	5735.2
1776.042	5629.2
1780.417	5627.2
1784.787	5649.2
1789.154	5690.2
1793.516	5797.2
1797.874	5911.2
1802.228	5936.2
1806.578	6014.2
1810.924	5973.2
1815.266	5921.2
1819.603	5872.2
1823.937	5719.2
1828.266	5626.2
1832.591	5586.2
1836.913	5508.2
1841.23	5458.2
1845.543	5385.2
1849.852	5366.2
1854.156	5396.2
1858.457	5352.2
1862.754	5383.2
1867.047	5362.2
1871.335	5350.2
1875.62	5324.2
1879.9	5308.2
1884.177	5298.2
1888.449	5230.2
1892.718	5160.2
1896.982	5149.2
1901.243	5108.2
1905.499	5064.2
1909.752	5049.2
1914	5052.2
1918.245	5085.2
1922.485	5119.2
1926.722	5168.2
1930.954	5253.2
1935.183	5265.2
1939.408	5318.2
1943.628	5366.2
1947.845	5327.2
1952.058	5334.2
1956.267	5270.2
1960.472	5194.2
1964.673	5101.2
1968.87	5037.2
1973.063	4954.2
1977.252	4918.2
1981.438	4844.2
1985.619	4822.2
1989.797	4734.2
1993.971	4698.2
1998.14	4723.2
2002.306	4686.2
2006.469	4666.2
2010.627	4640.2
2014.781	4624.2
2018.932	4562.2
2023.078	4551.2
2027.221	4459.2
2031.36	4431.2
2035.495	4341.2
2039.627	4275.2
2043.754	4254.2
2047.878	4209.2
2051.998	4185.2
2056.114	4149.2
2060.226	4168.2
2064.334	4185.2
2068.439	4230.2
2072.54	4245.2
2076.637	4260.2
2080.73	4275.2
2084.82	4335.2
2088.906	4320.2
2092.988	4322.2
2097.066	4342.2
2101.14	4259.2
2105.211	4261.2
2109.278	4216.2
2113.342	4211.2
2117.401	4164.2
2121.457	4150.2
2125.509	4114.2
2129.558	4085.2
2133.602	4065.2
2137.643	4038.2
2141.681	4003.2
2145.714	4001.2
2149.744	3953.2
2153.77	3928.2
2157.793	3887.2
2161.812	3846.2
2165.827	3763.2
2169.838	3720.2
2173.846	3642.2
2177.851	3601.2
2181.851	3534.2
2185.848	3497.2
2189.841	3466.2
2193.831	3447.2
2197.817	3411.2
2201.799	3392.2
2205.778	3367.2
2209.753	3366.2
2213.725	3332.2
2217.693	3320.2
2221.657	3309.2
2225.618	3318.2
2229.575	3313.2
2233.529	3232.2
2237.479	3241.2
2241.425	3212.2
2245.368	3137.2
2249.307	3098.2
2253.243	3033.2
2257.175	3011.2
2261.104	2984.2
2265.029	2915.2
2268.95	2883.2
2272.868	2874.2
2276.783	2841.2
2280.694	2823.2
2284.601	2772.2
2288.505	2777.2
2292.405	2730.2
2296.302	2676.2
2300.195	2669.2
2304.085	2624.2
2307.971	2592.2
2311.854	2540.2
2315.734	2514.2
2319.609	2508.2
2323.482	2435.2
2327.351	2405.2
2331.216	2417.2
2335.078	2400.2
2338.937	2357.2
2342.792	2361.2
2346.643	2359.2
2350.492	2337.2
2354.336	2343.2
2358.178	2341.2
2362.015	2354.2
2365.85	2367.2
2369.681	2365.2
2373.508	2347.2
2377.333	2358.2
2381.153	2333.2
2384.971	2339.2
2388.785	2317.2
2392.595	2304.2
2396.402	2261.2
2400.206	2238.2
2404.007	2212.2
2407.804	2211.2
2411.597	2193.2
2415.388	2184.2
2419.174	2173.2
2422.958	2138.2
2426.738	2127.2
2430.515	2115.2
2434.289	2123.2
2438.059	2076.2
2441.825	2062.2
2445.589	2027.2
2449.349	2050.2
2453.106	1981.2
2456.859	1965.2
2460.61	1953.2
2464.356	1931.2
2468.1	1903.2
2471.84	1897.2
2475.577	1893.2
2479.311	1842.2
2483.041	1843.2
2486.768	1823.2
2490.492	1834.2
2494.213	1817.2
2497.93	1813.2
2501.644	1804.2
2505.355	1783.2
2509.062	1784.2
2512.766	1767.2
2516.467	1757.2
2520.165	1770.2
2523.859	1734.2
2527.551	1735.2
2531.239	1722.2
2534.923	1716.2
2538.605	1707.2
2542.283	1707.2
2545.958	1700.2
2549.63	1672.2
2553.299	1674.2
2556.964	1692.2
2560.626	1663.2
2564.285	1663.2
2567.941	1647.2
2571.594	1637.2
2575.243	1636.2
2578.89	1615.2
2582.533	1598.2
2586.173	1594.2
2589.809	1565.2
2593.443	1566.2
2597.073	1537.2
2600.701	1525.2
2604.325	1500.2
2607.946	1510.2
2611.564	1496.2
2615.178	1501.2
2618.79	1468.2
2622.398	1459.2
2626.004	1453.2
2629.606	1424.2
2633.205	1427.2
2636.801	1393.2
2640.394	1370.2
2643.983	1349.2
2647.57	1308.2
2651.153	1302.2
2654.734	1293.2
2658.311	1275.2
2661.885	1241.2
2665.456	1230.2
2669.025	1218.2
2672.589	1215.2
2676.151	1186.2
2679.71	1155.2
2683.266	1155.2
2686.819	1133.2
2690.368	1105.2
2693.915	1095.2
2697.458	1066.2
2700.999	1046.2
2704.536	1013.2
2708.071	989.2
2711.602	974.2
2715.13	964.2
2718.656	938.2
2722.178	907.2
2725.697	887.2
2729.214	903.2
2732.727	893.2
2736.237	888.2
2739.744	910.2
2743.249	894.2
2746.75	915.2
2750.248	907.2
2753.743	911.2
2757.236	949.2
2760.725	911.2
2764.211	947.2
2767.695	939.2
2771.175	935.2
2774.652	927.2
2778.127	923.2
2781.598	918.2
2785.067	905.2
2788.532	910.2
2791.995	899.2
2795.455	926.2
2798.911	907.2
2802.365	918.2
2805.816	911.2
2809.264	906.2
2812.709	914.2
2816.151	915.2
2819.59	915.2
2823.026	913.2
2826.46	901.2
2829.89	919.2
2833.318	912.2
2836.742	925.2
2840.164	944.2
2843.583	923.2
2846.999	940.2
2850.412	945.2
2853.822	966.2
2857.229	983.2
2860.634	999.2
2864.035	1029.2
2867.434	1037.2
2870.83	1068.2
2874.223	1088.2
2877.613	1107.2
2881	1119.2
2884.385	1140.2
2887.766	1124.2
2891.145	1130.2
2894.521	1125.2
2897.894	1118.2
2901.264	1146.2
2904.631	1134.2
2907.996	1135.2
2911.358	1150.2
2914.717	1168.2
2918.073	1176.2
2921.426	1181.2
2924.777	1209.2
2928.124	1225.2
2931.469	1247.2
2934.811	1292.2
2938.15	1293.2
2941.487	1317.2
2944.821	1330.2
2948.152	1330.2
2951.48	1318.2
2954.805	1301.2
2958.128	1286.2
2961.447	1267.2
2964.765	1261.2
2968.079	1290.2
2971.39	1301.2
2974.699	1316.2
2978.005	1336.2
2981.308	1362.2
2984.609	1383.2
2987.907	1409.2
2991.202	1447.2
2994.494	1479.2
2997.784	1499.2
3001.07	1521.2
3004.355	1535.2
3007.636	1567.2
3010.915	1584.2
3014.191	1612.2
3017.464	1626.2
3020.734	1643.2
3024.002	1616.2
3027.267	1655.2
3030.53	1652.2
3033.789	1685.2
3037.046	1705.2
3040.301	1750.2
3043.552	1768.2
3046.801	1811.2
3050.048	1844.2
3053.291	1923.2
3056.532	1957.2
3059.771	2036.2
3063.006	2082.2
3066.239	2134.2
3069.469	2197.2
3072.697	2272.2
3075.922	2316.2
3079.144	2373.2
3082.364	2408.2
3085.581	2476.2
3088.795	2528.2
3092.007	2609.2
3095.216	2637.2
3098.423	2711.2
3101.627	2774.2
3104.828	2831.2
3108.026	2910.2
3111.222	2980.2
3114.416	3027.2
3117.607	3086.2
3120.795	3176.2
3123.98	3247.2
3127.163	3332.2
3130.344	3423.2
3133.521	3482.2
3136.696	3574.2
3139.869	3603.2
3143.039	3693.2
3146.206	3753.2
3149.371	3801.2
3152.533	3836.2
3155.693	3846.2
3158.85	3895.2
3162.005	3910.2
3165.157	3911.2
3168.306	3938.2
3171.453	3940.2
3174.597	3982.2
3177.739	3974.2
3180.878	3974.2
3184.014	3968.2
3187.149	3968.2
3190.28	3988.2
3193.409	4000.2
3196.536	4018.2
3199.659	4000.2
3202.781	4014.2
3205.9	4043.2
3209.016	4019.2
3212.13	3972.2
3215.241	3963.2
3218.35	3900.2
3221.456	3876.2
3224.56	3860.2
3227.661	3821.2
3230.76	3775.2
3233.856	3741.2
3236.95	3727.2
3240.041	3662.2
3243.13	3634.2
3246.216	3639.2
3249.3	3618.2
3252.382	3591.2
3255.46	3565.2
3258.537	3592.2
3261.611	3550.2
3264.682	3533.2
3267.751	3581.2
3270.818	3569.2
3273.882	3548.2
3276.943	3533.2
3280.002	3504.2
3283.059	3468.2
3286.113	3412.2
3289.165	3345.2
3292.214	3308.2
3295.261	3272.2
3298.306	3203.2
3301.348	3162.2
3304.387	3121.2
3307.425	3060.2
3310.459	3027.2
3313.492	2982.2
3316.521	2956.2
3319.549	2910.2
3322.574	2869.2
3325.597	2864.2
3328.617	2830.2
3331.635	2806.2
3334.65	2795.2
3337.663	2784.2
3340.674	2778.2
3343.682	2743.2
3346.688	2735.2
3349.691	2739.2
3352.692	2740.2
3355.691	2711.2
3358.687	2664.2
3361.681	2642.2
3364.673	2623.2
3367.662	2565.2
3370.649	2526.2
3373.633	2513.2
3376.615	2484.2
3379.595	2416.2
3382.572	2377.2
3385.547	2351.2
3388.52	2322.2
3391.49	2290.2
3394.458	2257.2
3397.424	2221.2
3400.387	2201.2
3403.348	2150.2
3406.307	2137.2
3409.263	2104.2
3412.217	2098.2
3415.168	2045.2
3418.118	2038.2
3421.065	2025.2
3424.009	1978.2
3426.951	1942.2
3429.891	1916.2
3432.829	1891.2
3435.764	1825.2
3438.697	1802.2
3441.628	1744.2
3444.557	1679.2
3447.483	1638.2
3450.407	1586.2
3453.328	1508.2
3456.247	1471.2
3459.164	1421.2
3462.079	1362.2
3464.991	1315.2
3467.902	1257.2
3470.809	1222.2
3473.715	1175.2
3476.618	1141.2
3479.519	1098.2
3482.418	1073.2
3485.315	1024.2
3488.209	967.2
3491.101	945.2
3493.99	923.2
3496.878	892.2
3499.763	832.2
3502.646	810.2
3505.527	775.2
3508.405	729.2
3511.281	690.2
3514.155	649.2
3517.027	615.2
3519.897	596.2
3522.764	542.2
3525.629	484.2
3528.492	459.2
3531.352	418.2
3534.211	398.2
3537.067	345.2
3539.921	318.2
3542.773	270.2
3545.622	234.2
3548.469	218.2
3551.315	182.2
3554.157	166.2
3556.998	122.2
3559.837	113.2
3562.673	87.2
3565.507	58.2
3568.339	46.2
3571.169	17.2
3573.996	-4.8
3576.822	-15.8
3579.645	-49.8
3582.466	-74.8
3585.285	-82.8
3588.101	-95.8
3590.916	-110.8
3593.728	-151.8
3596.538	-167.8
3599.346	-186.8
3602.152	-196.8
3604.956	-206.8
3607.757	-216.8
3610.556	-237.8
3613.354	-252.8
3616.149	-262.8
3618.942	-280.8
3621.732	-284.8
3624.521	-299.8
3627.307	-309.8
3630.092	-322.8
3632.874	-323.8
3635.654	-345.8
3638.432	-337.8
3641.208	-358.8
3643.982	-371.8
3646.753	-380.8
3649.523	-391.8
3652.29	-403.8
3655.055	-393.8
3657.818	-412.8
3660.579	-425.8
3663.338	-424.8
3666.095	-438.8
3668.849	-451.8
3671.602	-454.8
3674.352	-456.8
3677.101	-478.8
3679.847	-480.8
3682.591	-488.8
3685.333	-492.8
3688.073	-495.8
3690.811	-509.8
3693.547	-500.8
3696.281	-517.8
3699.013	-515.8
3701.742	-524.8
3704.47	-526.8
3707.195	-533.8
3709.919	-534.8
3712.64	-537.8
3715.359	-543.8
3718.076	-546.8
3720.792	-547.8
3723.505	-549.8
3726.216	-559.8
3728.925	-561.8
3731.632	-577.8
3734.336	-572.8
3737.039	-581.8
3739.74	-575.8
3742.439	-570.8
3745.136	-574.8
3747.83	-583.8
3750.523	-575.8
3753.213	-588.8
3755.902	-586.8
3758.589	-585.8
3761.273	-586.8
3763.956	-594.8
3766.636	-593.8
3769.315	-592.8
3771.991	-592.8
3774.665	-598.8
3777.338	-596.8
3780.008	-593.8
3782.677	-604.8
3785.343	-604.8
3788.007	-599.8
3790.67	-603.8
3793.33	-600.8
3795.989	-606.8
3798.645	-604.8
3801.299	-612.8
3803.952	-618.8
3806.602	-609.8
3809.251	-617.8
3811.897	-615.8
3814.542	-609.8
3817.184	-609.8
3819.825	-618.8
3822.463	-614.8
3825.1	-624.8
3827.735	-625.8
3830.367	-620.8
3832.998	-625.8
3835.627	-625.8
3838.253	-627.8
3840.878	-621.8
3843.501	-625.8
3846.122	-620.8
3848.741	-619.8
3851.358	-625.8
3853.973	-623.8
3856.586	-625.8
3859.197	-623.8
3861.806	-621.8
3864.414	-619.8
3867.019	-623.8
3869.622	-625.8
3872.224	-624.8
3874.823	-613.8
3877.421	-593.8
3880.016	-582.8
3882.61	-552.8
3885.202	-555.8
3887.792	-579.8
3890.38	-598.8
3892.966	-614.8
3895.55	-620.8
3898.132	-629.8
3900.713	-634.8
3903.291	-634.8
3905.868	-636.8
3908.442	-637.8
3911.015	-635.8
3913.586	-638.8
3916.155	-638.8
3918.722	-635.8
3921.287	-639.8
3923.85	-635.8
3926.411	-639.8
3928.971	-637.8
3931.528	-635.8
3934.084	-631.8
3936.638	-642.8
3939.19	-636.8
3941.74	-643.8
3944.288	-641.8
3946.834	-641.8
3949.378	-642.8
3951.921	-647.8
3954.462	-639.8
3957	-638.8
3959.537	-637.8
3962.072	-638.8
3964.606	-635.8
3967.137	-642.8
3969.667	-636.8
3972.194	-632.8
3974.72	-632.8
3977.244	-625.8
3979.766	-627.8
3982.286	-628.8
3984.805	-615.8
3987.321	-624.8
3989.836	-625.8
3992.349	-627.8
3994.86	-621.8
3997.369	-634.8
3999.877	-628.8
4002.382	-625.8
4004.886	-632.8
4007.388	-625.8
4009.888	-623.8
4012.386	-626.8
4014.883	-627.8
4017.377	-627.8
4019.87	-627.8
4022.361	-619.8
4024.85	-633.8
4027.338	-628.8
4029.823	-626.8
4032.307	-628.8
4034.789	-630.8
4037.269	-637.8
4039.747	-638.8
4042.224	-624.8
4044.699	-634.8
4047.172	-630.8
4049.643	-628.8
4052.112	-630.8
4054.58	-628.8
4057.046	-634.8
4059.51	-630.8
4061.972	-637.8
4064.432	-629.8
4066.891	-626.8
4069.348	-630.8
4071.803	-631.8
4074.256	-630.8
4076.708	-631.8
4079.158	-629.8
4081.606	-628.8
4084.052	-626.8
4086.497	-631.8
4088.939	-623.8
4091.38	-625.8
4093.819	-625.8
4096.257	-658.8
4098.693	-659.8
4101.127	-660.8
4103.559	-663.8
4105.989	-395.8
4108.418	-375.8
4110.845	-364.8
4113.27	-332.8
4115.694	-296.8
4118.115	-242.8
4120.535	-628.8
4122.954	-630.8
4125.37	-632.8
4127.785	-627.8
4130.198	-633.8
4132.609	-625.8
4135.019	-664.8
4137.427	-659.8
4139.833	-657.8
4142.237	-659.8
