Data from 2018-2-7_conc=2_RamanShift_09.txt Node
Date: Tue Feb 13 11:49:44 IST 2018
User: aro
Spectrometer: QEPB0276
Trigger mode: 0
Integration Time (sec): 3.000000E1
Scans to average: 1
Electric dark correction enabled: true
Nonlinearity correction enabled: false
Boxcar width: 0
XAxis mode: Raman Shifts
Number of Pixels in Spectrum: 1044
>>>>>Begin Spectral Data<<<<<
160.701	-171.4
166.742	28.6
172.777	599.6
178.805	2305.6
184.826	6248.6
190.841	12923.6
196.849	20480.6
202.85	25590.6
208.845	27236.6
214.833	26941.6
220.815	26410.6
226.789	26175.6
232.758	25994.6
238.719	25847.6
244.674	25440.6
250.623	24957.6
256.565	24409.6
262.5	23855.6
268.429	23361.6
274.351	22953.6
280.267	22657.6
286.176	22393.6
292.079	22113.6
297.975	21958.6
303.865	21670.6
309.748	21540.6
315.625	21356.6
321.495	21267.6
327.359	21194.6
333.217	21112.6
339.068	21099.6
344.912	21075.6
350.751	21095.6
356.583	21016.6
362.408	21021.6
368.227	21011.6
374.04	21045.6
379.847	21091.6
385.647	21182.6
391.44	21256.6
397.228	21293.6
403.009	21451.6
408.784	21501.6
414.553	21611.6
420.315	21637.6
426.071	21664.6
431.821	21670.6
437.565	21618.6
443.302	21560.6
449.033	21534.6
454.758	21483.6
460.477	21394.6
466.189	21338.6
471.896	21305.6
477.596	21271.6
483.29	21230.6
488.978	21251.6
494.66	21126.6
500.335	20998.6
506.005	20797.6
511.668	20525.6
517.325	20295.6
522.977	20079.6
528.622	19910.6
534.261	19830.6
539.894	19729.6
545.521	19634.6
551.141	19566.6
556.756	19572.6
562.365	19454.6
567.968	19356.6
573.565	19297.6
579.155	19222.6
584.74	19180.6
590.319	19134.6
595.892	19025.6
601.459	18899.6
607.02	18828.6
612.575	18746.6
618.124	18586.6
623.667	18552.6
629.204	18435.6
634.735	18317.6
640.261	18237.6
645.781	18218.6
651.294	18141.6
656.802	18135.6
662.304	18112.6
667.8	18057.6
673.29	18052.6
678.775	18010.6
684.254	17958.6
689.726	17900.6
695.193	17830.6
700.655	17741.6
706.11	17697.6
711.56	17589.6
717.004	17491.6
722.442	17414.6
727.874	17333.6
733.301	17294.6
738.722	17263.6
744.137	17185.6
749.547	17167.6
754.951	17280.6
760.349	17223.6
765.741	17260.6
771.128	17251.6
776.509	17224.6
781.885	17249.6
787.254	17176.6
792.618	17162.6
797.977	17039.6
803.33	16899.6
808.677	16809.6
814.019	16722.6
819.355	16630.6
824.686	16516.6
830.011	16507.6
835.33	16528.6
840.644	16491.6
845.952	16583.6
851.255	16638.6
856.552	16580.6
861.844	16623.6
867.13	16574.6
872.41	16471.6
877.686	16444.6
882.955	16276.6
888.219	16109.6
893.478	15932.6
898.731	15711.6
903.979	15527.6
909.221	15470.6
914.458	15389.6
919.69	15391.6
924.916	15464.6
930.136	15458.6
935.351	15500.6
940.561	15487.6
945.766	15505.6
950.965	15414.6
956.158	15295.6
961.347	15136.6
966.529	14918.6
971.707	14742.6
976.879	14598.6
982.046	14371.6
987.208	14418.6
992.364	14430.6
997.515	14482.6
1002.66	14653.6
1007.801	14821.6
1012.936	14898.6
1018.066	14905.6
1023.19	14918.6
1028.309	14864.6
1033.423	14906.6
1038.532	14760.6
1043.636	14669.6
1048.734	14473.6
1053.827	14323.6
1058.915	14122.6
1063.998	14066.6
1069.075	13961.6
1074.147	14014.6
1079.214	14117.6
1084.276	14144.6
1089.333	14304.6
1094.385	14312.6
1099.431	14359.6
1104.472	14332.6
1109.509	14324.6
1114.54	14087.6
1119.565	13888.6
1124.586	13767.6
1129.602	13629.6
1134.613	13516.6
1139.618	13461.6
1144.619	13389.6
1149.614	13438.6
1154.604	13480.6
1159.589	13480.6
1164.57	13457.6
1169.545	13484.6
1174.515	13516.6
1179.48	13423.6
1184.44	13350.6
1189.395	13243.6
1194.345	13139.6
1199.29	13132.6
1204.23	13054.6
1209.165	13150.6
1214.095	13192.6
1219.021	13310.6
1223.941	13357.6
1228.856	13442.6
1233.766	13454.6
1238.672	13475.6
1243.572	13459.6
1248.467	13369.6
1253.358	13199.6
1258.244	13006.6
1263.124	12810.6
1268	12668.6
1272.871	12500.6
1277.737	12428.6
1282.599	12339.6
1287.455	12363.6
1292.306	12334.6
1297.153	12428.6
1301.995	12453.6
1306.832	12518.6
1311.664	12521.6
1316.491	12483.6
1321.314	12414.6
1326.132	12201.6
1330.945	11934.6
1335.753	11647.6
1340.556	11364.6
1345.354	11152.6
1350.148	10957.6
1354.937	10820.6
1359.722	10826.6
1364.501	10835.6
1369.276	10985.6
1374.046	11123.6
1378.811	11292.6
1383.572	11456.6
1388.327	11487.6
1393.079	11444.6
1397.825	11305.6
1402.567	11141.6
1407.304	10960.6
1412.036	10897.6
1416.764	10827.6
1421.487	10737.6
1426.205	10664.6
1430.919	10649.6
1435.628	10674.6
1440.333	10649.6
1445.032	10737.6
1449.727	10732.6
1454.418	10778.6
1459.104	10613.6
1463.785	10369.6
1468.462	10217.6
1473.134	9936.6
1477.802	9725.6
1482.465	9541.6
1487.123	9469.6
1491.777	9409.6
1496.426	9461.6
1501.071	9576.6
1505.711	9669.6
1510.347	9902.6
1514.978	10022.6
1519.604	10150.6
1524.226	10271.6
1528.844	10344.6
1533.457	10309.6
1538.065	10282.6
1542.669	10212.6
1547.269	10144.6
1551.864	10067.6
1556.454	10029.6
1561.041	10062.6
1565.622	10036.6
1570.199	10041.6
1574.772	10100.6
1579.34	10193.6
1583.904	10271.6
1588.464	10245.6
1593.019	10230.6
1597.569	10240.6
1602.115	10160.6
1606.657	10127.6
1611.195	10050.6
1615.728	10009.6
1620.256	9952.6
1624.78	9952.6
1629.3	9983.6
1633.816	9997.6
1638.327	10025.6
1642.834	10093.6
1647.336	10148.6
1651.834	10164.6
1656.328	10111.6
1660.817	10084.6
1665.302	9990.6
1669.783	9807.6
1674.259	9550.6
1678.732	9316.6
1683.199	9008.6
1687.663	8651.6
1692.122	8409.6
1696.577	8277.6
1701.028	8221.6
1705.474	8270.6
1709.917	8352.6
1714.355	8374.6
1718.788	8304.6
1723.218	8198.6
1727.643	8056.6
1732.064	7853.6
1736.481	7713.6
1740.893	7503.6
1745.301	7332.6
1749.705	7135.6
1754.105	6897.6
1758.501	6763.6
1762.893	6574.6
1767.28	6420.6
1771.663	6275.6
1776.042	6184.6
1780.417	6117.6
1784.787	6108.6
1789.154	6156.6
1793.516	6236.6
1797.874	6358.6
1802.228	6450.6
1806.578	6536.6
1810.924	6540.6
1815.266	6447.6
1819.603	6370.6
1823.937	6315.6
1828.266	6216.6
1832.591	6097.6
1836.913	6025.6
1841.23	5962.6
1845.543	5902.6
1849.852	5915.6
1854.156	5888.6
1858.457	5877.6
1862.754	5822.6
1867.047	5839.6
1871.335	5859.6
1875.62	5808.6
1879.9	5802.6
1884.177	5752.6
1888.449	5699.6
1892.718	5671.6
1896.982	5577.6
1901.243	5525.6
1905.499	5496.6
1909.752	5506.6
1914	5454.6
1918.245	5494.6
1922.485	5528.6
1926.722	5589.6
1930.954	5643.6
1935.183	5707.6
1939.408	5745.6
1943.628	5804.6
1947.845	5789.6
1952.058	5777.6
1956.267	5740.6
1960.472	5691.6
1964.673	5601.6
1968.87	5516.6
1973.063	5439.6
1977.252	5381.6
1981.438	5302.6
1985.619	5239.6
1989.797	5212.6
1993.971	5184.6
1998.14	5145.6
2002.306	5131.6
2006.469	5110.6
2010.627	5111.6
2014.781	5051.6
2018.932	5070.6
2023.078	4994.6
2027.221	4934.6
2031.36	4850.6
2035.495	4759.6
2039.627	4718.6
2043.754	4639.6
2047.878	4600.6
2051.998	4578.6
2056.114	4543.6
2060.226	4569.6
2064.334	4542.6
2068.439	4604.6
2072.54	4603.6
2076.637	4649.6
2080.73	4641.6
2084.82	4646.6
2088.906	4695.6
2092.988	4720.6
2097.066	4696.6
2101.14	4644.6
2105.211	4602.6
2109.278	4624.6
2113.342	4590.6
2117.401	4548.6
2121.457	4502.6
2125.509	4524.6
2129.558	4489.6
2133.602	4441.6
2137.643	4474.6
2141.681	4397.6
2145.714	4390.6
2149.744	4335.6
2153.77	4339.6
2157.793	4271.6
2161.812	4228.6
2165.827	4162.6
2169.838	4107.6
2173.846	4027.6
2177.851	3958.6
2181.851	3928.6
2185.848	3863.6
2189.841	3838.6
2193.831	3763.6
2197.817	3768.6
2201.799	3745.6
2205.778	3704.6
2209.753	3695.6
2213.725	3698.6
2217.693	3687.6
2221.657	3668.6
2225.618	3673.6
2229.575	3656.6
2233.529	3648.6
2237.479	3585.6
2241.425	3537.6
2245.368	3500.6
2249.307	3470.6
2253.243	3407.6
2257.175	3363.6
2261.104	3305.6
2265.029	3265.6
2268.95	3222.6
2272.868	3198.6
2276.783	3161.6
2280.694	3155.6
2284.601	3107.6
2288.505	3084.6
2292.405	3038.6
2296.302	3021.6
2300.195	2975.6
2304.085	2951.6
2307.971	2930.6
2311.854	2856.6
2315.734	2825.6
2319.609	2789.6
2323.482	2762.6
2327.351	2720.6
2331.216	2714.6
2335.078	2705.6
2338.937	2675.6
2342.792	2662.6
2346.643	2690.6
2350.492	2651.6
2354.336	2644.6
2358.178	2659.6
2362.015	2676.6
2365.85	2668.6
2369.681	2678.6
2373.508	2666.6
2377.333	2674.6
2381.153	2671.6
2384.971	2639.6
2388.785	2650.6
2392.595	2601.6
2396.402	2590.6
2400.206	2557.6
2404.007	2542.6
2407.804	2511.6
2411.597	2490.6
2415.388	2511.6
2419.174	2476.6
2422.958	2476.6
2426.738	2451.6
2430.515	2420.6
2434.289	2401.6
2438.059	2385.6
2441.825	2378.6
2445.589	2323.6
2449.349	2329.6
2453.106	2285.6
2456.859	2259.6
2460.61	2243.6
2464.356	2194.6
2468.1	2174.6
2471.84	2163.6
2475.577	2141.6
2479.311	2135.6
2483.041	2099.6
2486.768	2089.6
2490.492	2087.6
2494.213	2099.6
2497.93	2115.6
2501.644	2074.6
2505.355	2064.6
2509.062	2032.6
2512.766	2026.6
2516.467	2024.6
2520.165	2019.6
2523.859	2005.6
2527.551	1964.6
2531.239	1961.6
2534.923	1952.6
2538.605	1952.6
2542.283	1940.6
2545.958	1909.6
2549.63	1914.6
2553.299	1911.6
2556.964	1933.6
2560.626	1920.6
2564.285	1889.6
2567.941	1883.6
2571.594	1865.6
2575.243	1877.6
2578.89	1849.6
2582.533	1860.6
2586.173	1831.6
2589.809	1818.6
2593.443	1788.6
2597.073	1768.6
2600.701	1762.6
2604.325	1764.6
2607.946	1765.6
2611.564	1740.6
2615.178	1720.6
2618.79	1712.6
2622.398	1695.6
2626.004	1649.6
2629.606	1648.6
2633.205	1637.6
2636.801	1612.6
2640.394	1592.6
2643.983	1574.6
2647.57	1549.6
2651.153	1529.6
2654.734	1508.6
2658.311	1465.6
2661.885	1460.6
2665.456	1445.6
2669.025	1409.6
2672.589	1431.6
2676.151	1399.6
2679.71	1389.6
2683.266	1353.6
2686.819	1327.6
2690.368	1289.6
2693.915	1269.6
2697.458	1243.6
2700.999	1224.6
2704.536	1180.6
2708.071	1187.6
2711.602	1147.6
2715.13	1127.6
2718.656	1118.6
2722.178	1068.6
2725.697	1067.6
2729.214	1044.6
2732.727	1040.6
2736.237	1024.6
2739.744	1037.6
2743.249	1037.6
2746.75	1048.6
2750.248	1036.6
2753.743	1049.6
2757.236	1056.6
2760.725	1063.6
2764.211	1081.6
2767.695	1071.6
2771.175	1094.6
2774.652	1076.6
2778.127	1082.6
2781.598	1067.6
2785.067	1057.6
2788.532	1057.6
2791.995	1051.6
2795.455	1033.6
2798.911	1069.6
2802.365	1055.6
2805.816	1054.6
2809.264	1076.6
2812.709	1053.6
2816.151	1053.6
2819.59	1053.6
2823.026	1054.6
2826.46	1045.6
2829.89	1063.6
2833.318	1058.6
2836.742	1071.6
2840.164	1088.6
2843.583	1078.6
2846.999	1088.6
2850.412	1155.6
2853.822	1176.6
2857.229	1128.6
2860.634	1140.6
2864.035	1170.6
2867.434	1183.6
2870.83	1215.6
2874.223	1238.6
2877.613	1272.6
2881	1266.6
2884.385	1301.6
2887.766	1273.6
2891.145	1270.6
2894.521	1270.6
2897.894	1259.6
2901.264	1289.6
2904.631	1280.6
2907.996	1294.6
2911.358	1294.6
2914.717	1304.6
2918.073	1311.6
2921.426	1328.6
2924.777	1350.6
2928.124	1366.6
2931.469	1395.6
2934.811	1423.6
2938.15	1437.6
2941.487	1421.6
2944.821	1450.6
2948.152	1465.6
2951.48	1429.6
2954.805	1415.6
2958.128	1424.6
2961.447	1402.6
2964.765	1394.6
2968.079	1422.6
2971.39	1424.6
2974.699	1442.6
2978.005	1464.6
2981.308	1495.6
2984.609	1525.6
2987.907	1530.6
2991.202	1556.6
2994.494	1594.6
2997.784	1619.6
3001.07	1644.6
3004.355	1670.6
3007.636	1696.6
3010.915	1722.6
3014.191	1738.6
3017.464	1776.6
3020.734	1766.6
3024.002	1769.6
3027.267	1798.6
3030.53	1790.6
3033.789	1843.6
3037.046	1834.6
3040.301	1872.6
3043.552	1910.6
3046.801	1934.6
3050.048	1984.6
3053.291	2057.6
3056.532	2090.6
3059.771	2164.6
3063.006	2228.6
3066.239	2292.6
3069.469	2336.6
3072.697	2423.6
3075.922	2453.6
3079.144	2527.6
3082.364	2588.6
3085.581	2635.6
3088.795	2682.6
3092.007	2766.6
3095.216	2826.6
3098.423	2881.6
3101.627	2940.6
3104.828	3016.6
3108.026	3065.6
3111.222	3143.6
3114.416	3216.6
3117.607	3289.6
3120.795	3366.6
3123.98	3432.6
3127.163	3483.6
3130.344	3588.6
3133.521	3669.6
3136.696	3775.6
3139.869	3859.6
3143.039	3927.6
3146.206	3978.6
3149.371	4020.6
3152.533	4065.6
3155.693	4079.6
3158.85	4077.6
3162.005	4121.6
3165.157	4118.6
3168.306	4161.6
3171.453	4177.6
3174.597	4156.6
3177.739	4142.6
3180.878	4152.6
3184.014	4187.6
3187.149	4180.6
3190.28	4194.6
3193.409	4171.6
3196.536	4216.6
3199.659	4198.6
3202.781	4230.6
3205.9	4217.6
3209.016	4234.6
3212.13	4206.6
3215.241	4142.6
3218.35	4133.6
3221.456	4081.6
3224.56	4005.6
3227.661	3989.6
3230.76	3949.6
3233.856	3905.6
3236.95	3877.6
3240.041	3865.6
3243.13	3817.6
3246.216	3780.6
3249.3	3769.6
3252.382	3778.6
3255.46	3740.6
3258.537	3716.6
3261.611	3732.6
3264.682	3728.6
3267.751	3716.6
3270.818	3729.6
3273.882	3705.6
3276.943	3683.6
3280.002	3640.6
3283.059	3607.6
3286.113	3553.6
3289.165	3527.6
3292.214	3475.6
3295.261	3421.6
3298.306	3367.6
3301.348	3288.6
3304.387	3253.6
3307.425	3211.6
3310.459	3162.6
3313.492	3110.6
3316.521	3078.6
3319.549	3062.6
3322.574	3022.6
3325.597	2983.6
3328.617	2966.6
3331.635	2928.6
3334.65	2918.6
3337.663	2902.6
3340.674	2893.6
3343.682	2847.6
3346.688	2858.6
3349.691	2832.6
3352.692	2829.6
3355.691	2826.6
3358.687	2775.6
3361.681	2748.6
3364.673	2723.6
3367.662	2687.6
3370.649	2616.6
3373.633	2606.6
3376.615	2556.6
3379.595	2518.6
3382.572	2492.6
3385.547	2454.6
3388.52	2423.6
3391.49	2382.6
3394.458	2354.6
3397.424	2301.6
3400.387	2285.6
3403.348	2242.6
3406.307	2218.6
3409.263	2218.6
3412.217	2177.6
3415.168	2167.6
3418.118	2118.6
3421.065	2093.6
3424.009	2057.6
3426.951	2011.6
3429.891	2003.6
3432.829	1951.6
3435.764	1911.6
3438.697	1867.6
3441.628	1809.6
3444.557	1767.6
3447.483	1690.6
3450.407	1641.6
3453.328	1605.6
3456.247	1538.6
3459.164	1481.6
3462.079	1446.6
3464.991	1367.6
3467.902	1334.6
3470.809	1271.6
3473.715	1228.6
3476.618	1195.6
3479.519	1157.6
3482.418	1095.6
3485.315	1064.6
3488.209	1033.6
3491.101	1011.6
3493.99	958.6
3496.878	922.6
3499.763	876.6
3502.646	843.6
3505.527	810.6
3508.405	766.6
3511.281	729.6
3514.155	694.6
3517.027	659.6
3519.897	620.6
3522.764	555.6
3525.629	518.6
3528.492	492.6
3531.352	424.6
3534.211	395.6
3537.067	349.6
3539.921	320.6
3542.773	292.6
3545.622	257.6
3548.469	219.6
3551.315	188.6
3554.157	162.6
3556.998	156.6
3559.837	119.6
3562.673	92.6
3565.507	68.6
3568.339	34.6
3571.169	14.6
3573.996	-12.4
3576.822	-30.4
3579.645	-46.4
3582.466	-60.4
3585.285	-87.4
3588.101	-102.4
3590.916	-127.4
3593.728	-141.4
3596.538	-153.4
3599.346	-184.4
3602.152	-196.4
3604.956	-213.4
3607.757	-230.4
3610.556	-241.4
3613.354	-251.4
3616.149	-267.4
3618.942	-284.4
3621.732	-296.4
3624.521	-305.4
3627.307	-317.4
3630.092	-332.4
3632.874	-344.4
3635.654	-352.4
3638.432	-359.4
3641.208	-369.4
3643.982	-375.4
3646.753	-397.4
3649.523	-402.4
3652.29	-403.4
3655.055	-413.4
3657.818	-426.4
3660.579	-430.4
3663.338	-447.4
3666.095	-456.4
3668.849	-468.4
3671.602	-475.4
3674.352	-480.4
3677.101	-490.4
3679.847	-503.4
3682.591	-509.4
3685.333	-508.4
3688.073	-516.4
3690.811	-516.4
3693.547	-521.4
3696.281	-531.4
3699.013	-529.4
3701.742	-538.4
3704.47	-545.4
3707.195	-557.4
3709.919	-547.4
3712.64	-560.4
3715.359	-564.4
3718.076	-566.4
3720.792	-574.4
3723.505	-578.4
3726.216	-581.4
3728.925	-585.4
3731.632	-594.4
3734.336	-588.4
3737.039	-593.4
3739.74	-597.4
3742.439	-595.4
3745.136	-601.4
3747.83	-601.4
3750.523	-597.4
3753.213	-606.4
3755.902	-605.4
3758.589	-609.4
3761.273	-600.4
3763.956	-613.4
3766.636	-613.4
3769.315	-617.4
3771.991	-618.4
3774.665	-621.4
3777.338	-618.4
3780.008	-620.4
3782.677	-620.4
3785.343	-624.4
3788.007	-622.4
3790.67	-620.4
3793.33	-630.4
3795.989	-629.4
3798.645	-628.4
3801.299	-636.4
3803.952	-635.4
3806.602	-634.4
3809.251	-645.4
3811.897	-633.4
3814.542	-633.4
3817.184	-633.4
3819.825	-638.4
3822.463	-640.4
3825.1	-642.4
3827.735	-644.4
3830.367	-640.4
3832.998	-643.4
3835.627	-647.4
3838.253	-649.4
3840.878	-649.4
3843.501	-649.4
3846.122	-646.4
3848.741	-644.4
3851.358	-654.4
3853.973	-651.4
3856.586	-648.4
3859.197	-649.4
3861.806	-654.4
3864.414	-642.4
3867.019	-649.4
3869.622	-649.4
3872.224	-639.4
3874.823	-632.4
3877.421	-605.4
3880.016	-596.4
3882.61	-570.4
3885.202	-573.4
3887.792	-595.4
3890.38	-623.4
3892.966	-639.4
3895.55	-645.4
3898.132	-653.4
3900.713	-661.4
3903.291	-664.4
3905.868	-662.4
3908.442	-662.4
3911.015	-659.4
3913.586	-650.4
3916.155	-659.4
3918.722	-654.4
3921.287	-659.4
3923.85	-658.4
3926.411	-665.4
3928.971	-664.4
3931.528	-657.4
3934.084	-660.4
3936.638	-662.4
3939.19	-667.4
3941.74	-670.4
3944.288	-671.4
3946.834	-670.4
3949.378	-667.4
3951.921	-668.4
3954.462	-667.4
3957	-659.4
3959.537	-657.4
3962.072	-656.4
3964.606	-659.4
3967.137	-665.4
3969.667	-665.4
3972.194	-654.4
3974.72	-662.4
3977.244	-654.4
3979.766	-651.4
3982.286	-656.4
3984.805	-649.4
3987.321	-652.4
3989.836	-655.4
3992.349	-653.4
3994.86	-647.4
3997.369	-660.4
3999.877	-646.4
4002.382	-650.4
4004.886	-655.4
4007.388	-648.4
4009.888	-650.4
4012.386	-653.4
4014.883	-650.4
4017.377	-654.4
4019.87	-650.4
4022.361	-656.4
4024.85	-659.4
4027.338	-657.4
4029.823	-650.4
4032.307	-656.4
4034.789	-657.4
4037.269	-659.4
4039.747	-659.4
4042.224	-650.4
4044.699	-653.4
4047.172	-658.4
4049.643	-648.4
4052.112	-651.4
4054.58	-654.4
4057.046	-661.4
4059.51	-654.4
4061.972	-662.4
4064.432	-653.4
4066.891	-651.4
4069.348	-661.4
4071.803	-656.4
4074.256	-653.4
4076.708	-652.4
4079.158	-656.4
4081.606	-652.4
4084.052	-652.4
4086.497	-652.4
4088.939	-646.4
4091.38	-645.4
4093.819	-648.4
4096.257	-690.4
4098.693	-692.4
4101.127	-688.4
4103.559	-692.4
4105.989	-413.4
4108.418	-392.4
4110.845	-378.4
4113.27	-343.4
4115.694	-293.4
4118.115	-245.4
4120.535	-655.4
4122.954	-663.4
4125.37	-654.4
4127.785	-658.4
4130.198	-662.4
4132.609	-653.4
4135.019	-694.4
4137.427	-691.4
4139.833	-688.4
4142.237	-688.4
