Data from 2018-2-7_conc=4_RamanShift_09.txt Node
Date: Tue Feb 13 13:34:43 IST 2018
User: aro
Spectrometer: QEPB0276
Trigger mode: 0
Integration Time (sec): 3.000000E1
Scans to average: 1
Electric dark correction enabled: true
Nonlinearity correction enabled: false
Boxcar width: 0
XAxis mode: Raman Shifts
Number of Pixels in Spectrum: 1044
>>>>>Begin Spectral Data<<<<<
160.701	-162.8
166.742	32.2
172.777	577.2
178.805	2204.2
184.826	6032.2
190.841	12400.2
196.849	19430.2
202.85	24237.2
208.845	25690.2
214.833	25474.2
220.815	24933.2
226.789	24861.2
232.758	24635.2
238.719	24490.2
244.674	24133.2
250.623	23701.2
256.565	23127.2
262.5	22685.2
268.429	22300.2
274.351	21922.2
280.267	21674.2
286.176	21307.2
292.079	21129.2
297.975	20941.2
303.865	20760.2
309.748	20627.2
315.625	20403.2
321.495	20399.2
327.359	20284.2
333.217	20228.2
339.068	20228.2
344.912	20179.2
350.751	20073.2
356.583	20206.2
362.408	20092.2
368.227	20201.2
374.04	20126.2
379.847	20175.2
385.647	20241.2
391.44	20299.2
397.228	20428.2
403.009	20473.2
408.784	20544.2
414.553	20650.2
420.315	20694.2
426.071	20684.2
431.821	20707.2
437.565	20635.2
443.302	20646.2
449.033	20602.2
454.758	20570.2
460.477	20549.2
466.189	20486.2
471.896	20410.2
477.596	20383.2
483.29	20312.2
488.978	20284.2
494.66	20229.2
500.335	20135.2
506.005	19854.2
511.668	19590.2
517.325	19347.2
522.977	19235.2
528.622	18955.2
534.261	18937.2
539.894	18851.2
545.521	18720.2
551.141	18719.2
556.756	18702.2
562.365	18553.2
567.968	18482.2
573.565	18378.2
579.155	18362.2
584.74	18264.2
590.319	18200.2
595.892	18093.2
601.459	18094.2
607.02	17932.2
612.575	17869.2
618.124	17787.2
623.667	17685.2
629.204	17582.2
634.735	17514.2
640.261	17440.2
645.781	17335.2
651.294	17318.2
656.802	17317.2
662.304	17261.2
667.8	17279.2
673.29	17206.2
678.775	17163.2
684.254	17111.2
689.726	17078.2
695.193	17030.2
700.655	16957.2
706.11	16844.2
711.56	16805.2
717.004	16736.2
722.442	16668.2
727.874	16584.2
733.301	16512.2
738.722	16442.2
744.137	16380.2
749.547	16439.2
754.951	16445.2
760.349	16403.2
765.741	16413.2
771.128	16425.2
776.509	16473.2
781.885	16462.2
787.254	16409.2
792.618	16335.2
797.977	16177.2
803.33	16115.2
808.677	16067.2
814.019	15962.2
819.355	15863.2
824.686	15783.2
830.011	15787.2
835.33	15834.2
840.644	15803.2
845.952	15776.2
851.255	15844.2
856.552	15867.2
861.844	15805.2
867.13	15790.2
872.41	15698.2
877.686	15638.2
882.955	15545.2
888.219	15411.2
893.478	15240.2
898.731	15064.2
903.979	14796.2
909.221	14763.2
914.458	14699.2
919.69	14699.2
924.916	14742.2
930.136	14836.2
935.351	14813.2
940.561	14815.2
945.766	14784.2
950.965	14710.2
956.158	14536.2
961.347	14424.2
966.529	14252.2
971.707	14070.2
976.879	13918.2
982.046	13785.2
987.208	13783.2
992.364	13806.2
997.515	13819.2
1002.66	13983.2
1007.801	14124.2
1012.936	14251.2
1018.066	14252.2
1023.19	14190.2
1028.309	14201.2
1033.423	14190.2
1038.532	14103.2
1043.636	13956.2
1048.734	13823.2
1053.827	13634.2
1058.915	13494.2
1063.998	13404.2
1069.075	13360.2
1074.147	13378.2
1079.214	13392.2
1084.276	13492.2
1089.333	13564.2
1094.385	13653.2
1099.431	13735.2
1104.472	13693.2
1109.509	13591.2
1114.54	13482.2
1119.565	13264.2
1124.586	13085.2
1129.602	13027.2
1134.613	12876.2
1139.618	12822.2
1144.619	12772.2
1149.614	12820.2
1154.604	12785.2
1159.589	12846.2
1164.57	12872.2
1169.545	12891.2
1174.515	12854.2
1179.48	12839.2
1184.44	12711.2
1189.395	12661.2
1194.345	12508.2
1199.29	12508.2
1204.23	12511.2
1209.165	12524.2
1214.095	12611.2
1219.021	12699.2
1223.941	12742.2
1228.856	12802.2
1233.766	12850.2
1238.672	12872.2
1243.572	12849.2
1248.467	12743.2
1253.358	12595.2
1258.244	12419.2
1263.124	12204.2
1268	12031.2
1272.871	11886.2
1277.737	11842.2
1282.599	11763.2
1287.455	11733.2
1292.306	11782.2
1297.153	11822.2
1301.995	11906.2
1306.832	11905.2
1311.664	11919.2
1316.491	11835.2
1321.314	11746.2
1326.132	11567.2
1330.945	11265.2
1335.753	10989.2
1340.556	10752.2
1345.354	10538.2
1350.148	10388.2
1354.937	10353.2
1359.722	10341.2
1364.501	10350.2
1369.276	10480.2
1374.046	10577.2
1378.811	10774.2
1383.572	10800.2
1388.327	10815.2
1393.079	10734.2
1397.825	10685.2
1402.567	10534.2
1407.304	10437.2
1412.036	10315.2
1416.764	10258.2
1421.487	10207.2
1426.205	10077.2
1430.919	10079.2
1435.628	10129.2
1440.333	10097.2
1445.032	10123.2
1449.727	10143.2
1454.418	10106.2
1459.104	10004.2
1463.785	9799.2
1468.462	9630.2
1473.134	9402.2
1477.802	9202.2
1482.465	9060.2
1487.123	8974.2
1491.777	8934.2
1496.426	8954.2
1501.071	9101.2
1505.711	9227.2
1510.347	9398.2
1514.978	9527.2
1519.604	9663.2
1524.226	9753.2
1528.844	9750.2
1533.457	9734.2
1538.065	9667.2
1542.669	9657.2
1547.269	9540.2
1551.864	9498.2
1556.454	9452.2
1561.041	9484.2
1565.622	9484.2
1570.199	9491.2
1574.772	9558.2
1579.34	9614.2
1583.904	9625.2
1588.464	9722.2
1593.019	9698.2
1597.569	9647.2
1602.115	9623.2
1606.657	9533.2
1611.195	9492.2
1615.728	9442.2
1620.256	9393.2
1624.78	9420.2
1629.3	9382.2
1633.816	9437.2
1638.327	9436.2
1642.834	9515.2
1647.336	9523.2
1651.834	9558.2
1656.328	9542.2
1660.817	9493.2
1665.302	9402.2
1669.783	9177.2
1674.259	9022.2
1678.732	8679.2
1683.199	8415.2
1687.663	8110.2
1692.122	7906.2
1696.577	7750.2
1701.028	7749.2
1705.474	7807.2
1709.917	7854.2
1714.355	7905.2
1718.788	7815.2
1723.218	7726.2
1727.643	7594.2
1732.064	7418.2
1736.481	7300.2
1740.893	7087.2
1745.301	6865.2
1749.705	6719.2
1754.105	6512.2
1758.501	6313.2
1762.893	6138.2
1767.28	5949.2
1771.663	5838.2
1776.042	5759.2
1780.417	5679.2
1784.787	5661.2
1789.154	5749.2
1793.516	5838.2
1797.874	5951.2
1802.228	6083.2
1806.578	6115.2
1810.924	6095.2
1815.266	6058.2
1819.603	5954.2
1823.937	5876.2
1828.266	5791.2
1832.591	5670.2
1836.913	5654.2
1841.23	5564.2
1845.543	5563.2
1849.852	5531.2
1854.156	5497.2
1858.457	5476.2
1862.754	5460.2
1867.047	5437.2
1871.335	5478.2
1875.62	5459.2
1879.9	5436.2
1884.177	5398.2
1888.449	5311.2
1892.718	5270.2
1896.982	5204.2
1901.243	5138.2
1905.499	5116.2
1909.752	5132.2
1914	5098.2
1918.245	5118.2
1922.485	5149.2
1926.722	5242.2
1930.954	5275.2
1935.183	5325.2
1939.408	5389.2
1943.628	5450.2
1947.845	5466.2
1952.058	5428.2
1956.267	5386.2
1960.472	5303.2
1964.673	5211.2
1968.87	5160.2
1973.063	5072.2
1977.252	5013.2
1981.438	4954.2
1985.619	4910.2
1989.797	4864.2
1993.971	4827.2
1998.14	4846.2
2002.306	4777.2
2006.469	4771.2
2010.627	4726.2
2014.781	4722.2
2018.932	4673.2
2023.078	4625.2
2027.221	4560.2
2031.36	4485.2
2035.495	4424.2
2039.627	4367.2
2043.754	4304.2
2047.878	4254.2
2051.998	4221.2
2056.114	4200.2
2060.226	4221.2
2064.334	4210.2
2068.439	4256.2
2072.54	4255.2
2076.637	4279.2
2080.73	4281.2
2084.82	4307.2
2088.906	4381.2
2092.988	4371.2
2097.066	4342.2
2101.14	4327.2
2105.211	4319.2
2109.278	4285.2
2113.342	4207.2
2117.401	4231.2
2121.457	4200.2
2125.509	4159.2
2129.558	4178.2
2133.602	4121.2
2137.643	4107.2
2141.681	4094.2
2145.714	4043.2
2149.744	4058.2
2153.77	4015.2
2157.793	3974.2
2161.812	3937.2
2165.827	3868.2
2169.838	3801.2
2173.846	3745.2
2177.851	3682.2
2181.851	3644.2
2185.848	3581.2
2189.841	3514.2
2193.831	3513.2
2197.817	3475.2
2201.799	3461.2
2205.778	3443.2
2209.753	3437.2
2213.725	3412.2
2217.693	3413.2
2221.657	3413.2
2225.618	3396.2
2229.575	3387.2
2233.529	3369.2
2237.479	3324.2
2241.425	3269.2
2245.368	3209.2
2249.307	3175.2
2253.243	3133.2
2257.175	3105.2
2261.104	3061.2
2265.029	3021.2
2268.95	2981.2
2272.868	2973.2
2276.783	2933.2
2280.694	2919.2
2284.601	2886.2
2288.505	2848.2
2292.405	2821.2
2296.302	2793.2
2300.195	2767.2
2304.085	2740.2
2307.971	2687.2
2311.854	2652.2
2315.734	2618.2
2319.609	2586.2
2323.482	2547.2
2327.351	2540.2
2331.216	2500.2
2335.078	2475.2
2338.937	2491.2
2342.792	2459.2
2346.643	2461.2
2350.492	2470.2
2354.336	2450.2
2358.178	2472.2
2362.015	2490.2
2365.85	2505.2
2369.681	2482.2
2373.508	2495.2
2377.333	2481.2
2381.153	2490.2
2384.971	2453.2
2388.785	2462.2
2392.595	2447.2
2396.402	2403.2
2400.206	2421.2
2404.007	2371.2
2407.804	2342.2
2411.597	2357.2
2415.388	2336.2
2419.174	2320.2
2422.958	2292.2
2426.738	2280.2
2430.515	2255.2
2434.289	2248.2
2438.059	2224.2
2441.825	2199.2
2445.589	2172.2
2449.349	2155.2
2453.106	2115.2
2456.859	2112.2
2460.61	2063.2
2464.356	2049.2
2468.1	2014.2
2471.84	2008.2
2475.577	1998.2
2479.311	1974.2
2483.041	1963.2
2486.768	1958.2
2490.492	1954.2
2494.213	1951.2
2497.93	1937.2
2501.644	1931.2
2505.355	1904.2
2509.062	1899.2
2512.766	1904.2
2516.467	1888.2
2520.165	1867.2
2523.859	1859.2
2527.551	1836.2
2531.239	1832.2
2534.923	1817.2
2538.605	1802.2
2542.283	1774.2
2545.958	1800.2
2549.63	1789.2
2553.299	1768.2
2556.964	1782.2
2560.626	1796.2
2564.285	1794.2
2567.941	1786.2
2571.594	1734.2
2575.243	1748.2
2578.89	1742.2
2582.533	1728.2
2586.173	1716.2
2589.809	1701.2
2593.443	1687.2
2597.073	1673.2
2600.701	1642.2
2604.325	1620.2
2607.946	1629.2
2611.564	1638.2
2615.178	1589.2
2618.79	1594.2
2622.398	1583.2
2626.004	1550.2
2629.606	1544.2
2633.205	1497.2
2636.801	1470.2
2640.394	1474.2
2643.983	1457.2
2647.57	1443.2
2651.153	1406.2
2654.734	1386.2
2658.311	1366.2
2661.885	1323.2
2665.456	1343.2
2669.025	1323.2
2672.589	1291.2
2676.151	1288.2
2679.71	1267.2
2683.266	1240.2
2686.819	1217.2
2690.368	1191.2
2693.915	1177.2
2697.458	1139.2
2700.999	1088.2
2704.536	1081.2
2708.071	1067.2
2711.602	1043.2
2715.13	1022.2
2718.656	999.2
2722.178	958.2
2725.697	950.2
2729.214	927.2
2732.727	930.2
2736.237	930.2
2739.744	919.2
2743.249	938.2
2746.75	935.2
2750.248	943.2
2753.743	961.2
2757.236	977.2
2760.725	985.2
2764.211	986.2
2767.695	973.2
2771.175	997.2
2774.652	982.2
2778.127	991.2
2781.598	991.2
2785.067	963.2
2788.532	978.2
2791.995	968.2
2795.455	962.2
2798.911	968.2
2802.365	964.2
2805.816	971.2
2809.264	968.2
2812.709	968.2
2816.151	951.2
2819.59	959.2
2823.026	968.2
2826.46	979.2
2829.89	963.2
2833.318	966.2
2836.742	984.2
2840.164	995.2
2843.583	970.2
2846.999	1003.2
2850.412	1008.2
2853.822	1010.2
2857.229	1040.2
2860.634	1051.2
2864.035	1084.2
2867.434	1080.2
2870.83	1104.2
2874.223	1123.2
2877.613	1138.2
2881	1152.2
2884.385	1167.2
2887.766	1158.2
2891.145	1177.2
2894.521	1154.2
2897.894	1148.2
2901.264	1168.2
2904.631	1153.2
2907.996	1175.2
2911.358	1169.2
2914.717	1176.2
2918.073	1179.2
2921.426	1200.2
2924.777	1211.2
2928.124	1217.2
2931.469	1246.2
2934.811	1296.2
2938.15	1291.2
2941.487	1295.2
2944.821	1302.2
2948.152	1303.2
2951.48	1302.2
2954.805	1276.2
2958.128	1253.2
2961.447	1261.2
2964.765	1241.2
2968.079	1280.2
2971.39	1268.2
2974.699	1371.2
2978.005	1490.2
2981.308	1372.2
2984.609	1356.2
2987.907	1369.2
2991.202	1381.2
2994.494	1415.2
2997.784	1447.2
3001.07	1466.2
3004.355	1502.2
3007.636	1526.2
3010.915	1545.2
3014.191	1544.2
3017.464	1584.2
3020.734	1582.2
3024.002	1609.2
3027.267	1588.2
3030.53	1611.2
3033.789	1640.2
3037.046	1654.2
3040.301	1677.2
3043.552	1719.2
3046.801	1738.2
3050.048	1796.2
3053.291	1836.2
3056.532	1892.2
3059.771	1940.2
3063.006	1981.2
3066.239	2043.2
3069.469	2126.2
3072.697	2182.2
3075.922	2224.2
3079.144	2298.2
3082.364	2339.2
3085.581	2375.2
3088.795	2439.2
3092.007	2489.2
3095.216	2561.2
3098.423	2613.2
3101.627	2663.2
3104.828	2710.2
3108.026	2782.2
3111.222	2837.2
3114.416	2910.2
3117.607	2995.2
3120.795	3040.2
3123.98	3107.2
3127.163	3184.2
3130.344	3275.2
3133.521	3348.2
3136.696	3393.2
3139.869	3493.2
3143.039	3528.2
3146.206	3576.2
3149.371	3645.2
3152.533	3669.2
3155.693	3691.2
3158.85	3716.2
3162.005	3742.2
3165.157	3731.2
3168.306	3766.2
3171.453	3755.2
3174.597	3763.2
3177.739	3760.2
3180.878	3773.2
3184.014	3776.2
3187.149	3790.2
3190.28	3794.2
3193.409	3801.2
3196.536	3793.2
3199.659	3796.2
3202.781	3830.2
3205.9	3782.2
3209.016	3781.2
3212.13	3789.2
3215.241	3751.2
3218.35	3698.2
3221.456	3664.2
3224.56	3625.2
3227.661	3601.2
3230.76	3564.2
3233.856	3507.2
3236.95	3509.2
3240.041	3461.2
3243.13	3435.2
3246.216	3432.2
3249.3	3370.2
3252.382	3378.2
3255.46	3345.2
3258.537	3351.2
3261.611	3340.2
3264.682	3330.2
3267.751	3330.2
3270.818	3366.2
3273.882	3334.2
3276.943	3312.2
3280.002	3259.2
3283.059	3250.2
3286.113	3231.2
3289.165	3173.2
3292.214	3133.2
3295.261	3094.2
3298.306	2997.2
3301.348	2953.2
3304.387	2925.2
3307.425	2900.2
3310.459	2819.2
3313.492	2803.2
3316.521	2763.2
3319.549	2748.2
3322.574	2707.2
3325.597	2674.2
3328.617	2649.2
3331.635	2648.2
3334.65	2624.2
3337.663	2612.2
3340.674	2586.2
3343.682	2584.2
3346.688	2574.2
3349.691	2531.2
3352.692	2552.2
3355.691	2560.2
3358.687	2512.2
3361.681	2495.2
3364.673	2449.2
3367.662	2395.2
3370.649	2385.2
3373.633	2360.2
3376.615	2320.2
3379.595	2266.2
3382.572	2269.2
3385.547	2208.2
3388.52	2181.2
3391.49	2129.2
3394.458	2125.2
3397.424	2075.2
3400.387	2051.2
3403.348	2019.2
3406.307	2005.2
3409.263	1986.2
3412.217	1939.2
3415.168	1954.2
3418.118	1913.2
3421.065	1883.2
3424.009	1865.2
3426.951	1790.2
3429.891	1796.2
3432.829	1756.2
3435.764	1699.2
3438.697	1651.2
3441.628	1627.2
3444.557	1588.2
3447.483	1508.2
3450.407	1473.2
3453.328	1422.2
3456.247	1368.2
3459.164	1323.2
3462.079	1260.2
3464.991	1224.2
3467.902	1159.2
3470.809	1129.2
3473.715	1093.2
3476.618	1049.2
3479.519	999.2
3482.418	951.2
3485.315	939.2
3488.209	903.2
3491.101	860.2
3493.99	847.2
3496.878	793.2
3499.763	764.2
3502.646	729.2
3505.527	690.2
3508.405	671.2
3511.281	600.2
3514.155	588.2
3517.027	556.2
3519.897	506.2
3522.764	468.2
3525.629	426.2
3528.492	390.2
3531.352	357.2
3534.211	319.2
3537.067	285.2
3539.921	245.2
3542.773	218.2
3545.622	187.2
3548.469	165.2
3551.315	122.2
3554.157	110.2
3556.998	93.2
3559.837	63.2
3562.673	38.2
3565.507	9.2
3568.339	2.2
3571.169	-15.8
3573.996	-39.8
3576.822	-60.8
3579.645	-77.8
3582.466	-101.8
3585.285	-113.8
3588.101	-118.8
3590.916	-145.8
3593.728	-161.8
3596.538	-186.8
3599.346	-209.8
3602.152	-212.8
3604.956	-226.8
3607.757	-242.8
3610.556	-259.8
3613.354	-283.8
3616.149	-282.8
3618.942	-302.8
3621.732	-316.8
3624.521	-312.8
3627.307	-327.8
3630.092	-340.8
3632.874	-348.8
3635.654	-358.8
3638.432	-358.8
3641.208	-373.8
3643.982	-379.8
3646.753	-385.8
3649.523	-400.8
3652.29	-406.8
3655.055	-411.8
3657.818	-415.8
3660.579	-432.8
3663.338	-437.8
3666.095	-448.8
3668.849	-462.8
3671.602	-462.8
3674.352	-470.8
3677.101	-481.8
3679.847	-483.8
3682.591	-485.8
3685.333	-501.8
3688.073	-496.8
3690.811	-514.8
3693.547	-510.8
3696.281	-514.8
3699.013	-516.8
3701.742	-525.8
3704.47	-531.8
3707.195	-542.8
3709.919	-536.8
3712.64	-539.8
3715.359	-548.8
3718.076	-546.8
3720.792	-554.8
3723.505	-555.8
3726.216	-558.8
3728.925	-564.8
3731.632	-570.8
3734.336	-566.8
3737.039	-572.8
3739.74	-571.8
3742.439	-574.8
3745.136	-580.8
3747.83	-582.8
3750.523	-573.8
3753.213	-592.8
3755.902	-586.8
3758.589	-578.8
3761.273	-584.8
3763.956	-590.8
3766.636	-591.8
3769.315	-595.8
3771.991	-594.8
3774.665	-597.8
3777.338	-599.8
3780.008	-596.8
3782.677	-598.8
3785.343	-602.8
3788.007	-590.8
3790.67	-602.8
3793.33	-601.8
3795.989	-608.8
3798.645	-610.8
3801.299	-614.8
3803.952	-609.8
3806.602	-614.8
3809.251	-615.8
3811.897	-608.8
3814.542	-603.8
3817.184	-614.8
3819.825	-609.8
3822.463	-606.8
3825.1	-617.8
3827.735	-622.8
3830.367	-618.8
3832.998	-623.8
3835.627	-624.8
3838.253	-624.8
3840.878	-619.8
3843.501	-627.8
3846.122	-620.8
3848.741	-620.8
3851.358	-630.8
3853.973	-625.8
3856.586	-626.8
3859.197	-624.8
3861.806	-626.8
3864.414	-622.8
3867.019	-617.8
3869.622	-620.8
3872.224	-624.8
3874.823	-607.8
3877.421	-592.8
3880.016	-568.8
3882.61	-531.8
3885.202	-529.8
3887.792	-558.8
3890.38	-591.8
3892.966	-612.8
3895.55	-620.8
3898.132	-625.8
3900.713	-639.8
3903.291	-637.8
3905.868	-635.8
3908.442	-637.8
3911.015	-639.8
3913.586	-636.8
3916.155	-636.8
3918.722	-640.8
3921.287	-640.8
3923.85	-638.8
3926.411	-639.8
3928.971	-643.8
3931.528	-640.8
3934.084	-631.8
3936.638	-637.8
3939.19	-640.8
3941.74	-641.8
3944.288	-640.8
3946.834	-643.8
3949.378	-638.8
3951.921	-638.8
3954.462	-641.8
3957	-636.8
3959.537	-635.8
3962.072	-627.8
3964.606	-634.8
3967.137	-638.8
3969.667	-638.8
3972.194	-637.8
3974.72	-632.8
3977.244	-627.8
3979.766	-632.8
3982.286	-630.8
3984.805	-626.8
3987.321	-626.8
3989.836	-628.8
3992.349	-625.8
3994.86	-620.8
3997.369	-638.8
3999.877	-625.8
4002.382	-624.8
4004.886	-626.8
4007.388	-624.8
4009.888	-623.8
4012.386	-622.8
4014.883	-620.8
4017.377	-621.8
4019.87	-619.8
4022.361	-620.8
4024.85	-628.8
4027.338	-628.8
4029.823	-627.8
4032.307	-633.8
4034.789	-633.8
4037.269	-638.8
4039.747	-633.8
4042.224	-625.8
4044.699	-634.8
4047.172	-631.8
4049.643	-633.8
4052.112	-636.8
4054.58	-622.8
4057.046	-635.8
4059.51	-630.8
4061.972	-633.8
4064.432	-623.8
4066.891	-626.8
4069.348	-633.8
4071.803	-627.8
4074.256	-630.8
4076.708	-622.8
4079.158	-633.8
4081.606	-630.8
4084.052	-621.8
4086.497	-632.8
4088.939	-627.8
4091.38	-622.8
4093.819	-625.8
4096.257	-659.8
4098.693	-666.8
4101.127	-664.8
4103.559	-664.8
4105.989	-387.8
4108.418	-370.8
4110.845	-367.8
4113.27	-340.8
4115.694	-289.8
4118.115	-236.8
4120.535	-632.8
4122.954	-633.8
4125.37	-632.8
4127.785	-630.8
4130.198	-633.8
4132.609	-625.8
4135.019	-664.8
4137.427	-663.8
4139.833	-661.8
4142.237	-660.8
