Data from B_sub_water_1000CFU1_RamanShift_1.txt Node
Date: Thu Feb 23 11:56:43 IST 2017
User: aro
Spectrometer: QEPB0276
Trigger mode: 0
Integration Time (sec): 5.000000E0
Scans to average: 1
Electric dark correction enabled: true
Nonlinearity correction enabled: false
Boxcar width: 0
XAxis mode: Raman Shifts
Number of Pixels in Spectrum: 1044
>>>>>Begin Spectral Data<<<<<
160.701	-34.38
166.742	-2.38
172.777	98.62
178.805	390.62
184.826	1095.62
190.841	2320.62
196.849	3646.62
202.85	4508.62
208.845	4733.62
214.833	4560.62
220.815	4366.62
226.789	4251.62
232.758	4092.62
238.719	3997.62
244.674	3832.62
250.623	3660.62
256.565	3471.62
262.5	3294.62
268.429	3139.62
274.351	3008.62
280.267	2862.62
286.176	2757.62
292.079	2647.62
297.975	2557.62
303.865	2493.62
309.748	2426.62
315.625	2355.62
321.495	2303.62
327.359	2266.62
333.217	2245.62
339.068	2223.62
344.912	2211.62
350.751	2209.62
356.583	2198.62
362.408	2199.62
368.227	2201.62
374.04	2191.62
379.847	2205.62
385.647	2228.62
391.44	2233.62
397.228	2226.62
403.009	2248.62
408.784	2259.62
414.553	2278.62
420.315	2264.62
426.071	2274.62
431.821	2275.62
437.565	2274.62
443.302	2262.62
449.033	2251.62
454.758	2248.62
460.477	2220.62
466.189	2208.62
471.896	2213.62
477.596	2175.62
483.29	2183.62
488.978	2163.62
494.66	2143.62
500.335	2125.62
506.005	2068.62
511.668	2010.62
517.325	1981.62
522.977	1942.62
528.622	1903.62
534.261	1880.62
539.894	1862.62
545.521	1853.62
551.141	1840.62
556.756	1817.62
562.365	1800.62
567.968	1798.62
573.565	1784.62
579.155	1749.62
584.74	1747.62
590.319	1722.62
595.892	1719.62
601.459	1676.62
607.02	1693.62
612.575	1679.62
618.124	1643.62
623.667	1624.62
629.204	1617.62
634.735	1608.62
640.261	1581.62
645.781	1576.62
651.294	1572.62
656.802	1550.62
662.304	1547.62
667.8	1530.62
673.29	1530.62
678.775	1515.62
684.254	1517.62
689.726	1495.62
695.193	1499.62
700.655	1467.62
706.11	1456.62
711.56	1443.62
717.004	1423.62
722.442	1421.62
727.874	1432.62
733.301	1402.62
738.722	1405.62
744.137	1388.62
749.547	1380.62
754.951	1382.62
760.349	1367.62
765.741	1368.62
771.128	1376.62
776.509	1365.62
781.885	1353.62
787.254	1371.62
792.618	1343.62
797.977	1354.62
803.33	1323.62
808.677	1309.62
814.019	1306.62
819.355	1273.62
824.686	1248.62
830.011	1239.62
835.33	1241.62
840.644	1235.62
845.952	1208.62
851.255	1191.62
856.552	1186.62
861.844	1183.62
867.13	1181.62
872.41	1166.62
877.686	1147.62
882.955	1132.62
888.219	1097.62
893.478	1086.62
898.731	1061.62
903.979	1048.62
909.221	1017.62
914.458	1015.62
919.69	1007.62
924.916	1012.62
930.136	1005.62
935.351	1005.62
940.561	974.62
945.766	979.62
950.965	977.62
956.158	967.62
961.347	953.62
966.529	929.62
971.707	936.62
976.879	906.62
982.046	898.62
987.208	895.62
992.364	880.62
997.515	892.62
1002.66	893.62
1007.801	892.62
1012.936	892.62
1018.066	924.62
1023.19	918.62
1028.309	919.62
1033.423	914.62
1038.532	906.62
1043.636	903.62
1048.734	890.62
1053.827	880.62
1058.915	875.62
1063.998	882.62
1069.075	863.62
1074.147	863.62
1079.214	868.62
1084.276	867.62
1089.333	873.62
1094.385	871.62
1099.431	888.62
1104.472	894.62
1109.509	880.62
1114.54	860.62
1119.565	867.62
1124.586	844.62
1129.602	842.62
1134.613	821.62
1139.618	817.62
1144.619	829.62
1149.614	826.62
1154.604	830.62
1159.589	845.62
1164.57	834.62
1169.545	835.62
1174.515	831.62
1179.48	820.62
1184.44	823.62
1189.395	813.62
1194.345	813.62
1199.29	801.62
1204.23	818.62
1209.165	822.62
1214.095	816.62
1219.021	827.62
1223.941	836.62
1228.856	840.62
1233.766	843.62
1238.672	842.62
1243.572	831.62
1248.467	828.62
1253.358	824.62
1258.244	812.62
1263.124	786.62
1268	779.62
1272.871	777.62
1277.737	779.62
1282.599	759.62
1287.455	763.62
1292.306	765.62
1297.153	777.62
1301.995	785.62
1306.832	783.62
1311.664	767.62
1316.491	783.62
1321.314	773.62
1326.132	769.62
1330.945	751.62
1335.753	730.62
1340.556	710.62
1345.354	707.62
1350.148	698.62
1354.937	683.62
1359.722	683.62
1364.501	695.62
1369.276	713.62
1374.046	713.62
1378.811	710.62
1383.572	721.62
1388.327	709.62
1393.079	708.62
1397.825	699.62
1402.567	687.62
1407.304	676.62
1412.036	674.62
1416.764	667.62
1421.487	668.62
1426.205	663.62
1430.919	671.62
1435.628	665.62
1440.333	673.62
1445.032	676.62
1449.727	686.62
1454.418	679.62
1459.104	685.62
1463.785	680.62
1468.462	665.62
1473.134	667.62
1477.802	656.62
1482.465	644.62
1487.123	636.62
1491.777	655.62
1496.426	668.62
1501.071	668.62
1505.711	685.62
1510.347	687.62
1514.978	705.62
1519.604	715.62
1524.226	724.62
1528.844	744.62
1533.457	734.62
1538.065	735.62
1542.669	739.62
1547.269	729.62
1551.864	747.62
1556.454	750.62
1561.041	754.62
1565.622	768.62
1570.199	778.62
1574.772	803.62
1579.34	819.62
1583.904	838.62
1588.464	847.62
1593.019	875.62
1597.569	883.62
1602.115	884.62
1606.657	904.62
1611.195	920.62
1615.728	948.62
1620.256	980.62
1624.78	988.62
1629.3	1007.62
1633.816	1029.62
1638.327	1047.62
1642.834	1044.62
1647.336	1055.62
1651.834	1062.62
1656.328	1054.62
1660.817	1047.62
1665.302	1011.62
1669.783	993.62
1674.259	945.62
1678.732	920.62
1683.199	858.62
1687.663	817.62
1692.122	785.62
1696.577	755.62
1701.028	722.62
1705.474	716.62
1709.917	687.62
1714.355	667.62
1718.788	638.62
1723.218	608.62
1727.643	581.62
1732.064	562.62
1736.481	541.62
1740.893	529.62
1745.301	511.62
1749.705	476.62
1754.105	456.62
1758.501	450.62
1762.893	431.62
1767.28	421.62
1771.663	408.62
1776.042	400.62
1780.417	393.62
1784.787	397.62
1789.154	400.62
1793.516	404.62
1797.874	409.62
1802.228	399.62
1806.578	402.62
1810.924	401.62
1815.266	391.62
1819.603	384.62
1823.937	381.62
1828.266	373.62
1832.591	362.62
1836.913	352.62
1841.23	354.62
1845.543	354.62
1849.852	353.62
1854.156	353.62
1858.457	349.62
1862.754	346.62
1867.047	342.62
1871.335	352.62
1875.62	356.62
1879.9	352.62
1884.177	337.62
1888.449	344.62
1892.718	334.62
1896.982	342.62
1901.243	344.62
1905.499	342.62
1909.752	338.62
1914	344.62
1918.245	344.62
1922.485	342.62
1926.722	354.62
1930.954	348.62
1935.183	359.62
1939.408	361.62
1943.628	363.62
1947.845	362.62
1952.058	367.62
1956.267	363.62
1960.472	362.62
1964.673	359.62
1968.87	352.62
1973.063	351.62
1977.252	346.62
1981.438	357.62
1985.619	355.62
1989.797	351.62
1993.971	343.62
1998.14	347.62
2002.306	357.62
2006.469	346.62
2010.627	349.62
2014.781	357.62
2018.932	355.62
2023.078	356.62
2027.221	358.62
2031.36	348.62
2035.495	341.62
2039.627	346.62
2043.754	349.62
2047.878	347.62
2051.998	339.62
2056.114	343.62
2060.226	343.62
2064.334	346.62
2068.439	348.62
2072.54	367.62
2076.637	359.62
2080.73	370.62
2084.82	367.62
2088.906	376.62
2092.988	366.62
2097.066	362.62
2101.14	365.62
2105.211	362.62
2109.278	369.62
2113.342	371.62
2117.401	362.62
2121.457	348.62
2125.509	355.62
2129.558	349.62
2133.602	345.62
2137.643	352.62
2141.681	347.62
2145.714	351.62
2149.744	338.62
2153.77	335.62
2157.793	337.62
2161.812	326.62
2165.827	323.62
2169.838	315.62
2173.846	313.62
2177.851	306.62
2181.851	305.62
2185.848	283.62
2189.841	294.62
2193.831	285.62
2197.817	287.62
2201.799	282.62
2205.778	280.62
2209.753	273.62
2213.725	272.62
2217.693	275.62
2221.657	275.62
2225.618	264.62
2229.575	265.62
2233.529	260.62
2237.479	265.62
2241.425	256.62
2245.368	254.62
2249.307	254.62
2253.243	240.62
2257.175	242.62
2261.104	237.62
2265.029	220.62
2268.95	214.62
2272.868	217.62
2276.783	213.62
2280.694	215.62
2284.601	208.62
2288.505	207.62
2292.405	203.62
2296.302	194.62
2300.195	200.62
2304.085	196.62
2307.971	187.62
2311.854	179.62
2315.734	176.62
2319.609	181.62
2323.482	169.62
2327.351	163.62
2331.216	162.62
2335.078	165.62
2338.937	159.62
2342.792	164.62
2346.643	155.62
2350.492	150.62
2354.336	162.62
2358.178	152.62
2362.015	152.62
2365.85	154.62
2369.681	150.62
2373.508	150.62
2377.333	144.62
2381.153	148.62
2384.971	159.62
2388.785	148.62
2392.595	140.62
2396.402	147.62
2400.206	151.62
2404.007	143.62
2407.804	139.62
2411.597	135.62
2415.388	129.62
2419.174	131.62
2422.958	129.62
2426.738	134.62
2430.515	131.62
2434.289	130.62
2438.059	128.62
2441.825	132.62
2445.589	127.62
2449.349	123.62
2453.106	120.62
2456.859	123.62
2460.61	117.62
2464.356	118.62
2468.1	107.62
2471.84	108.62
2475.577	112.62
2479.311	111.62
2483.041	113.62
2486.768	111.62
2490.492	112.62
2494.213	112.62
2497.93	107.62
2501.644	112.62
2505.355	112.62
2509.062	107.62
2512.766	107.62
2516.467	107.62
2520.165	106.62
2523.859	102.62
2527.551	102.62
2531.239	105.62
2534.923	106.62
2538.605	101.62
2542.283	102.62
2545.958	102.62
2549.63	104.62
2553.299	93.62
2556.964	96.62
2560.626	97.62
2564.285	90.62
2567.941	94.62
2571.594	92.62
2575.243	90.62
2578.89	84.62
2582.533	84.62
2586.173	91.62
2589.809	91.62
2593.443	94.62
2597.073	89.62
2600.701	87.62
2604.325	84.62
2607.946	80.62
2611.564	83.62
2615.178	83.62
2618.79	79.62
2622.398	84.62
2626.004	85.62
2629.606	77.62
2633.205	80.62
2636.801	81.62
2640.394	77.62
2643.983	77.62
2647.57	74.62
2651.153	74.62
2654.734	69.62
2658.311	64.62
2661.885	58.62
2665.456	68.62
2669.025	67.62
2672.589	64.62
2676.151	63.62
2679.71	60.62
2683.266	69.62
2686.819	59.62
2690.368	63.62
2693.915	54.62
2697.458	56.62
2700.999	56.62
2704.536	55.62
2708.071	56.62
2711.602	52.62
2715.13	56.62
2718.656	53.62
2722.178	63.62
2725.697	56.62
2729.214	54.62
2732.727	55.62
2736.237	63.62
2739.744	59.62
2743.249	56.62
2746.75	54.62
2750.248	65.62
2753.743	66.62
2757.236	65.62
2760.725	68.62
2764.211	67.62
2767.695	67.62
2771.175	64.62
2774.652	66.62
2778.127	66.62
2781.598	69.62
2785.067	69.62
2788.532	72.62
2791.995	76.62
2795.455	69.62
2798.911	74.62
2802.365	79.62
2805.816	71.62
2809.264	80.62
2812.709	74.62
2816.151	78.62
2819.59	81.62
2823.026	82.62
2826.46	79.62
2829.89	79.62
2833.318	87.62
2836.742	89.62
2840.164	93.62
2843.583	94.62
2846.999	94.62
2850.412	99.62
2853.822	100.62
2857.229	99.62
2860.634	107.62
2864.035	110.62
2867.434	115.62
2870.83	115.62
2874.223	118.62
2877.613	120.62
2881	130.62
2884.385	118.62
2887.766	124.62
2891.145	129.62
2894.521	134.62
2897.894	135.62
2901.264	140.62
2904.631	149.62
2907.996	145.62
2911.358	152.62
2914.717	153.62
2918.073	151.62
2921.426	154.62
2924.777	166.62
2928.124	177.62
2931.469	178.62
2934.811	179.62
2938.15	183.62
2941.487	195.62
2944.821	203.62
2948.152	205.62
2951.48	213.62
2954.805	215.62
2958.128	211.62
2961.447	220.62
2964.765	225.62
2968.079	238.62
2971.39	246.62
2974.699	253.62
2978.005	266.62
2981.308	282.62
2984.609	292.62
2987.907	310.62
2991.202	316.62
2994.494	334.62
2997.784	333.62
3001.07	347.62
3004.355	354.62
3007.636	368.62
3010.915	394.62
3014.191	399.62
3017.464	411.62
3020.734	415.62
3024.002	423.62
3027.267	427.62
3030.53	445.62
3033.789	440.62
3037.046	456.62
3040.301	468.62
3043.552	490.62
3046.801	493.62
3050.048	523.62
3053.291	536.62
3056.532	555.62
3059.771	583.62
3063.006	589.62
3066.239	613.62
3069.469	636.62
3072.697	657.62
3075.922	667.62
3079.144	701.62
3082.364	715.62
3085.581	726.62
3088.795	742.62
3092.007	768.62
3095.216	794.62
3098.423	804.62
3101.627	832.62
3104.828	856.62
3108.026	877.62
3111.222	893.62
3114.416	918.62
3117.607	939.62
3120.795	956.62
3123.98	995.62
3127.163	1012.62
3130.344	1041.62
3133.521	1079.62
3136.696	1072.62
3139.869	1099.62
3143.039	1111.62
3146.206	1148.62
3149.371	1166.62
3152.533	1186.62
3155.693	1177.62
3158.85	1191.62
3162.005	1207.62
3165.157	1200.62
3168.306	1211.62
3171.453	1207.62
3174.597	1230.62
3177.739	1228.62
3180.878	1229.62
3184.014	1240.62
3187.149	1239.62
3190.28	1250.62
3193.409	1239.62
3196.536	1244.62
3199.659	1253.62
3202.781	1256.62
3205.9	1262.62
3209.016	1265.62
3212.13	1270.62
3215.241	1258.62
3218.35	1259.62
3221.456	1238.62
3224.56	1231.62
3227.661	1230.62
3230.76	1223.62
3233.856	1205.62
3236.95	1188.62
3240.041	1180.62
3243.13	1174.62
3246.216	1165.62
3249.3	1162.62
3252.382	1168.62
3255.46	1168.62
3258.537	1156.62
3261.611	1147.62
3264.682	1145.62
3267.751	1144.62
3270.818	1141.62
3273.882	1134.62
3276.943	1132.62
3280.002	1111.62
3283.059	1108.62
3286.113	1107.62
3289.165	1083.62
3292.214	1061.62
3295.261	1050.62
3298.306	1031.62
3301.348	1026.62
3304.387	992.62
3307.425	995.62
3310.459	971.62
3313.492	963.62
3316.521	943.62
3319.549	938.62
3322.574	938.62
3325.597	931.62
3328.617	911.62
3331.635	914.62
3334.65	906.62
3337.663	906.62
3340.674	909.62
3343.682	895.62
3346.688	884.62
3349.691	889.62
3352.692	888.62
3355.691	874.62
3358.687	883.62
3361.681	875.62
3364.673	861.62
3367.662	856.62
3370.649	835.62
3373.633	830.62
3376.615	818.62
3379.595	799.62
3382.572	799.62
3385.547	781.62
3388.52	772.62
3391.49	753.62
3394.458	747.62
3397.424	742.62
3400.387	722.62
3403.348	733.62
3406.307	725.62
3409.263	721.62
3412.217	712.62
3415.168	699.62
3418.118	689.62
3421.065	686.62
3424.009	686.62
3426.951	657.62
3429.891	647.62
3432.829	639.62
3435.764	626.62
3438.697	622.62
3441.628	602.62
3444.557	594.62
3447.483	578.62
3450.407	569.62
3453.328	539.62
3456.247	524.62
3459.164	505.62
3462.079	497.62
3464.991	481.62
3467.902	471.62
3470.809	456.62
3473.715	439.62
3476.618	430.62
3479.519	413.62
3482.418	411.62
3485.315	393.62
3488.209	386.62
3491.101	367.62
3493.99	364.62
3496.878	359.62
3499.763	332.62
3502.646	342.62
3505.527	326.62
3508.405	321.62
3511.281	302.62
3514.155	294.62
3517.027	279.62
3519.897	259.62
3522.764	251.62
3525.629	240.62
3528.492	229.62
3531.352	210.62
3534.211	205.62
3537.067	193.62
3539.921	186.62
3542.773	168.62
3545.622	164.62
3548.469	153.62
3551.315	143.62
3554.157	134.62
3556.998	128.62
3559.837	129.62
3562.673	119.62
3565.507	102.62
3568.339	103.62
3571.169	97.62
3573.996	90.62
3576.822	86.62
3579.645	76.62
3582.466	67.62
3585.285	65.62
3588.101	57.62
3590.916	49.62
3593.728	48.62
3596.538	39.62
3599.346	44.62
3602.152	32.62
3604.956	25.62
3607.757	19.62
3610.556	14.62
3613.354	7.62
3616.149	7.62
3618.942	-0.38
3621.732	-7.38
3624.521	-4.38
3627.307	-6.38
3630.092	-7.38
3632.874	-9.38
3635.654	-8.38
3638.432	-17.38
3641.208	-20.38
3643.982	-25.38
3646.753	-30.38
3649.523	-35.38
3652.29	-35.38
3655.055	-41.38
3657.818	-44.38
3660.579	-42.38
3663.338	-46.38
3666.095	-47.38
3668.849	-56.38
3671.602	-53.38
3674.352	-57.38
3677.101	-59.38
3679.847	-61.38
3682.591	-64.38
3685.333	-69.38
3688.073	-71.38
3690.811	-72.38
3693.547	-70.38
3696.281	-73.38
3699.013	-76.38
3701.742	-71.38
3704.47	-76.38
3707.195	-75.38
3709.919	-69.38
3712.64	-78.38
3715.359	-83.38
3718.076	-82.38
3720.792	-80.38
3723.505	-86.38
3726.216	-89.38
3728.925	-81.38
3731.632	-90.38
3734.336	-89.38
3737.039	-86.38
3739.74	-89.38
3742.439	-93.38
3745.136	-88.38
3747.83	-90.38
3750.523	-89.38
3753.213	-90.38
3755.902	-93.38
3758.589	-94.38
3761.273	-96.38
3763.956	-95.38
3766.636	-94.38
3769.315	-99.38
3771.991	-100.38
3774.665	-99.38
3777.338	-98.38
3780.008	-97.38
3782.677	-94.38
3785.343	-96.38
3788.007	-94.38
3790.67	-102.38
3793.33	-98.38
3795.989	-100.38
3798.645	-106.38
3801.299	-104.38
3803.952	-100.38
3806.602	-101.38
3809.251	-100.38
3811.897	-102.38
3814.542	-103.38
3817.184	-101.38
3819.825	-100.38
3822.463	-102.38
3825.1	-99.38
3827.735	-103.38
3830.367	-101.38
3832.998	-108.38
3835.627	-103.38
3838.253	-104.38
3840.878	-104.38
3843.501	-100.38
3846.122	-103.38
3848.741	-100.38
3851.358	-103.38
3853.973	-102.38
3856.586	-105.38
3859.197	-108.38
3861.806	-106.38
3864.414	-111.38
3867.019	-110.38
3869.622	-104.38
3872.224	-101.38
3874.823	-106.38
3877.421	-100.38
3880.016	-96.38
3882.61	-92.38
3885.202	-89.38
3887.792	-100.38
3890.38	-102.38
3892.966	-104.38
3895.55	-104.38
3898.132	-108.38
3900.713	-110.38
3903.291	-108.38
3905.868	-107.38
3908.442	-103.38
3911.015	-104.38
3913.586	-106.38
3916.155	-109.38
3918.722	-102.38
3921.287	-110.38
3923.85	-104.38
3926.411	-105.38
3928.971	-108.38
3931.528	-110.38
3934.084	-110.38
3936.638	-111.38
3939.19	-106.38
3941.74	-108.38
3944.288	-107.38
3946.834	-109.38
3949.378	-106.38
3951.921	-109.38
3954.462	-106.38
3957	-110.38
3959.537	-111.38
3962.072	-107.38
3964.606	-108.38
3967.137	-108.38
3969.667	-109.38
3972.194	-109.38
3974.72	-104.38
3977.244	-108.38
3979.766	-106.38
3982.286	-108.38
3984.805	-105.38
3987.321	-106.38
3989.836	-106.38
3992.349	-100.38
3994.86	-104.38
3997.369	-104.38
3999.877	-107.38
4002.382	-105.38
4004.886	-102.38
4007.388	-105.38
4009.888	-107.38
4012.386	-102.38
4014.883	-106.38
4017.377	-105.38
4019.87	-107.38
4022.361	-108.38
4024.85	-106.38
4027.338	-108.38
4029.823	-106.38
4032.307	-108.38
4034.789	-109.38
4037.269	-109.38
4039.747	-107.38
4042.224	-107.38
4044.699	-109.38
4047.172	-105.38
4049.643	-106.38
4052.112	-107.38
4054.58	-107.38
4057.046	-109.38
4059.51	-111.38
4061.972	-113.38
4064.432	-105.38
4066.891	-106.38
4069.348	-104.38
4071.803	-108.38
4074.256	-106.38
4076.708	-105.38
4079.158	-107.38
4081.606	-107.38
4084.052	-110.38
4086.497	-111.38
4088.939	-111.38
4091.38	-110.38
4093.819	-110.38
4096.257	-113.38
4098.693	-111.38
4101.127	-111.38
4103.559	-109.38
4105.989	-70.38
4108.418	-67.38
4110.845	-59.38
4113.27	-59.38
4115.694	-52.38
4118.115	-45.38
4120.535	-109.38
4122.954	-107.38
4125.37	-107.38
4127.785	-106.38
4130.198	-107.38
4132.609	-106.38
4135.019	-111.38
4137.427	-113.38
4139.833	-113.38
4142.237	-114.38
