Data from B_sub_water_1000CFU3_RamanShift_1.txt Node
Date: Thu Feb 23 11:58:48 IST 2017
User: aro
Spectrometer: QEPB0276
Trigger mode: 0
Integration Time (sec): 5.000000E0
Scans to average: 1
Electric dark correction enabled: true
Nonlinearity correction enabled: false
Boxcar width: 0
XAxis mode: Raman Shifts
Number of Pixels in Spectrum: 1044
>>>>>Begin Spectral Data<<<<<
160.701	-28.75
166.742	-3.75
172.777	86.25
178.805	345.25
184.826	985.25
190.841	2029.25
196.849	3232.25
202.85	4017.25
208.845	4191.25
214.833	4061.25
220.815	3855.25
226.789	3750.25
232.758	3602.25
238.719	3487.25
244.674	3341.25
250.623	3168.25
256.565	3019.25
262.5	2885.25
268.429	2727.25
274.351	2615.25
280.267	2485.25
286.176	2409.25
292.079	2309.25
297.975	2232.25
303.865	2137.25
309.748	2097.25
315.625	2019.25
321.495	2003.25
327.359	1981.25
333.217	1957.25
339.068	1929.25
344.912	1899.25
350.751	1896.25
356.583	1884.25
362.408	1914.25
368.227	1898.25
374.04	1896.25
379.847	1912.25
385.647	1932.25
391.44	1947.25
397.228	1952.25
403.009	1960.25
408.784	1953.25
414.553	1966.25
420.315	1993.25
426.071	1979.25
431.821	1966.25
437.565	1959.25
443.302	1961.25
449.033	1950.25
454.758	1941.25
460.477	1915.25
466.189	1907.25
471.896	1905.25
477.596	1891.25
483.29	1874.25
488.978	1856.25
494.66	1863.25
500.335	1813.25
506.005	1795.25
511.668	1763.25
517.325	1708.25
522.977	1681.25
528.622	1641.25
534.261	1652.25
539.894	1611.25
545.521	1588.25
551.141	1583.25
556.756	1562.25
562.365	1553.25
567.968	1543.25
573.565	1530.25
579.155	1512.25
584.74	1512.25
590.319	1492.25
595.892	1468.25
601.459	1446.25
607.02	1464.25
612.575	1451.25
618.124	1419.25
623.667	1411.25
629.204	1395.25
634.735	1386.25
640.261	1362.25
645.781	1355.25
651.294	1339.25
656.802	1334.25
662.304	1331.25
667.8	1310.25
673.29	1306.25
678.775	1306.25
684.254	1282.25
689.726	1299.25
695.193	1284.25
700.655	1271.25
706.11	1256.25
711.56	1247.25
717.004	1239.25
722.442	1217.25
727.874	1225.25
733.301	1209.25
738.722	1199.25
744.137	1187.25
749.547	1179.25
754.951	1177.25
760.349	1181.25
765.741	1157.25
771.128	1178.25
776.509	1176.25
781.885	1159.25
787.254	1170.25
792.618	1153.25
797.977	1144.25
803.33	1136.25
808.677	1109.25
814.019	1103.25
819.355	1076.25
824.686	1073.25
830.011	1071.25
835.33	1048.25
840.644	1042.25
845.952	1027.25
851.255	1026.25
856.552	1017.25
861.844	1004.25
867.13	1003.25
872.41	993.25
877.686	974.25
882.955	956.25
888.219	927.25
893.478	914.25
898.731	904.25
903.979	883.25
909.221	871.25
914.458	870.25
919.69	855.25
924.916	849.25
930.136	846.25
935.351	833.25
940.561	848.25
945.766	839.25
950.965	820.25
956.158	814.25
961.347	810.25
966.529	794.25
971.707	773.25
976.879	773.25
982.046	757.25
987.208	754.25
992.364	740.25
997.515	753.25
1002.66	751.25
1007.801	750.25
1012.936	755.25
1018.066	746.25
1023.19	763.25
1028.309	775.25
1033.423	761.25
1038.532	760.25
1043.636	758.25
1048.734	754.25
1053.827	746.25
1058.915	723.25
1063.998	734.25
1069.075	715.25
1074.147	725.25
1079.214	724.25
1084.276	731.25
1089.333	735.25
1094.385	745.25
1099.431	734.25
1104.472	755.25
1109.509	731.25
1114.54	722.25
1119.565	720.25
1124.586	704.25
1129.602	700.25
1134.613	687.25
1139.618	685.25
1144.619	692.25
1149.614	699.25
1154.604	689.25
1159.589	703.25
1164.57	708.25
1169.545	696.25
1174.515	708.25
1179.48	689.25
1184.44	691.25
1189.395	689.25
1194.345	684.25
1199.29	679.25
1204.23	673.25
1209.165	691.25
1214.095	687.25
1219.021	687.25
1223.941	694.25
1228.856	703.25
1233.766	704.25
1238.672	704.25
1243.572	694.25
1248.467	679.25
1253.358	673.25
1258.244	667.25
1263.124	659.25
1268	654.25
1272.871	639.25
1277.737	637.25
1282.599	633.25
1287.455	638.25
1292.306	632.25
1297.153	638.25
1301.995	643.25
1306.832	650.25
1311.664	648.25
1316.491	653.25
1321.314	644.25
1326.132	633.25
1330.945	626.25
1335.753	608.25
1340.556	595.25
1345.354	593.25
1350.148	587.25
1354.937	571.25
1359.722	572.25
1364.501	587.25
1369.276	595.25
1374.046	606.25
1378.811	610.25
1383.572	603.25
1388.327	599.25
1393.079	603.25
1397.825	584.25
1402.567	571.25
1407.304	569.25
1412.036	553.25
1416.764	557.25
1421.487	556.25
1426.205	550.25
1430.919	553.25
1435.628	548.25
1440.333	564.25
1445.032	559.25
1449.727	569.25
1454.418	562.25
1459.104	564.25
1463.785	570.25
1468.462	558.25
1473.134	558.25
1477.802	548.25
1482.465	553.25
1487.123	550.25
1491.777	548.25
1496.426	561.25
1501.071	566.25
1505.711	580.25
1510.347	583.25
1514.978	592.25
1519.604	609.25
1524.226	619.25
1528.844	619.25
1533.457	623.25
1538.065	626.25
1542.669	627.25
1547.269	617.25
1551.864	628.25
1556.454	629.25
1561.041	634.25
1565.622	647.25
1570.199	677.25
1574.772	681.25
1579.34	686.25
1583.904	697.25
1588.464	737.25
1593.019	740.25
1597.569	759.25
1602.115	765.25
1606.657	784.25
1611.195	787.25
1615.728	813.25
1620.256	823.25
1624.78	846.25
1629.3	861.25
1633.816	879.25
1638.327	881.25
1642.834	902.25
1647.336	907.25
1651.834	912.25
1656.328	905.25
1660.817	890.25
1665.302	888.25
1669.783	860.25
1674.259	837.25
1678.732	787.25
1683.199	750.25
1687.663	726.25
1692.122	666.25
1696.577	653.25
1701.028	632.25
1705.474	611.25
1709.917	601.25
1714.355	572.25
1718.788	544.25
1723.218	513.25
1727.643	490.25
1732.064	473.25
1736.481	452.25
1740.893	445.25
1745.301	420.25
1749.705	402.25
1754.105	384.25
1758.501	371.25
1762.893	359.25
1767.28	341.25
1771.663	339.25
1776.042	324.25
1780.417	325.25
1784.787	332.25
1789.154	325.25
1793.516	329.25
1797.874	344.25
1802.228	344.25
1806.578	332.25
1810.924	337.25
1815.266	328.25
1819.603	324.25
1823.937	301.25
1828.266	294.25
1832.591	291.25
1836.913	288.25
1841.23	286.25
1845.543	284.25
1849.852	283.25
1854.156	286.25
1858.457	297.25
1862.754	293.25
1867.047	287.25
1871.335	283.25
1875.62	280.25
1879.9	282.25
1884.177	278.25
1888.449	274.25
1892.718	282.25
1896.982	280.25
1901.243	280.25
1905.499	282.25
1909.752	284.25
1914	279.25
1918.245	284.25
1922.485	291.25
1926.722	294.25
1930.954	286.25
1935.183	297.25
1939.408	300.25
1943.628	304.25
1947.845	300.25
1952.058	304.25
1956.267	307.25
1960.472	303.25
1964.673	298.25
1968.87	289.25
1973.063	298.25
1977.252	294.25
1981.438	288.25
1985.619	297.25
1989.797	294.25
1993.971	279.25
1998.14	295.25
2002.306	299.25
2006.469	286.25
2010.627	297.25
2014.781	293.25
2018.932	290.25
2023.078	291.25
2027.221	294.25
2031.36	288.25
2035.495	286.25
2039.627	288.25
2043.754	288.25
2047.878	281.25
2051.998	287.25
2056.114	287.25
2060.226	284.25
2064.334	300.25
2068.439	294.25
2072.54	303.25
2076.637	304.25
2080.73	308.25
2084.82	310.25
2088.906	306.25
2092.988	311.25
2097.066	312.25
2101.14	311.25
2105.211	308.25
2109.278	316.25
2113.342	305.25
2117.401	303.25
2121.457	299.25
2125.509	301.25
2129.558	305.25
2133.602	299.25
2137.643	295.25
2141.681	295.25
2145.714	287.25
2149.744	282.25
2153.77	285.25
2157.793	280.25
2161.812	270.25
2165.827	271.25
2169.838	269.25
2173.846	261.25
2177.851	254.25
2181.851	252.25
2185.848	244.25
2189.841	244.25
2193.831	250.25
2197.817	239.25
2201.799	239.25
2205.778	226.25
2209.753	230.25
2213.725	228.25
2217.693	229.25
2221.657	220.25
2225.618	219.25
2229.575	221.25
2233.529	218.25
2237.479	216.25
2241.425	206.25
2245.368	212.25
2249.307	203.25
2253.243	206.25
2257.175	200.25
2261.104	188.25
2265.029	185.25
2268.95	180.25
2272.868	188.25
2276.783	173.25
2280.694	172.25
2284.601	172.25
2288.505	163.25
2292.405	168.25
2296.302	164.25
2300.195	162.25
2304.085	154.25
2307.971	153.25
2311.854	151.25
2315.734	140.25
2319.609	136.25
2323.482	136.25
2327.351	131.25
2331.216	126.25
2335.078	126.25
2338.937	124.25
2342.792	133.25
2346.643	127.25
2350.492	128.25
2354.336	134.25
2358.178	124.25
2362.015	127.25
2365.85	120.25
2369.681	120.25
2373.508	116.25
2377.333	120.25
2381.153	115.25
2384.971	120.25
2388.785	118.25
2392.595	115.25
2396.402	115.25
2400.206	111.25
2404.007	111.25
2407.804	113.25
2411.597	109.25
2415.388	108.25
2419.174	100.25
2422.958	101.25
2426.738	100.25
2430.515	102.25
2434.289	97.25
2438.059	100.25
2441.825	97.25
2445.589	92.25
2449.349	97.25
2453.106	94.25
2456.859	89.25
2460.61	90.25
2464.356	90.25
2468.1	86.25
2471.84	85.25
2475.577	79.25
2479.311	80.25
2483.041	84.25
2486.768	83.25
2490.492	89.25
2494.213	80.25
2497.93	78.25
2501.644	82.25
2505.355	74.25
2509.062	83.25
2512.766	82.25
2516.467	85.25
2520.165	79.25
2523.859	76.25
2527.551	81.25
2531.239	75.25
2534.923	80.25
2538.605	73.25
2542.283	76.25
2545.958	82.25
2549.63	78.25
2553.299	80.25
2556.964	74.25
2560.626	75.25
2564.285	65.25
2567.941	73.25
2571.594	68.25
2575.243	65.25
2578.89	58.25
2582.533	62.25
2586.173	69.25
2589.809	69.25
2593.443	69.25
2597.073	65.25
2600.701	70.25
2604.325	59.25
2607.946	63.25
2611.564	61.25
2615.178	64.25
2618.79	60.25
2622.398	60.25
2626.004	56.25
2629.606	59.25
2633.205	54.25
2636.801	56.25
2640.394	56.25
2643.983	63.25
2647.57	56.25
2651.153	58.25
2654.734	54.25
2658.311	45.25
2661.885	48.25
2665.456	45.25
2669.025	46.25
2672.589	49.25
2676.151	48.25
2679.71	44.25
2683.266	40.25
2686.819	48.25
2690.368	44.25
2693.915	49.25
2697.458	38.25
2700.999	32.25
2704.536	36.25
2708.071	38.25
2711.602	35.25
2715.13	38.25
2718.656	40.25
2722.178	37.25
2725.697	40.25
2729.214	36.25
2732.727	37.25
2736.237	38.25
2739.744	42.25
2743.249	45.25
2746.75	45.25
2750.248	44.25
2753.743	46.25
2757.236	45.25
2760.725	48.25
2764.211	53.25
2767.695	56.25
2771.175	51.25
2774.652	50.25
2778.127	52.25
2781.598	51.25
2785.067	47.25
2788.532	57.25
2791.995	58.25
2795.455	54.25
2798.911	61.25
2802.365	49.25
2805.816	57.25
2809.264	61.25
2812.709	59.25
2816.151	62.25
2819.59	59.25
2823.026	67.25
2826.46	67.25
2829.89	70.25
2833.318	65.25
2836.742	72.25
2840.164	74.25
2843.583	73.25
2846.999	71.25
2850.412	76.25
2853.822	88.25
2857.229	79.25
2860.634	84.25
2864.035	93.25
2867.434	97.25
2870.83	99.25
2874.223	103.25
2877.613	106.25
2881	109.25
2884.385	108.25
2887.766	113.25
2891.145	106.25
2894.521	111.25
2897.894	108.25
2901.264	123.25
2904.631	121.25
2907.996	118.25
2911.358	127.25
2914.717	132.25
2918.073	132.25
2921.426	132.25
2924.777	135.25
2928.124	144.25
2931.469	148.25
2934.811	153.25
2938.15	155.25
2941.487	166.25
2944.821	182.25
2948.152	186.25
2951.48	180.25
2954.805	190.25
2958.128	186.25
2961.447	198.25
2964.765	192.25
2968.079	210.25
2971.39	207.25
2974.699	231.25
2978.005	234.25
2981.308	251.25
2984.609	258.25
2987.907	270.25
2991.202	282.25
2994.494	296.25
2997.784	303.25
3001.07	320.25
3004.355	325.25
3007.636	337.25
3010.915	339.25
3014.191	357.25
3017.464	369.25
3020.734	381.25
3024.002	382.25
3027.267	386.25
3030.53	398.25
3033.789	402.25
3037.046	420.25
3040.301	426.25
3043.552	444.25
3046.801	449.25
3050.048	460.25
3053.291	483.25
3056.532	495.25
3059.771	512.25
3063.006	531.25
3066.239	553.25
3069.469	562.25
3072.697	588.25
3075.922	610.25
3079.144	613.25
3082.364	640.25
3085.581	656.25
3088.795	676.25
3092.007	699.25
3095.216	699.25
3098.423	732.25
3101.627	734.25
3104.828	760.25
3108.026	783.25
3111.222	805.25
3114.416	820.25
3117.607	847.25
3120.795	851.25
3123.98	892.25
3127.163	902.25
3130.344	932.25
3133.521	957.25
3136.696	973.25
3139.869	994.25
3143.039	1010.25
3146.206	1046.25
3149.371	1044.25
3152.533	1051.25
3155.693	1066.25
3158.85	1072.25
3162.005	1081.25
3165.157	1091.25
3168.306	1098.25
3171.453	1091.25
3174.597	1123.25
3177.739	1115.25
3180.878	1108.25
3184.014	1121.25
3187.149	1126.25
3190.28	1130.25
3193.409	1130.25
3196.536	1135.25
3199.659	1149.25
3202.781	1144.25
3205.9	1144.25
3209.016	1154.25
3212.13	1146.25
3215.241	1141.25
3218.35	1130.25
3221.456	1137.25
3224.56	1111.25
3227.661	1123.25
3230.76	1114.25
3233.856	1099.25
3236.95	1093.25
3240.041	1080.25
3243.13	1082.25
3246.216	1075.25
3249.3	1063.25
3252.382	1079.25
3255.46	1071.25
3258.537	1060.25
3261.611	1063.25
3264.682	1053.25
3267.751	1046.25
3270.818	1044.25
3273.882	1044.25
3276.943	1043.25
3280.002	1038.25
3283.059	1029.25
3286.113	1000.25
3289.165	991.25
3292.214	975.25
3295.261	967.25
3298.306	940.25
3301.348	934.25
3304.387	911.25
3307.425	890.25
3310.459	905.25
3313.492	877.25
3316.521	880.25
3319.549	861.25
3322.574	852.25
3325.597	846.25
3328.617	839.25
3331.635	828.25
3334.65	814.25
3337.663	815.25
3340.674	819.25
3343.682	819.25
3346.688	804.25
3349.691	808.25
3352.692	810.25
3355.691	795.25
3358.687	786.25
3361.681	789.25
3364.673	779.25
3367.662	760.25
3370.649	758.25
3373.633	749.25
3376.615	746.25
3379.595	735.25
3382.572	721.25
3385.547	702.25
3388.52	697.25
3391.49	695.25
3394.458	682.25
3397.424	673.25
3400.387	671.25
3403.348	661.25
3406.307	651.25
3409.263	652.25
3412.217	648.25
3415.168	634.25
3418.118	626.25
3421.065	627.25
3424.009	607.25
3426.951	603.25
3429.891	587.25
3432.829	581.25
3435.764	574.25
3438.697	550.25
3441.628	553.25
3444.557	540.25
3447.483	523.25
3450.407	519.25
3453.328	516.25
3456.247	492.25
3459.164	472.25
3462.079	453.25
3464.991	435.25
3467.902	427.25
3470.809	421.25
3473.715	409.25
3476.618	402.25
3479.519	388.25
3482.418	375.25
3485.315	372.25
3488.209	362.25
3491.101	343.25
3493.99	335.25
3496.878	325.25
3499.763	316.25
3502.646	308.25
3505.527	305.25
3508.405	291.25
3511.281	281.25
3514.155	264.25
3517.027	252.25
3519.897	249.25
3522.764	236.25
3525.629	223.25
3528.492	204.25
3531.352	198.25
3534.211	187.25
3537.067	182.25
3539.921	166.25
3542.773	161.25
3545.622	152.25
3548.469	136.25
3551.315	126.25
3554.157	131.25
3556.998	123.25
3559.837	115.25
3562.673	109.25
3565.507	93.25
3568.339	98.25
3571.169	93.25
3573.996	91.25
3576.822	88.25
3579.645	68.25
3582.466	67.25
3585.285	59.25
3588.101	53.25
3590.916	47.25
3593.728	46.25
3596.538	38.25
3599.346	32.25
3602.152	36.25
3604.956	30.25
3607.757	22.25
3610.556	13.25
3613.354	16.25
3616.149	9.25
3618.942	0.25
3621.732	1.25
3624.521	0.25
3627.307	-4.75
3630.092	-8.75
3632.874	-7.75
3635.654	-10.75
3638.432	-11.75
3641.208	-12.75
3643.982	-22.75
3646.753	-25.75
3649.523	-23.75
3652.29	-25.75
3655.055	-35.75
3657.818	-34.75
3660.579	-37.75
3663.338	-37.75
3666.095	-40.75
3668.849	-43.75
3671.602	-48.75
3674.352	-47.75
3677.101	-47.75
3679.847	-52.75
3682.591	-57.75
3685.333	-62.75
3688.073	-56.75
3690.811	-60.75
3693.547	-61.75
3696.281	-69.75
3699.013	-64.75
3701.742	-68.75
3704.47	-67.75
3707.195	-63.75
3709.919	-67.75
3712.64	-71.75
3715.359	-68.75
3718.076	-73.75
3720.792	-71.75
3723.505	-75.75
3726.216	-80.75
3728.925	-70.75
3731.632	-77.75
3734.336	-80.75
3737.039	-82.75
3739.74	-83.75
3742.439	-89.75
3745.136	-81.75
3747.83	-81.75
3750.523	-81.75
3753.213	-82.75
3755.902	-81.75
3758.589	-77.75
3761.273	-84.75
3763.956	-79.75
3766.636	-84.75
3769.315	-88.75
3771.991	-87.75
3774.665	-89.75
3777.338	-86.75
3780.008	-89.75
3782.677	-87.75
3785.343	-85.75
3788.007	-82.75
3790.67	-86.75
3793.33	-87.75
3795.989	-89.75
3798.645	-92.75
3801.299	-90.75
3803.952	-88.75
3806.602	-88.75
3809.251	-89.75
3811.897	-92.75
3814.542	-89.75
3817.184	-91.75
3819.825	-85.75
3822.463	-90.75
3825.1	-87.75
3827.735	-92.75
3830.367	-88.75
3832.998	-95.75
3835.627	-90.75
3838.253	-93.75
3840.878	-93.75
3843.501	-92.75
3846.122	-98.75
3848.741	-92.75
3851.358	-92.75
3853.973	-89.75
3856.586	-87.75
3859.197	-93.75
3861.806	-93.75
3864.414	-96.75
3867.019	-96.75
3869.622	-91.75
3872.224	-91.75
3874.823	-93.75
3877.421	-90.75
3880.016	-85.75
3882.61	-83.75
3885.202	-80.75
3887.792	-84.75
3890.38	-89.75
3892.966	-89.75
3895.55	-93.75
3898.132	-95.75
3900.713	-94.75
3903.291	-93.75
3905.868	-93.75
3908.442	-96.75
3911.015	-96.75
3913.586	-97.75
3916.155	-97.75
3918.722	-91.75
3921.287	-97.75
3923.85	-94.75
3926.411	-95.75
3928.971	-96.75
3931.528	-97.75
3934.084	-95.75
3936.638	-96.75
3939.19	-92.75
3941.74	-98.75
3944.288	-95.75
3946.834	-99.75
3949.378	-96.75
3951.921	-101.75
3954.462	-95.75
3957	-99.75
3959.537	-96.75
3962.072	-92.75
3964.606	-96.75
3967.137	-92.75
3969.667	-97.75
3972.194	-94.75
3974.72	-93.75
3977.244	-101.75
3979.766	-96.75
3982.286	-98.75
3984.805	-93.75
3987.321	-91.75
3989.836	-94.75
3992.349	-92.75
3994.86	-88.75
3997.369	-90.75
3999.877	-92.75
4002.382	-95.75
4004.886	-89.75
4007.388	-95.75
4009.888	-96.75
4012.386	-96.75
4014.883	-94.75
4017.377	-93.75
4019.87	-93.75
4022.361	-96.75
4024.85	-93.75
4027.338	-94.75
4029.823	-91.75
4032.307	-97.75
4034.789	-96.75
4037.269	-95.75
4039.747	-95.75
4042.224	-99.75
4044.699	-97.75
4047.172	-95.75
4049.643	-92.75
4052.112	-91.75
4054.58	-94.75
4057.046	-96.75
4059.51	-97.75
4061.972	-101.75
4064.432	-94.75
4066.891	-98.75
4069.348	-97.75
4071.803	-98.75
4074.256	-94.75
4076.708	-91.75
4079.158	-96.75
4081.606	-95.75
4084.052	-97.75
4086.497	-96.75
4088.939	-95.75
4091.38	-97.75
4093.819	-96.75
4096.257	-99.75
4098.693	-99.75
4101.127	-95.75
4103.559	-94.75
4105.989	-59.75
4108.418	-55.75
4110.845	-57.75
4113.27	-53.75
4115.694	-44.75
4118.115	-41.75
4120.535	-96.75
4122.954	-95.75
4125.37	-98.75
4127.785	-93.75
4130.198	-97.75
4132.609	-93.75
4135.019	-97.75
4137.427	-100.75
4139.833	-99.75
4142.237	-100.75
