Data from B_sub_water_100000CFU_B3_RamanShift_1.txt Node
Date: Thu Feb 23 12:22:48 IST 2017
User: aro
Spectrometer: QEPB0276
Trigger mode: 0
Integration Time (sec): 5.000000E0
Scans to average: 1
Electric dark correction enabled: true
Nonlinearity correction enabled: false
Boxcar width: 0
XAxis mode: Raman Shifts
Number of Pixels in Spectrum: 1044
>>>>>Begin Spectral Data<<<<<
160.701	-30.38
166.742	-1.38
172.777	87.62
178.805	363.62
184.826	1016.62
190.841	2126.62
196.849	3351.62
202.85	4204.62
208.845	4389.62
214.833	4219.62
220.815	4020.62
226.789	3917.62
232.758	3786.62
238.719	3656.62
244.674	3510.62
250.623	3327.62
256.565	3156.62
262.5	2993.62
268.429	2819.62
274.351	2710.62
280.267	2598.62
286.176	2479.62
292.079	2405.62
297.975	2295.62
303.865	2220.62
309.748	2167.62
315.625	2114.62
321.495	2049.62
327.359	2019.62
333.217	1996.62
339.068	1976.62
344.912	1965.62
350.751	1969.62
356.583	1950.62
362.408	1963.62
368.227	1985.62
374.04	1980.62
379.847	1968.62
385.647	1971.62
391.44	1985.62
397.228	1995.62
403.009	2019.62
408.784	2012.62
414.553	2018.62
420.315	2030.62
426.071	2026.62
431.821	2031.62
437.565	2021.62
443.302	2018.62
449.033	2018.62
454.758	2002.62
460.477	1979.62
466.189	1974.62
471.896	1939.62
477.596	1947.62
483.29	1933.62
488.978	1928.62
494.66	1892.62
500.335	1881.62
506.005	1832.62
511.668	1789.62
517.325	1762.62
522.977	1737.62
528.622	1685.62
534.261	1659.62
539.894	1639.62
545.521	1618.62
551.141	1614.62
556.756	1584.62
562.365	1592.62
567.968	1575.62
573.565	1556.62
579.155	1536.62
584.74	1531.62
590.319	1521.62
595.892	1495.62
601.459	1499.62
607.02	1474.62
612.575	1463.62
618.124	1454.62
623.667	1434.62
629.204	1411.62
634.735	1391.62
640.261	1369.62
645.781	1374.62
651.294	1360.62
656.802	1344.62
662.304	1344.62
667.8	1342.62
673.29	1326.62
678.775	1329.62
684.254	1312.62
689.726	1296.62
695.193	1293.62
700.655	1283.62
706.11	1281.62
711.56	1252.62
717.004	1240.62
722.442	1218.62
727.874	1229.62
733.301	1211.62
738.722	1203.62
744.137	1197.62
749.547	1189.62
754.951	1193.62
760.349	1183.62
765.741	1191.62
771.128	1182.62
776.509	1172.62
781.885	1155.62
787.254	1160.62
792.618	1150.62
797.977	1139.62
803.33	1129.62
808.677	1112.62
814.019	1099.62
819.355	1097.62
824.686	1070.62
830.011	1059.62
835.33	1048.62
840.644	1045.62
845.952	1025.62
851.255	1019.62
856.552	1009.62
861.844	997.62
867.13	982.62
872.41	966.62
877.686	954.62
882.955	927.62
888.219	912.62
893.478	900.62
898.731	888.62
903.979	873.62
909.221	854.62
914.458	847.62
919.69	829.62
924.916	834.62
930.136	833.62
935.351	816.62
940.561	792.62
945.766	816.62
950.965	800.62
956.158	799.62
961.347	769.62
966.529	762.62
971.707	752.62
976.879	738.62
982.046	732.62
987.208	726.62
992.364	724.62
997.515	726.62
1002.66	723.62
1007.801	728.62
1012.936	721.62
1018.066	731.62
1023.19	738.62
1028.309	746.62
1033.423	742.62
1038.532	736.62
1043.636	730.62
1048.734	723.62
1053.827	703.62
1058.915	697.62
1063.998	702.62
1069.075	692.62
1074.147	687.62
1079.214	692.62
1084.276	697.62
1089.333	698.62
1094.385	709.62
1099.431	710.62
1104.472	708.62
1109.509	710.62
1114.54	693.62
1119.565	675.62
1124.586	669.62
1129.602	674.62
1134.613	654.62
1139.618	659.62
1144.619	647.62
1149.614	655.62
1154.604	643.62
1159.589	664.62
1164.57	677.62
1169.545	667.62
1174.515	666.62
1179.48	656.62
1184.44	650.62
1189.395	643.62
1194.345	650.62
1199.29	641.62
1204.23	639.62
1209.165	646.62
1214.095	641.62
1219.021	654.62
1223.941	667.62
1228.856	669.62
1233.766	664.62
1238.672	660.62
1243.572	667.62
1248.467	654.62
1253.358	640.62
1258.244	637.62
1263.124	621.62
1268	618.62
1272.871	604.62
1277.737	612.62
1282.599	605.62
1287.455	583.62
1292.306	604.62
1297.153	603.62
1301.995	604.62
1306.832	609.62
1311.664	607.62
1316.491	609.62
1321.314	606.62
1326.132	605.62
1330.945	582.62
1335.753	560.62
1340.556	556.62
1345.354	542.62
1350.148	532.62
1354.937	543.62
1359.722	536.62
1364.501	541.62
1369.276	548.62
1374.046	569.62
1378.811	563.62
1383.572	565.62
1388.327	574.62
1393.079	549.62
1397.825	547.62
1402.567	535.62
1407.304	522.62
1412.036	522.62
1416.764	509.62
1421.487	522.62
1426.205	527.62
1430.919	518.62
1435.628	528.62
1440.333	523.62
1445.032	519.62
1449.727	514.62
1454.418	526.62
1459.104	519.62
1463.785	520.62
1468.462	503.62
1473.134	507.62
1477.802	508.62
1482.465	510.62
1487.123	500.62
1491.777	502.62
1496.426	518.62
1501.071	528.62
1505.711	535.62
1510.347	537.62
1514.978	559.62
1519.604	564.62
1524.226	575.62
1528.844	579.62
1533.457	584.62
1538.065	581.62
1542.669	581.62
1547.269	576.62
1551.864	581.62
1556.454	596.62
1561.041	611.62
1565.622	615.62
1570.199	627.62
1574.772	629.62
1579.34	666.62
1583.904	677.62
1588.464	679.62
1593.019	706.62
1597.569	726.62
1602.115	743.62
1606.657	755.62
1611.195	764.62
1615.728	791.62
1620.256	810.62
1624.78	821.62
1629.3	833.62
1633.816	871.62
1638.327	870.62
1642.834	884.62
1647.336	880.62
1651.834	899.62
1656.328	891.62
1660.817	868.62
1665.302	867.62
1669.783	834.62
1674.259	808.62
1678.732	765.62
1683.199	714.62
1687.663	675.62
1692.122	646.62
1696.577	615.62
1701.028	577.62
1705.474	569.62
1709.917	569.62
1714.355	540.62
1718.788	513.62
1723.218	482.62
1727.643	454.62
1732.064	433.62
1736.481	412.62
1740.893	389.62
1745.301	381.62
1749.705	361.62
1754.105	345.62
1758.501	325.62
1762.893	314.62
1767.28	299.62
1771.663	291.62
1776.042	283.62
1780.417	273.62
1784.787	284.62
1789.154	282.62
1793.516	294.62
1797.874	286.62
1802.228	284.62
1806.578	292.62
1810.924	283.62
1815.266	285.62
1819.603	275.62
1823.937	256.62
1828.266	251.62
1832.591	240.62
1836.913	236.62
1841.23	240.62
1845.543	240.62
1849.852	235.62
1854.156	236.62
1858.457	233.62
1862.754	238.62
1867.047	234.62
1871.335	235.62
1875.62	232.62
1879.9	241.62
1884.177	232.62
1888.449	230.62
1892.718	229.62
1896.982	232.62
1901.243	229.62
1905.499	232.62
1909.752	224.62
1914	228.62
1918.245	236.62
1922.485	227.62
1926.722	237.62
1930.954	233.62
1935.183	250.62
1939.408	264.62
1943.628	260.62
1947.845	264.62
1952.058	262.62
1956.267	252.62
1960.472	255.62
1964.673	252.62
1968.87	244.62
1973.063	244.62
1977.252	237.62
1981.438	247.62
1985.619	247.62
1989.797	242.62
1993.971	243.62
1998.14	246.62
2002.306	248.62
2006.469	247.62
2010.627	247.62
2014.781	255.62
2018.932	250.62
2023.078	248.62
2027.221	249.62
2031.36	244.62
2035.495	248.62
2039.627	246.62
2043.754	242.62
2047.878	242.62
2051.998	245.62
2056.114	240.62
2060.226	247.62
2064.334	260.62
2068.439	261.62
2072.54	269.62
2076.637	256.62
2080.73	278.62
2084.82	270.62
2088.906	276.62
2092.988	269.62
2097.066	261.62
2101.14	261.62
2105.211	263.62
2109.278	274.62
2113.342	271.62
2117.401	272.62
2121.457	271.62
2125.509	262.62
2129.558	258.62
2133.602	265.62
2137.643	252.62
2141.681	256.62
2145.714	253.62
2149.744	246.62
2153.77	243.62
2157.793	243.62
2161.812	243.62
2165.827	237.62
2169.838	240.62
2173.846	220.62
2177.851	221.62
2181.851	223.62
2185.848	202.62
2189.841	208.62
2193.831	191.62
2197.817	202.62
2201.799	190.62
2205.778	190.62
2209.753	185.62
2213.725	193.62
2217.693	185.62
2221.657	189.62
2225.618	184.62
2229.575	187.62
2233.529	178.62
2237.479	179.62
2241.425	170.62
2245.368	171.62
2249.307	170.62
2253.243	166.62
2257.175	161.62
2261.104	152.62
2265.029	150.62
2268.95	139.62
2272.868	142.62
2276.783	137.62
2280.694	137.62
2284.601	131.62
2288.505	130.62
2292.405	126.62
2296.302	131.62
2300.195	125.62
2304.085	119.62
2307.971	116.62
2311.854	115.62
2315.734	106.62
2319.609	109.62
2323.482	103.62
2327.351	99.62
2331.216	100.62
2335.078	94.62
2338.937	99.62
2342.792	97.62
2346.643	92.62
2350.492	89.62
2354.336	91.62
2358.178	85.62
2362.015	78.62
2365.85	91.62
2369.681	91.62
2373.508	78.62
2377.333	85.62
2381.153	76.62
2384.971	86.62
2388.785	84.62
2392.595	78.62
2396.402	78.62
2400.206	77.62
2404.007	77.62
2407.804	77.62
2411.597	78.62
2415.388	65.62
2419.174	71.62
2422.958	68.62
2426.738	65.62
2430.515	70.62
2434.289	68.62
2438.059	62.62
2441.825	66.62
2445.589	63.62
2449.349	60.62
2453.106	62.62
2456.859	56.62
2460.61	56.62
2464.356	61.62
2468.1	57.62
2471.84	56.62
2475.577	51.62
2479.311	56.62
2483.041	53.62
2486.768	49.62
2490.492	53.62
2494.213	43.62
2497.93	47.62
2501.644	47.62
2505.355	55.62
2509.062	51.62
2512.766	47.62
2516.467	49.62
2520.165	46.62
2523.859	50.62
2527.551	47.62
2531.239	45.62
2534.923	40.62
2538.605	42.62
2542.283	39.62
2545.958	47.62
2549.63	50.62
2553.299	47.62
2556.964	42.62
2560.626	45.62
2564.285	41.62
2567.941	42.62
2571.594	40.62
2575.243	36.62
2578.89	35.62
2582.533	34.62
2586.173	36.62
2589.809	30.62
2593.443	39.62
2597.073	29.62
2600.701	38.62
2604.325	31.62
2607.946	34.62
2611.564	31.62
2615.178	33.62
2618.79	28.62
2622.398	30.62
2626.004	30.62
2629.606	27.62
2633.205	26.62
2636.801	24.62
2640.394	29.62
2643.983	26.62
2647.57	24.62
2651.153	26.62
2654.734	22.62
2658.311	20.62
2661.885	25.62
2665.456	20.62
2669.025	18.62
2672.589	13.62
2676.151	21.62
2679.71	19.62
2683.266	14.62
2686.819	19.62
2690.368	15.62
2693.915	15.62
2697.458	11.62
2700.999	12.62
2704.536	16.62
2708.071	17.62
2711.602	12.62
2715.13	14.62
2718.656	14.62
2722.178	10.62
2725.697	11.62
2729.214	12.62
2732.727	7.62
2736.237	11.62
2739.744	19.62
2743.249	20.62
2746.75	17.62
2750.248	24.62
2753.743	23.62
2757.236	21.62
2760.725	26.62
2764.211	28.62
2767.695	28.62
2771.175	26.62
2774.652	28.62
2778.127	33.62
2781.598	30.62
2785.067	29.62
2788.532	38.62
2791.995	37.62
2795.455	36.62
2798.911	44.62
2802.365	43.62
2805.816	39.62
2809.264	38.62
2812.709	35.62
2816.151	40.62
2819.59	41.62
2823.026	41.62
2826.46	39.62
2829.89	49.62
2833.318	48.62
2836.742	52.62
2840.164	53.62
2843.583	58.62
2846.999	63.62
2850.412	62.62
2853.822	66.62
2857.229	64.62
2860.634	68.62
2864.035	67.62
2867.434	79.62
2870.83	77.62
2874.223	84.62
2877.613	89.62
2881	90.62
2884.385	86.62
2887.766	91.62
2891.145	93.62
2894.521	94.62
2897.894	102.62
2901.264	111.62
2904.631	104.62
2907.996	106.62
2911.358	110.62
2914.717	120.62
2918.073	115.62
2921.426	123.62
2924.777	129.62
2928.124	136.62
2931.469	144.62
2934.811	151.62
2938.15	152.62
2941.487	166.62
2944.821	166.62
2948.152	175.62
2951.48	176.62
2954.805	177.62
2958.128	176.62
2961.447	192.62
2964.765	195.62
2968.079	205.62
2971.39	214.62
2974.699	222.62
2978.005	232.62
2981.308	250.62
2984.609	257.62
2987.907	272.62
2991.202	286.62
2994.494	290.62
2997.784	300.62
3001.07	326.62
3004.355	322.62
3007.636	341.62
3010.915	360.62
3014.191	368.62
3017.464	372.62
3020.734	384.62
3024.002	396.62
3027.267	391.62
3030.53	404.62
3033.789	414.62
3037.046	422.62
3040.301	436.62
3043.552	444.62
3046.801	465.62
3050.048	487.62
3053.291	505.62
3056.532	522.62
3059.771	529.62
3063.006	548.62
3066.239	577.62
3069.469	581.62
3072.697	611.62
3075.922	623.62
3079.144	643.62
3082.364	676.62
3085.581	691.62
3088.795	702.62
3092.007	725.62
3095.216	736.62
3098.423	762.62
3101.627	787.62
3104.828	792.62
3108.026	823.62
3111.222	839.62
3114.416	869.62
3117.607	897.62
3120.795	906.62
3123.98	929.62
3127.163	958.62
3130.344	974.62
3133.521	996.62
3136.696	1016.62
3139.869	1034.62
3143.039	1070.62
3146.206	1085.62
3149.371	1100.62
3152.533	1120.62
3155.693	1120.62
3158.85	1126.62
3162.005	1132.62
3165.157	1144.62
3168.306	1149.62
3171.453	1156.62
3174.597	1163.62
3177.739	1162.62
3180.878	1179.62
3184.014	1171.62
3187.149	1184.62
3190.28	1189.62
3193.409	1194.62
3196.536	1196.62
3199.659	1213.62
3202.781	1221.62
3205.9	1214.62
3209.016	1217.62
3212.13	1198.62
3215.241	1208.62
3218.35	1208.62
3221.456	1179.62
3224.56	1180.62
3227.661	1183.62
3230.76	1158.62
3233.856	1155.62
3236.95	1145.62
3240.041	1147.62
3243.13	1130.62
3246.216	1134.62
3249.3	1119.62
3252.382	1117.62
3255.46	1121.62
3258.537	1122.62
3261.611	1116.62
3264.682	1093.62
3267.751	1100.62
3270.818	1103.62
3273.882	1102.62
3276.943	1099.62
3280.002	1082.62
3283.059	1059.62
3286.113	1067.62
3289.165	1044.62
3292.214	1018.62
3295.261	1008.62
3298.306	988.62
3301.348	979.62
3304.387	956.62
3307.425	952.62
3310.459	929.62
3313.492	927.62
3316.521	923.62
3319.549	901.62
3322.574	896.62
3325.597	898.62
3328.617	879.62
3331.635	865.62
3334.65	861.62
3337.663	865.62
3340.674	868.62
3343.682	861.62
3346.688	848.62
3349.691	857.62
3352.692	847.62
3355.691	835.62
3358.687	830.62
3361.681	818.62
3364.673	819.62
3367.662	810.62
3370.649	795.62
3373.633	786.62
3376.615	774.62
3379.595	775.62
3382.572	754.62
3385.547	746.62
3388.52	744.62
3391.49	725.62
3394.458	709.62
3397.424	704.62
3400.387	708.62
3403.348	696.62
3406.307	697.62
3409.263	688.62
3412.217	675.62
3415.168	678.62
3418.118	659.62
3421.065	668.62
3424.009	660.62
3426.951	639.62
3429.891	630.62
3432.829	614.62
3435.764	599.62
3438.697	586.62
3441.628	577.62
3444.557	566.62
3447.483	553.62
3450.407	557.62
3453.328	519.62
3456.247	507.62
3459.164	504.62
3462.079	476.62
3464.991	466.62
3467.902	456.62
3470.809	449.62
3473.715	433.62
3476.618	422.62
3479.519	409.62
3482.418	397.62
3485.315	390.62
3488.209	376.62
3491.101	366.62
3493.99	351.62
3496.878	334.62
3499.763	329.62
3502.646	324.62
3505.527	310.62
3508.405	312.62
3511.281	290.62
3514.155	282.62
3517.027	270.62
3519.897	258.62
3522.764	247.62
3525.629	229.62
3528.492	215.62
3531.352	208.62
3534.211	197.62
3537.067	183.62
3539.921	183.62
3542.773	166.62
3545.622	161.62
3548.469	149.62
3551.315	140.62
3554.157	134.62
3556.998	124.62
3559.837	121.62
3562.673	114.62
3565.507	108.62
3568.339	102.62
3571.169	97.62
3573.996	94.62
3576.822	89.62
3579.645	77.62
3582.466	69.62
3585.285	66.62
3588.101	57.62
3590.916	53.62
3593.728	49.62
3596.538	39.62
3599.346	34.62
3602.152	32.62
3604.956	27.62
3607.757	18.62
3610.556	17.62
3613.354	18.62
3616.149	9.62
3618.942	3.62
3621.732	1.62
3624.521	-6.38
3627.307	-5.38
3630.092	-9.38
3632.874	-9.38
3635.654	-12.38
3638.432	-17.38
3641.208	-16.38
3643.982	-21.38
3646.753	-27.38
3649.523	-29.38
3652.29	-27.38
3655.055	-32.38
3657.818	-36.38
3660.579	-37.38
3663.338	-43.38
3666.095	-41.38
3668.849	-46.38
3671.602	-53.38
3674.352	-52.38
3677.101	-55.38
3679.847	-59.38
3682.591	-65.38
3685.333	-65.38
3688.073	-63.38
3690.811	-67.38
3693.547	-66.38
3696.281	-67.38
3699.013	-71.38
3701.742	-66.38
3704.47	-70.38
3707.195	-67.38
3709.919	-70.38
3712.64	-75.38
3715.359	-78.38
3718.076	-78.38
3720.792	-78.38
3723.505	-81.38
3726.216	-82.38
3728.925	-76.38
3731.632	-78.38
3734.336	-79.38
3737.039	-81.38
3739.74	-81.38
3742.439	-91.38
3745.136	-84.38
3747.83	-85.38
3750.523	-88.38
3753.213	-90.38
3755.902	-89.38
3758.589	-83.38
3761.273	-90.38
3763.956	-85.38
3766.636	-89.38
3769.315	-89.38
3771.991	-91.38
3774.665	-93.38
3777.338	-88.38
3780.008	-91.38
3782.677	-88.38
3785.343	-89.38
3788.007	-91.38
3790.67	-93.38
3793.33	-92.38
3795.989	-96.38
3798.645	-98.38
3801.299	-91.38
3803.952	-91.38
3806.602	-90.38
3809.251	-92.38
3811.897	-93.38
3814.542	-94.38
3817.184	-91.38
3819.825	-92.38
3822.463	-92.38
3825.1	-95.38
3827.735	-93.38
3830.367	-93.38
3832.998	-101.38
3835.627	-97.38
3838.253	-96.38
3840.878	-98.38
3843.501	-95.38
3846.122	-94.38
3848.741	-92.38
3851.358	-94.38
3853.973	-96.38
3856.586	-96.38
3859.197	-100.38
3861.806	-99.38
3864.414	-100.38
3867.019	-102.38
3869.622	-99.38
3872.224	-95.38
3874.823	-97.38
3877.421	-92.38
3880.016	-85.38
3882.61	-84.38
3885.202	-85.38
3887.792	-90.38
3890.38	-93.38
3892.966	-97.38
3895.55	-99.38
3898.132	-100.38
3900.713	-101.38
3903.291	-100.38
3905.868	-98.38
3908.442	-99.38
3911.015	-97.38
3913.586	-99.38
3916.155	-97.38
3918.722	-95.38
3921.287	-100.38
3923.85	-99.38
3926.411	-98.38
3928.971	-99.38
3931.528	-100.38
3934.084	-103.38
3936.638	-103.38
3939.19	-98.38
3941.74	-100.38
3944.288	-99.38
3946.834	-101.38
3949.378	-97.38
3951.921	-100.38
3954.462	-100.38
3957	-101.38
3959.537	-99.38
3962.072	-98.38
3964.606	-102.38
3967.137	-101.38
3969.667	-100.38
3972.194	-101.38
3974.72	-99.38
3977.244	-101.38
3979.766	-95.38
3982.286	-99.38
3984.805	-97.38
3987.321	-96.38
3989.836	-101.38
3992.349	-93.38
3994.86	-96.38
3997.369	-96.38
3999.877	-97.38
4002.382	-99.38
4004.886	-97.38
4007.388	-100.38
4009.888	-98.38
4012.386	-97.38
4014.883	-99.38
4017.377	-101.38
4019.87	-97.38
4022.361	-97.38
4024.85	-94.38
4027.338	-99.38
4029.823	-101.38
4032.307	-102.38
4034.789	-103.38
4037.269	-100.38
4039.747	-103.38
4042.224	-100.38
4044.699	-103.38
4047.172	-96.38
4049.643	-99.38
4052.112	-97.38
4054.58	-98.38
4057.046	-99.38
4059.51	-103.38
4061.972	-104.38
4064.432	-99.38
4066.891	-101.38
4069.348	-98.38
4071.803	-97.38
4074.256	-98.38
4076.708	-99.38
4079.158	-99.38
4081.606	-100.38
4084.052	-100.38
4086.497	-100.38
4088.939	-102.38
4091.38	-101.38
4093.819	-102.38
4096.257	-104.38
4098.693	-101.38
4101.127	-102.38
4103.559	-98.38
4105.989	-61.38
4108.418	-59.38
4110.845	-54.38
4113.27	-54.38
4115.694	-43.38
4118.115	-40.38
4120.535	-103.38
4122.954	-102.38
4125.37	-101.38
4127.785	-98.38
4130.198	-97.38
4132.609	-97.38
4135.019	-105.38
4137.427	-104.38
4139.833	-103.38
4142.237	-106.38
