Data from B_sub_water_10000CFU_B2_RamanShift_1.txt Node
Date: Thu Feb 23 12:19:08 IST 2017
User: aro
Spectrometer: QEPB0276
Trigger mode: 0
Integration Time (sec): 5.000000E0
Scans to average: 1
Electric dark correction enabled: true
Nonlinearity correction enabled: false
Boxcar width: 0
XAxis mode: Raman Shifts
Number of Pixels in Spectrum: 1044
>>>>>Begin Spectral Data<<<<<
160.701	-24.38
166.742	0.62
172.777	70.62
178.805	299.62
184.826	833.62
190.841	1706.62
196.849	2691.62
202.85	3338.62
208.845	3501.62
214.833	3372.62
220.815	3268.62
226.789	3136.62
232.758	3095.62
238.719	2974.62
244.674	2851.62
250.623	2732.62
256.565	2621.62
262.5	2495.62
268.429	2372.62
274.351	2302.62
280.267	2188.62
286.176	2094.62
292.079	2054.62
297.975	1975.62
303.865	1905.62
309.748	1866.62
315.625	1818.62
321.495	1777.62
327.359	1754.62
333.217	1746.62
339.068	1732.62
344.912	1736.62
350.751	1711.62
356.583	1702.62
362.408	1719.62
368.227	1700.62
374.04	1727.62
379.847	1718.62
385.647	1716.62
391.44	1736.62
397.228	1743.62
403.009	1759.62
408.784	1765.62
414.553	1773.62
420.315	1767.62
426.071	1770.62
431.821	1755.62
437.565	1774.62
443.302	1774.62
449.033	1759.62
454.758	1768.62
460.477	1759.62
466.189	1731.62
471.896	1719.62
477.596	1711.62
483.29	1686.62
488.978	1697.62
494.66	1662.62
500.335	1647.62
506.005	1627.62
511.668	1566.62
517.325	1548.62
522.977	1523.62
528.622	1513.62
534.261	1483.62
539.894	1443.62
545.521	1446.62
551.141	1436.62
556.756	1433.62
562.365	1404.62
567.968	1411.62
573.565	1395.62
579.155	1397.62
584.74	1378.62
590.319	1355.62
595.892	1342.62
601.459	1357.62
607.02	1339.62
612.575	1320.62
618.124	1313.62
623.667	1293.62
629.204	1283.62
634.735	1269.62
640.261	1246.62
645.781	1254.62
651.294	1244.62
656.802	1230.62
662.304	1219.62
667.8	1225.62
673.29	1218.62
678.775	1213.62
684.254	1227.62
689.726	1192.62
695.193	1198.62
700.655	1189.62
706.11	1180.62
711.56	1163.62
717.004	1158.62
722.442	1136.62
727.874	1139.62
733.301	1125.62
738.722	1114.62
744.137	1127.62
749.547	1127.62
754.951	1111.62
760.349	1112.62
765.741	1092.62
771.128	1108.62
776.509	1100.62
781.885	1111.62
787.254	1100.62
792.618	1102.62
797.977	1079.62
803.33	1084.62
808.677	1055.62
814.019	1072.62
819.355	1051.62
824.686	1033.62
830.011	1022.62
835.33	1024.62
840.644	1017.62
845.952	995.62
851.255	1004.62
856.552	977.62
861.844	983.62
867.13	992.62
872.41	974.62
877.686	951.62
882.955	941.62
888.219	927.62
893.478	914.62
898.731	899.62
903.979	887.62
909.221	868.62
914.458	867.62
919.69	868.62
924.916	865.62
930.136	861.62
935.351	863.62
940.561	854.62
945.766	832.62
950.965	823.62
956.158	822.62
961.347	815.62
966.529	792.62
971.707	798.62
976.879	780.62
982.046	772.62
987.208	765.62
992.364	771.62
997.515	775.62
1002.66	783.62
1007.801	781.62
1012.936	792.62
1018.066	782.62
1023.19	790.62
1028.309	791.62
1033.423	796.62
1038.532	778.62
1043.636	790.62
1048.734	777.62
1053.827	764.62
1058.915	769.62
1063.998	755.62
1069.075	755.62
1074.147	752.62
1079.214	748.62
1084.276	763.62
1089.333	765.62
1094.385	757.62
1099.431	777.62
1104.472	768.62
1109.509	769.62
1114.54	750.62
1119.565	747.62
1124.586	740.62
1129.602	735.62
1134.613	715.62
1139.618	729.62
1144.619	717.62
1149.614	721.62
1154.604	726.62
1159.589	736.62
1164.57	729.62
1169.545	731.62
1174.515	735.62
1179.48	731.62
1184.44	726.62
1189.395	727.62
1194.345	722.62
1199.29	706.62
1204.23	714.62
1209.165	712.62
1214.095	719.62
1219.021	720.62
1223.941	735.62
1228.856	740.62
1233.766	726.62
1238.672	738.62
1243.572	722.62
1248.467	725.62
1253.358	731.62
1258.244	710.62
1263.124	702.62
1268	688.62
1272.871	686.62
1277.737	677.62
1282.599	681.62
1287.455	670.62
1292.306	682.62
1297.153	682.62
1301.995	669.62
1306.832	688.62
1311.664	691.62
1316.491	683.62
1321.314	690.62
1326.132	677.62
1330.945	651.62
1335.753	638.62
1340.556	628.62
1345.354	606.62
1350.148	598.62
1354.937	595.62
1359.722	602.62
1364.501	604.62
1369.276	621.62
1374.046	654.62
1378.811	664.62
1383.572	663.62
1388.327	665.62
1393.079	676.62
1397.825	642.62
1402.567	632.62
1407.304	608.62
1412.036	607.62
1416.764	600.62
1421.487	606.62
1426.205	596.62
1430.919	601.62
1435.628	602.62
1440.333	607.62
1445.032	609.62
1449.727	615.62
1454.418	614.62
1459.104	604.62
1463.785	591.62
1468.462	581.62
1473.134	587.62
1477.802	584.62
1482.465	582.62
1487.123	575.62
1491.777	580.62
1496.426	590.62
1501.071	603.62
1505.711	617.62
1510.347	641.62
1514.978	663.62
1519.604	664.62
1524.226	658.62
1528.844	680.62
1533.457	672.62
1538.065	682.62
1542.669	676.62
1547.269	673.62
1551.864	665.62
1556.454	675.62
1561.041	681.62
1565.622	688.62
1570.199	691.62
1574.772	697.62
1579.34	711.62
1583.904	737.62
1588.464	738.62
1593.019	750.62
1597.569	747.62
1602.115	767.62
1606.657	766.62
1611.195	768.62
1615.728	782.62
1620.256	802.62
1624.78	808.62
1629.3	820.62
1633.816	837.62
1638.327	849.62
1642.834	851.62
1647.336	861.62
1651.834	862.62
1656.328	865.62
1660.817	853.62
1665.302	847.62
1669.783	825.62
1674.259	794.62
1678.732	763.62
1683.199	727.62
1687.663	689.62
1692.122	668.62
1696.577	637.62
1701.028	636.62
1705.474	644.62
1709.917	650.62
1714.355	637.62
1718.788	619.62
1723.218	579.62
1727.643	563.62
1732.064	536.62
1736.481	513.62
1740.893	495.62
1745.301	466.62
1749.705	461.62
1754.105	432.62
1758.501	422.62
1762.893	409.62
1767.28	388.62
1771.663	379.62
1776.042	372.62
1780.417	364.62
1784.787	364.62
1789.154	366.62
1793.516	377.62
1797.874	399.62
1802.228	403.62
1806.578	416.62
1810.924	410.62
1815.266	408.62
1819.603	401.62
1823.937	379.62
1828.266	360.62
1832.591	365.62
1836.913	352.62
1841.23	345.62
1845.543	345.62
1849.852	343.62
1854.156	349.62
1858.457	345.62
1862.754	341.62
1867.047	344.62
1871.335	338.62
1875.62	336.62
1879.9	338.62
1884.177	326.62
1888.449	334.62
1892.718	336.62
1896.982	338.62
1901.243	331.62
1905.499	330.62
1909.752	329.62
1914	321.62
1918.245	335.62
1922.485	335.62
1926.722	359.62
1930.954	368.62
1935.183	363.62
1939.408	374.62
1943.628	367.62
1947.845	383.62
1952.058	379.62
1956.267	374.62
1960.472	361.62
1964.673	364.62
1968.87	355.62
1973.063	352.62
1977.252	349.62
1981.438	341.62
1985.619	351.62
1989.797	354.62
1993.971	344.62
1998.14	342.62
2002.306	333.62
2006.469	338.62
2010.627	343.62
2014.781	330.62
2018.932	338.62
2023.078	332.62
2027.221	340.62
2031.36	329.62
2035.495	324.62
2039.627	323.62
2043.754	323.62
2047.878	325.62
2051.998	327.62
2056.114	313.62
2060.226	329.62
2064.334	331.62
2068.439	334.62
2072.54	332.62
2076.637	337.62
2080.73	352.62
2084.82	346.62
2088.906	349.62
2092.988	347.62
2097.066	346.62
2101.14	362.62
2105.211	348.62
2109.278	343.62
2113.342	354.62
2117.401	346.62
2121.457	343.62
2125.509	340.62
2129.558	342.62
2133.602	342.62
2137.643	336.62
2141.681	333.62
2145.714	326.62
2149.744	326.62
2153.77	327.62
2157.793	320.62
2161.812	315.62
2165.827	304.62
2169.838	300.62
2173.846	293.62
2177.851	296.62
2181.851	290.62
2185.848	278.62
2189.841	281.62
2193.831	278.62
2197.817	270.62
2201.799	266.62
2205.778	275.62
2209.753	262.62
2213.725	258.62
2217.693	268.62
2221.657	261.62
2225.618	256.62
2229.575	259.62
2233.529	247.62
2237.479	255.62
2241.425	247.62
2245.368	246.62
2249.307	237.62
2253.243	237.62
2257.175	225.62
2261.104	224.62
2265.029	219.62
2268.95	215.62
2272.868	211.62
2276.783	212.62
2280.694	212.62
2284.601	208.62
2288.505	208.62
2292.405	204.62
2296.302	196.62
2300.195	203.62
2304.085	196.62
2307.971	190.62
2311.854	188.62
2315.734	178.62
2319.609	185.62
2323.482	169.62
2327.351	170.62
2331.216	176.62
2335.078	166.62
2338.937	162.62
2342.792	163.62
2346.643	158.62
2350.492	164.62
2354.336	162.62
2358.178	159.62
2362.015	162.62
2365.85	166.62
2369.681	154.62
2373.508	157.62
2377.333	161.62
2381.153	158.62
2384.971	157.62
2388.785	154.62
2392.595	159.62
2396.402	153.62
2400.206	154.62
2404.007	145.62
2407.804	147.62
2411.597	143.62
2415.388	152.62
2419.174	143.62
2422.958	134.62
2426.738	141.62
2430.515	138.62
2434.289	135.62
2438.059	141.62
2441.825	136.62
2445.589	133.62
2449.349	131.62
2453.106	129.62
2456.859	131.62
2460.61	126.62
2464.356	125.62
2468.1	119.62
2471.84	119.62
2475.577	119.62
2479.311	115.62
2483.041	120.62
2486.768	119.62
2490.492	121.62
2494.213	108.62
2497.93	121.62
2501.644	114.62
2505.355	118.62
2509.062	110.62
2512.766	114.62
2516.467	117.62
2520.165	120.62
2523.859	120.62
2527.551	114.62
2531.239	109.62
2534.923	110.62
2538.605	110.62
2542.283	113.62
2545.958	112.62
2549.63	107.62
2553.299	117.62
2556.964	112.62
2560.626	113.62
2564.285	112.62
2567.941	112.62
2571.594	105.62
2575.243	109.62
2578.89	101.62
2582.533	104.62
2586.173	109.62
2589.809	106.62
2593.443	108.62
2597.073	101.62
2600.701	107.62
2604.325	109.62
2607.946	95.62
2611.564	94.62
2615.178	98.62
2618.79	96.62
2622.398	99.62
2626.004	100.62
2629.606	88.62
2633.205	92.62
2636.801	90.62
2640.394	87.62
2643.983	89.62
2647.57	89.62
2651.153	90.62
2654.734	79.62
2658.311	84.62
2661.885	79.62
2665.456	81.62
2669.025	76.62
2672.589	76.62
2676.151	70.62
2679.71	83.62
2683.266	73.62
2686.819	71.62
2690.368	70.62
2693.915	67.62
2697.458	65.62
2700.999	64.62
2704.536	66.62
2708.071	62.62
2711.602	63.62
2715.13	64.62
2718.656	61.62
2722.178	57.62
2725.697	60.62
2729.214	60.62
2732.727	53.62
2736.237	56.62
2739.744	57.62
2743.249	59.62
2746.75	56.62
2750.248	73.62
2753.743	69.62
2757.236	74.62
2760.725	79.62
2764.211	80.62
2767.695	81.62
2771.175	74.62
2774.652	80.62
2778.127	77.62
2781.598	74.62
2785.067	74.62
2788.532	74.62
2791.995	77.62
2795.455	77.62
2798.911	87.62
2802.365	78.62
2805.816	78.62
2809.264	79.62
2812.709	82.62
2816.151	88.62
2819.59	81.62
2823.026	76.62
2826.46	82.62
2829.89	85.62
2833.318	83.62
2836.742	85.62
2840.164	92.62
2843.583	93.62
2846.999	92.62
2850.412	91.62
2853.822	103.62
2857.229	93.62
2860.634	99.62
2864.035	102.62
2867.434	106.62
2870.83	109.62
2874.223	107.62
2877.613	108.62
2881	110.62
2884.385	111.62
2887.766	112.62
2891.145	112.62
2894.521	101.62
2897.894	115.62
2901.264	129.62
2904.631	119.62
2907.996	123.62
2911.358	127.62
2914.717	125.62
2918.073	132.62
2921.426	129.62
2924.777	122.62
2928.124	135.62
2931.469	138.62
2934.811	147.62
2938.15	149.62
2941.487	155.62
2944.821	163.62
2948.152	158.62
2951.48	163.62
2954.805	177.62
2958.128	167.62
2961.447	174.62
2964.765	173.62
2968.079	174.62
2971.39	184.62
2974.699	205.62
2978.005	204.62
2981.308	218.62
2984.609	221.62
2987.907	238.62
2991.202	252.62
2994.494	261.62
2997.784	266.62
3001.07	272.62
3004.355	279.62
3007.636	291.62
3010.915	301.62
3014.191	302.62
3017.464	308.62
3020.734	318.62
3024.002	322.62
3027.267	331.62
3030.53	339.62
3033.789	346.62
3037.046	350.62
3040.301	356.62
3043.552	367.62
3046.801	374.62
3050.048	383.62
3053.291	404.62
3056.532	420.62
3059.771	429.62
3063.006	444.62
3066.239	442.62
3069.469	472.62
3072.697	485.62
3075.922	495.62
3079.144	513.62
3082.364	540.62
3085.581	543.62
3088.795	556.62
3092.007	575.62
3095.216	589.62
3098.423	607.62
3101.627	613.62
3104.828	632.62
3108.026	647.62
3111.222	659.62
3114.416	676.62
3117.607	695.62
3120.795	716.62
3123.98	730.62
3127.163	738.62
3130.344	762.62
3133.521	779.62
3136.696	791.62
3139.869	810.62
3143.039	819.62
3146.206	860.62
3149.371	871.62
3152.533	869.62
3155.693	874.62
3158.85	882.62
3162.005	890.62
3165.157	885.62
3168.306	901.62
3171.453	889.62
3174.597	887.62
3177.739	895.62
3180.878	901.62
3184.014	915.62
3187.149	909.62
3190.28	913.62
3193.409	931.62
3196.536	926.62
3199.659	923.62
3202.781	928.62
3205.9	931.62
3209.016	941.62
3212.13	927.62
3215.241	915.62
3218.35	923.62
3221.456	912.62
3224.56	906.62
3227.661	904.62
3230.76	899.62
3233.856	894.62
3236.95	887.62
3240.041	896.62
3243.13	869.62
3246.216	872.62
3249.3	887.62
3252.382	870.62
3255.46	859.62
3258.537	874.62
3261.611	858.62
3264.682	855.62
3267.751	858.62
3270.818	868.62
3273.882	859.62
3276.943	859.62
3280.002	837.62
3283.059	843.62
3286.113	836.62
3289.165	824.62
3292.214	792.62
3295.261	786.62
3298.306	763.62
3301.348	756.62
3304.387	747.62
3307.425	728.62
3310.459	726.62
3313.492	709.62
3316.521	703.62
3319.549	694.62
3322.574	682.62
3325.597	670.62
3328.617	677.62
3331.635	673.62
3334.65	669.62
3337.663	662.62
3340.674	649.62
3343.682	650.62
3346.688	655.62
3349.691	652.62
3352.692	636.62
3355.691	643.62
3358.687	635.62
3361.681	630.62
3364.673	626.62
3367.662	616.62
3370.649	609.62
3373.633	595.62
3376.615	585.62
3379.595	590.62
3382.572	573.62
3385.547	567.62
3388.52	568.62
3391.49	561.62
3394.458	555.62
3397.424	542.62
3400.387	544.62
3403.348	527.62
3406.307	512.62
3409.263	523.62
3412.217	511.62
3415.168	505.62
3418.118	508.62
3421.065	499.62
3424.009	492.62
3426.951	475.62
3429.891	470.62
3432.829	460.62
3435.764	457.62
3438.697	438.62
3441.628	443.62
3444.557	434.62
3447.483	423.62
3450.407	418.62
3453.328	390.62
3456.247	382.62
3459.164	372.62
3462.079	368.62
3464.991	357.62
3467.902	342.62
3470.809	332.62
3473.715	327.62
3476.618	317.62
3479.519	299.62
3482.418	295.62
3485.315	291.62
3488.209	286.62
3491.101	271.62
3493.99	264.62
3496.878	258.62
3499.763	257.62
3502.646	247.62
3505.527	240.62
3508.405	236.62
3511.281	215.62
3514.155	214.62
3517.027	206.62
3519.897	192.62
3522.764	189.62
3525.629	179.62
3528.492	163.62
3531.352	156.62
3534.211	147.62
3537.067	140.62
3539.921	133.62
3542.773	122.62
3545.622	115.62
3548.469	111.62
3551.315	105.62
3554.157	96.62
3556.998	89.62
3559.837	88.62
3562.673	90.62
3565.507	71.62
3568.339	74.62
3571.169	68.62
3573.996	66.62
3576.822	58.62
3579.645	52.62
3582.466	47.62
3585.285	47.62
3588.101	37.62
3590.916	36.62
3593.728	28.62
3596.538	26.62
3599.346	24.62
3602.152	18.62
3604.956	22.62
3607.757	12.62
3610.556	10.62
3613.354	9.62
3616.149	4.62
3618.942	-1.38
3621.732	-2.38
3624.521	-2.38
3627.307	-7.38
3630.092	-10.38
3632.874	-12.38
3635.654	-12.38
3638.432	-17.38
3641.208	-18.38
3643.982	-23.38
3646.753	-24.38
3649.523	-22.38
3652.29	-27.38
3655.055	-35.38
3657.818	-31.38
3660.579	-38.38
3663.338	-36.38
3666.095	-36.38
3668.849	-39.38
3671.602	-42.38
3674.352	-50.38
3677.101	-46.38
3679.847	-48.38
3682.591	-55.38
3685.333	-54.38
3688.073	-55.38
3690.811	-55.38
3693.547	-52.38
3696.281	-55.38
3699.013	-58.38
3701.742	-54.38
3704.47	-61.38
3707.195	-59.38
3709.919	-57.38
3712.64	-64.38
3715.359	-66.38
3718.076	-66.38
3720.792	-70.38
3723.505	-66.38
3726.216	-66.38
3728.925	-61.38
3731.632	-66.38
3734.336	-66.38
3737.039	-69.38
3739.74	-72.38
3742.439	-75.38
3745.136	-72.38
3747.83	-71.38
3750.523	-73.38
3753.213	-72.38
3755.902	-73.38
3758.589	-71.38
3761.273	-73.38
3763.956	-74.38
3766.636	-74.38
3769.315	-76.38
3771.991	-73.38
3774.665	-77.38
3777.338	-76.38
3780.008	-77.38
3782.677	-74.38
3785.343	-76.38
3788.007	-75.38
3790.67	-79.38
3793.33	-74.38
3795.989	-79.38
3798.645	-80.38
3801.299	-76.38
3803.952	-75.38
3806.602	-76.38
3809.251	-78.38
3811.897	-78.38
3814.542	-80.38
3817.184	-76.38
3819.825	-74.38
3822.463	-79.38
3825.1	-75.38
3827.735	-80.38
3830.367	-77.38
3832.998	-82.38
3835.627	-80.38
3838.253	-81.38
3840.878	-77.38
3843.501	-78.38
3846.122	-78.38
3848.741	-75.38
3851.358	-78.38
3853.973	-76.38
3856.586	-78.38
3859.197	-85.38
3861.806	-83.38
3864.414	-83.38
3867.019	-85.38
3869.622	-85.38
3872.224	-79.38
3874.823	-79.38
3877.421	-72.38
3880.016	-70.38
3882.61	-65.38
3885.202	-65.38
3887.792	-73.38
3890.38	-76.38
3892.966	-80.38
3895.55	-81.38
3898.132	-85.38
3900.713	-82.38
3903.291	-82.38
3905.868	-83.38
3908.442	-84.38
3911.015	-81.38
3913.586	-80.38
3916.155	-83.38
3918.722	-77.38
3921.287	-84.38
3923.85	-85.38
3926.411	-84.38
3928.971	-83.38
3931.528	-87.38
3934.084	-87.38
3936.638	-87.38
3939.19	-80.38
3941.74	-85.38
3944.288	-83.38
3946.834	-84.38
3949.378	-81.38
3951.921	-85.38
3954.462	-79.38
3957	-83.38
3959.537	-84.38
3962.072	-83.38
3964.606	-83.38
3967.137	-85.38
3969.667	-83.38
3972.194	-85.38
3974.72	-82.38
3977.244	-85.38
3979.766	-81.38
3982.286	-83.38
3984.805	-83.38
3987.321	-81.38
3989.836	-82.38
3992.349	-74.38
3994.86	-78.38
3997.369	-79.38
3999.877	-82.38
4002.382	-83.38
4004.886	-79.38
4007.388	-82.38
4009.888	-84.38
4012.386	-82.38
4014.883	-85.38
4017.377	-82.38
4019.87	-82.38
4022.361	-81.38
4024.85	-79.38
4027.338	-83.38
4029.823	-83.38
4032.307	-85.38
4034.789	-85.38
4037.269	-82.38
4039.747	-85.38
4042.224	-84.38
4044.699	-86.38
4047.172	-79.38
4049.643	-80.38
4052.112	-83.38
4054.58	-80.38
4057.046	-81.38
4059.51	-84.38
4061.972	-84.38
4064.432	-80.38
4066.891	-85.38
4069.348	-82.38
4071.803	-84.38
4074.256	-85.38
4076.708	-81.38
4079.158	-85.38
4081.606	-83.38
4084.052	-80.38
4086.497	-84.38
4088.939	-85.38
4091.38	-81.38
4093.819	-81.38
4096.257	-87.38
4098.693	-87.38
4101.127	-85.38
4103.559	-85.38
4105.989	-46.38
4108.418	-43.38
4110.845	-46.38
4113.27	-43.38
4115.694	-36.38
4118.115	-30.38
4120.535	-84.38
4122.954	-83.38
4125.37	-84.38
4127.785	-83.38
4130.198	-84.38
4132.609	-82.38
4135.019	-88.38
4137.427	-86.38
4139.833	-84.38
4142.237	-87.38
