Data from B_sub_water_10CFU3_RamanShift_1.txt Node
Date: Thu Feb 23 11:50:53 IST 2017
User: aro
Spectrometer: QEPB0276
Trigger mode: 0
Integration Time (sec): 5.000000E0
Scans to average: 1
Electric dark correction enabled: true
Nonlinearity correction enabled: false
Boxcar width: 0
XAxis mode: Raman Shifts
Number of Pixels in Spectrum: 1044
>>>>>Begin Spectral Data<<<<<
160.701	-26.75
166.742	1.25
172.777	90.25
178.805	348.25
184.826	1019.25
190.841	2097.25
196.849	3349.25
202.85	4154.25
208.845	4303.25
214.833	4197.25
220.815	4011.25
226.789	3861.25
232.758	3749.25
238.719	3610.25
244.674	3480.25
250.623	3316.25
256.565	3183.25
262.5	3027.25
268.429	2861.25
274.351	2761.25
280.267	2613.25
286.176	2543.25
292.079	2427.25
297.975	2362.25
303.865	2271.25
309.748	2218.25
315.625	2161.25
321.495	2116.25
327.359	2088.25
333.217	2066.25
339.068	2038.25
344.912	2035.25
350.751	2027.25
356.583	2008.25
362.408	2002.25
368.227	2014.25
374.04	2013.25
379.847	2023.25
385.647	2042.25
391.44	2039.25
397.228	2056.25
403.009	2080.25
408.784	2086.25
414.553	2077.25
420.315	2100.25
426.071	2096.25
431.821	2082.25
437.565	2078.25
443.302	2097.25
449.033	2067.25
454.758	2055.25
460.477	2060.25
466.189	2030.25
471.896	2002.25
477.596	2007.25
483.29	1996.25
488.978	1980.25
494.66	1972.25
500.335	1945.25
506.005	1918.25
511.668	1854.25
517.325	1824.25
522.977	1782.25
528.622	1768.25
534.261	1744.25
539.894	1716.25
545.521	1711.25
551.141	1692.25
556.756	1673.25
562.365	1654.25
567.968	1659.25
573.565	1644.25
579.155	1618.25
584.74	1618.25
590.319	1601.25
595.892	1568.25
601.459	1564.25
607.02	1567.25
612.575	1536.25
618.124	1529.25
623.667	1496.25
629.204	1492.25
634.735	1465.25
640.261	1479.25
645.781	1452.25
651.294	1441.25
656.802	1446.25
662.304	1420.25
667.8	1414.25
673.29	1417.25
678.775	1408.25
684.254	1396.25
689.726	1386.25
695.193	1384.25
700.655	1348.25
706.11	1356.25
711.56	1329.25
717.004	1337.25
722.442	1321.25
727.874	1315.25
733.301	1299.25
738.722	1295.25
744.137	1280.25
749.547	1277.25
754.951	1268.25
760.349	1265.25
765.741	1261.25
771.128	1260.25
776.509	1254.25
781.885	1261.25
787.254	1249.25
792.618	1258.25
797.977	1256.25
803.33	1225.25
808.677	1212.25
814.019	1194.25
819.355	1172.25
824.686	1173.25
830.011	1146.25
835.33	1159.25
840.644	1144.25
845.952	1115.25
851.255	1125.25
856.552	1130.25
861.844	1098.25
867.13	1095.25
872.41	1069.25
877.686	1073.25
882.955	1041.25
888.219	1037.25
893.478	1008.25
898.731	999.25
903.979	976.25
909.221	966.25
914.458	948.25
919.69	951.25
924.916	936.25
930.136	937.25
935.351	947.25
940.561	934.25
945.766	925.25
950.965	921.25
956.158	900.25
961.347	897.25
966.529	881.25
971.707	857.25
976.879	839.25
982.046	841.25
987.208	837.25
992.364	829.25
997.515	830.25
1002.66	844.25
1007.801	845.25
1012.936	855.25
1018.066	857.25
1023.19	862.25
1028.309	857.25
1033.423	863.25
1038.532	858.25
1043.636	846.25
1048.734	841.25
1053.827	832.25
1058.915	828.25
1063.998	812.25
1069.075	808.25
1074.147	811.25
1079.214	815.25
1084.276	827.25
1089.333	829.25
1094.385	822.25
1099.431	841.25
1104.472	828.25
1109.509	826.25
1114.54	820.25
1119.565	801.25
1124.586	788.25
1129.602	785.25
1134.613	765.25
1139.618	784.25
1144.619	775.25
1149.614	772.25
1154.604	776.25
1159.589	791.25
1164.57	785.25
1169.545	784.25
1174.515	780.25
1179.48	785.25
1184.44	771.25
1189.395	773.25
1194.345	771.25
1199.29	765.25
1204.23	763.25
1209.165	765.25
1214.095	778.25
1219.021	780.25
1223.941	775.25
1228.856	791.25
1233.766	784.25
1238.672	786.25
1243.572	782.25
1248.467	787.25
1253.358	767.25
1258.244	758.25
1263.124	746.25
1268	723.25
1272.871	722.25
1277.737	722.25
1282.599	723.25
1287.455	717.25
1292.306	719.25
1297.153	725.25
1301.995	739.25
1306.832	741.25
1311.664	742.25
1316.491	730.25
1321.314	728.25
1326.132	717.25
1330.945	708.25
1335.753	692.25
1340.556	665.25
1345.354	665.25
1350.148	645.25
1354.937	651.25
1359.722	651.25
1364.501	665.25
1369.276	670.25
1374.046	679.25
1378.811	686.25
1383.572	693.25
1388.327	679.25
1393.079	677.25
1397.825	658.25
1402.567	642.25
1407.304	641.25
1412.036	634.25
1416.764	609.25
1421.487	630.25
1426.205	624.25
1430.919	628.25
1435.628	637.25
1440.333	653.25
1445.032	639.25
1449.727	644.25
1454.418	645.25
1459.104	639.25
1463.785	638.25
1468.462	627.25
1473.134	632.25
1477.802	619.25
1482.465	620.25
1487.123	628.25
1491.777	616.25
1496.426	634.25
1501.071	639.25
1505.711	642.25
1510.347	663.25
1514.978	668.25
1519.604	687.25
1524.226	693.25
1528.844	695.25
1533.457	694.25
1538.065	701.25
1542.669	703.25
1547.269	693.25
1551.864	707.25
1556.454	714.25
1561.041	712.25
1565.622	731.25
1570.199	740.25
1574.772	749.25
1579.34	762.25
1583.904	794.25
1588.464	792.25
1593.019	809.25
1597.569	825.25
1602.115	837.25
1606.657	844.25
1611.195	868.25
1615.728	883.25
1620.256	894.25
1624.78	922.25
1629.3	942.25
1633.816	952.25
1638.327	962.25
1642.834	982.25
1647.336	992.25
1651.834	989.25
1656.328	992.25
1660.817	978.25
1665.302	947.25
1669.783	932.25
1674.259	891.25
1678.732	867.25
1683.199	813.25
1687.663	779.25
1692.122	740.25
1696.577	710.25
1701.028	684.25
1705.474	675.25
1709.917	647.25
1714.355	638.25
1718.788	613.25
1723.218	585.25
1727.643	559.25
1732.064	543.25
1736.481	518.25
1740.893	502.25
1745.301	473.25
1749.705	467.25
1754.105	449.25
1758.501	425.25
1762.893	403.25
1767.28	395.25
1771.663	393.25
1776.042	389.25
1780.417	387.25
1784.787	383.25
1789.154	388.25
1793.516	388.25
1797.874	388.25
1802.228	397.25
1806.578	389.25
1810.924	387.25
1815.266	393.25
1819.603	378.25
1823.937	358.25
1828.266	358.25
1832.591	352.25
1836.913	341.25
1841.23	335.25
1845.543	343.25
1849.852	340.25
1854.156	338.25
1858.457	323.25
1862.754	331.25
1867.047	332.25
1871.335	338.25
1875.62	334.25
1879.9	341.25
1884.177	338.25
1888.449	328.25
1892.718	338.25
1896.982	332.25
1901.243	335.25
1905.499	333.25
1909.752	335.25
1914	327.25
1918.245	330.25
1922.485	332.25
1926.722	340.25
1930.954	343.25
1935.183	350.25
1939.408	364.25
1943.628	356.25
1947.845	363.25
1952.058	354.25
1956.267	354.25
1960.472	349.25
1964.673	342.25
1968.87	344.25
1973.063	336.25
1977.252	329.25
1981.438	334.25
1985.619	338.25
1989.797	339.25
1993.971	334.25
1998.14	349.25
2002.306	338.25
2006.469	348.25
2010.627	334.25
2014.781	336.25
2018.932	333.25
2023.078	335.25
2027.221	340.25
2031.36	326.25
2035.495	342.25
2039.627	334.25
2043.754	339.25
2047.878	333.25
2051.998	324.25
2056.114	338.25
2060.226	334.25
2064.334	344.25
2068.439	335.25
2072.54	343.25
2076.637	343.25
2080.73	349.25
2084.82	350.25
2088.906	351.25
2092.988	353.25
2097.066	365.25
2101.14	353.25
2105.211	354.25
2109.278	341.25
2113.342	353.25
2117.401	351.25
2121.457	346.25
2125.509	339.25
2129.558	340.25
2133.602	336.25
2137.643	337.25
2141.681	331.25
2145.714	333.25
2149.744	340.25
2153.77	327.25
2157.793	320.25
2161.812	321.25
2165.827	317.25
2169.838	309.25
2173.846	300.25
2177.851	297.25
2181.851	284.25
2185.848	280.25
2189.841	272.25
2193.831	277.25
2197.817	271.25
2201.799	270.25
2205.778	273.25
2209.753	256.25
2213.725	266.25
2217.693	265.25
2221.657	267.25
2225.618	259.25
2229.575	256.25
2233.529	258.25
2237.479	250.25
2241.425	241.25
2245.368	242.25
2249.307	241.25
2253.243	233.25
2257.175	234.25
2261.104	227.25
2265.029	212.25
2268.95	217.25
2272.868	210.25
2276.783	214.25
2280.694	206.25
2284.601	201.25
2288.505	197.25
2292.405	205.25
2296.302	196.25
2300.195	200.25
2304.085	190.25
2307.971	184.25
2311.854	181.25
2315.734	173.25
2319.609	174.25
2323.482	169.25
2327.351	158.25
2331.216	162.25
2335.078	157.25
2338.937	158.25
2342.792	156.25
2346.643	157.25
2350.492	152.25
2354.336	153.25
2358.178	150.25
2362.015	141.25
2365.85	154.25
2369.681	143.25
2373.508	143.25
2377.333	150.25
2381.153	152.25
2384.971	147.25
2388.785	148.25
2392.595	144.25
2396.402	149.25
2400.206	135.25
2404.007	133.25
2407.804	139.25
2411.597	137.25
2415.388	131.25
2419.174	133.25
2422.958	130.25
2426.738	126.25
2430.515	137.25
2434.289	126.25
2438.059	125.25
2441.825	128.25
2445.589	124.25
2449.349	124.25
2453.106	117.25
2456.859	116.25
2460.61	115.25
2464.356	114.25
2468.1	111.25
2471.84	112.25
2475.577	108.25
2479.311	110.25
2483.041	113.25
2486.768	114.25
2490.492	112.25
2494.213	109.25
2497.93	109.25
2501.644	103.25
2505.355	109.25
2509.062	101.25
2512.766	103.25
2516.467	105.25
2520.165	111.25
2523.859	106.25
2527.551	101.25
2531.239	108.25
2534.923	98.25
2538.605	98.25
2542.283	94.25
2545.958	100.25
2549.63	95.25
2553.299	102.25
2556.964	96.25
2560.626	101.25
2564.285	95.25
2567.941	91.25
2571.594	95.25
2575.243	94.25
2578.89	90.25
2582.533	88.25
2586.173	86.25
2589.809	88.25
2593.443	93.25
2597.073	84.25
2600.701	89.25
2604.325	86.25
2607.946	86.25
2611.564	86.25
2615.178	79.25
2618.79	82.25
2622.398	86.25
2626.004	83.25
2629.606	79.25
2633.205	80.25
2636.801	78.25
2640.394	72.25
2643.983	84.25
2647.57	74.25
2651.153	70.25
2654.734	66.25
2658.311	72.25
2661.885	70.25
2665.456	72.25
2669.025	64.25
2672.589	62.25
2676.151	66.25
2679.71	71.25
2683.266	65.25
2686.819	65.25
2690.368	60.25
2693.915	61.25
2697.458	62.25
2700.999	55.25
2704.536	57.25
2708.071	54.25
2711.602	57.25
2715.13	52.25
2718.656	56.25
2722.178	57.25
2725.697	53.25
2729.214	53.25
2732.727	55.25
2736.237	53.25
2739.744	58.25
2743.249	59.25
2746.75	65.25
2750.248	65.25
2753.743	64.25
2757.236	63.25
2760.725	67.25
2764.211	78.25
2767.695	70.25
2771.175	68.25
2774.652	68.25
2778.127	68.25
2781.598	60.25
2785.067	65.25
2788.532	74.25
2791.995	73.25
2795.455	66.25
2798.911	77.25
2802.365	74.25
2805.816	73.25
2809.264	77.25
2812.709	77.25
2816.151	79.25
2819.59	76.25
2823.026	75.25
2826.46	72.25
2829.89	84.25
2833.318	84.25
2836.742	86.25
2840.164	88.25
2843.583	94.25
2846.999	90.25
2850.412	99.25
2853.822	97.25
2857.229	93.25
2860.634	103.25
2864.035	106.25
2867.434	105.25
2870.83	108.25
2874.223	113.25
2877.613	119.25
2881	117.25
2884.385	124.25
2887.766	119.25
2891.145	123.25
2894.521	120.25
2897.894	126.25
2901.264	132.25
2904.631	132.25
2907.996	132.25
2911.358	133.25
2914.717	145.25
2918.073	148.25
2921.426	146.25
2924.777	150.25
2928.124	160.25
2931.469	164.25
2934.811	165.25
2938.15	178.25
2941.487	175.25
2944.821	191.25
2948.152	189.25
2951.48	200.25
2954.805	201.25
2958.128	211.25
2961.447	206.25
2964.765	219.25
2968.079	221.25
2971.39	226.25
2974.699	235.25
2978.005	244.25
2981.308	259.25
2984.609	270.25
2987.907	283.25
2991.202	290.25
2994.494	298.25
2997.784	305.25
3001.07	325.25
3004.355	335.25
3007.636	340.25
3010.915	357.25
3014.191	375.25
3017.464	372.25
3020.734	380.25
3024.002	388.25
3027.267	388.25
3030.53	405.25
3033.789	409.25
3037.046	434.25
3040.301	435.25
3043.552	457.25
3046.801	467.25
3050.048	476.25
3053.291	491.25
3056.532	505.25
3059.771	539.25
3063.006	539.25
3066.239	553.25
3069.469	582.25
3072.697	592.25
3075.922	621.25
3079.144	628.25
3082.364	667.25
3085.581	665.25
3088.795	686.25
3092.007	719.25
3095.216	728.25
3098.423	740.25
3101.627	759.25
3104.828	769.25
3108.026	802.25
3111.222	807.25
3114.416	843.25
3117.607	861.25
3120.795	889.25
3123.98	903.25
3127.163	926.25
3130.344	945.25
3133.521	959.25
3136.696	991.25
3139.869	1013.25
3143.039	1024.25
3146.206	1041.25
3149.371	1064.25
3152.533	1087.25
3155.693	1073.25
3158.85	1086.25
3162.005	1111.25
3165.157	1101.25
3168.306	1113.25
3171.453	1114.25
3174.597	1108.25
3177.739	1119.25
3180.878	1124.25
3184.014	1139.25
3187.149	1153.25
3190.28	1137.25
3193.409	1144.25
3196.536	1156.25
3199.659	1157.25
3202.781	1154.25
3205.9	1154.25
3209.016	1150.25
3212.13	1174.25
3215.241	1157.25
3218.35	1157.25
3221.456	1138.25
3224.56	1135.25
3227.661	1129.25
3230.76	1105.25
3233.856	1111.25
3236.95	1091.25
3240.041	1085.25
3243.13	1094.25
3246.216	1077.25
3249.3	1081.25
3252.382	1073.25
3255.46	1081.25
3258.537	1070.25
3261.611	1077.25
3264.682	1070.25
3267.751	1046.25
3270.818	1057.25
3273.882	1050.25
3276.943	1044.25
3280.002	1026.25
3283.059	1037.25
3286.113	1018.25
3289.165	1004.25
3292.214	995.25
3295.261	973.25
3298.306	960.25
3301.348	932.25
3304.387	919.25
3307.425	908.25
3310.459	899.25
3313.492	885.25
3316.521	878.25
3319.549	866.25
3322.574	859.25
3325.597	862.25
3328.617	850.25
3331.635	841.25
3334.65	847.25
3337.663	832.25
3340.674	843.25
3343.682	823.25
3346.688	826.25
3349.691	813.25
3352.692	816.25
3355.691	814.25
3358.687	793.25
3361.681	800.25
3364.673	782.25
3367.662	773.25
3370.649	773.25
3373.633	755.25
3376.615	741.25
3379.595	724.25
3382.572	723.25
3385.547	711.25
3388.52	710.25
3391.49	704.25
3394.458	684.25
3397.424	680.25
3400.387	670.25
3403.348	673.25
3406.307	657.25
3409.263	651.25
3412.217	639.25
3415.168	638.25
3418.118	624.25
3421.065	628.25
3424.009	625.25
3426.951	604.25
3429.891	603.25
3432.829	589.25
3435.764	572.25
3438.697	580.25
3441.628	560.25
3444.557	552.25
3447.483	527.25
3450.407	520.25
3453.328	495.25
3456.247	487.25
3459.164	472.25
3462.079	457.25
3464.991	440.25
3467.902	439.25
3470.809	421.25
3473.715	418.25
3476.618	404.25
3479.519	393.25
3482.418	381.25
3485.315	358.25
3488.209	354.25
3491.101	343.25
3493.99	335.25
3496.878	331.25
3499.763	314.25
3502.646	310.25
3505.527	300.25
3508.405	299.25
3511.281	280.25
3514.155	267.25
3517.027	249.25
3519.897	244.25
3522.764	232.25
3525.629	222.25
3528.492	209.25
3531.352	196.25
3534.211	192.25
3537.067	185.25
3539.921	170.25
3542.773	161.25
3545.622	147.25
3548.469	145.25
3551.315	130.25
3554.157	130.25
3556.998	116.25
3559.837	116.25
3562.673	103.25
3565.507	103.25
3568.339	99.25
3571.169	90.25
3573.996	94.25
3576.822	84.25
3579.645	74.25
3582.466	65.25
3585.285	60.25
3588.101	53.25
3590.916	50.25
3593.728	46.25
3596.538	38.25
3599.346	34.25
3602.152	30.25
3604.956	31.25
3607.757	18.25
3610.556	16.25
3613.354	13.25
3616.149	5.25
3618.942	4.25
3621.732	2.25
3624.521	-3.75
3627.307	-6.75
3630.092	-7.75
3632.874	-11.75
3635.654	-13.75
3638.432	-16.75
3641.208	-8.75
3643.982	-23.75
3646.753	-24.75
3649.523	-20.75
3652.29	-31.75
3655.055	-34.75
3657.818	-37.75
3660.579	-41.75
3663.338	-41.75
3666.095	-40.75
3668.849	-44.75
3671.602	-45.75
3674.352	-48.75
3677.101	-52.75
3679.847	-51.75
3682.591	-57.75
3685.333	-60.75
3688.073	-58.75
3690.811	-61.75
3693.547	-61.75
3696.281	-63.75
3699.013	-67.75
3701.742	-63.75
3704.47	-66.75
3707.195	-61.75
3709.919	-69.75
3712.64	-70.75
3715.359	-72.75
3718.076	-71.75
3720.792	-72.75
3723.505	-76.75
3726.216	-82.75
3728.925	-74.75
3731.632	-79.75
3734.336	-78.75
3737.039	-78.75
3739.74	-79.75
3742.439	-83.75
3745.136	-78.75
3747.83	-82.75
3750.523	-82.75
3753.213	-84.75
3755.902	-84.75
3758.589	-80.75
3761.273	-85.75
3763.956	-86.75
3766.636	-85.75
3769.315	-87.75
3771.991	-85.75
3774.665	-84.75
3777.338	-84.75
3780.008	-86.75
3782.677	-83.75
3785.343	-84.75
3788.007	-84.75
3790.67	-90.75
3793.33	-85.75
3795.989	-91.75
3798.645	-91.75
3801.299	-86.75
3803.952	-85.75
3806.602	-87.75
3809.251	-90.75
3811.897	-91.75
3814.542	-89.75
3817.184	-91.75
3819.825	-89.75
3822.463	-92.75
3825.1	-87.75
3827.735	-92.75
3830.367	-89.75
3832.998	-93.75
3835.627	-89.75
3838.253	-90.75
3840.878	-91.75
3843.501	-89.75
3846.122	-90.75
3848.741	-90.75
3851.358	-91.75
3853.973	-91.75
3856.586	-91.75
3859.197	-93.75
3861.806	-90.75
3864.414	-90.75
3867.019	-95.75
3869.622	-89.75
3872.224	-91.75
3874.823	-89.75
3877.421	-87.75
3880.016	-85.75
3882.61	-84.75
3885.202	-83.75
3887.792	-88.75
3890.38	-89.75
3892.966	-91.75
3895.55	-93.75
3898.132	-91.75
3900.713	-93.75
3903.291	-94.75
3905.868	-93.75
3908.442	-94.75
3911.015	-92.75
3913.586	-98.75
3916.155	-98.75
3918.722	-93.75
3921.287	-94.75
3923.85	-95.75
3926.411	-94.75
3928.971	-94.75
3931.528	-97.75
3934.084	-95.75
3936.638	-98.75
3939.19	-95.75
3941.74	-97.75
3944.288	-97.75
3946.834	-97.75
3949.378	-94.75
3951.921	-95.75
3954.462	-94.75
3957	-95.75
3959.537	-94.75
3962.072	-93.75
3964.606	-94.75
3967.137	-93.75
3969.667	-95.75
3972.194	-94.75
3974.72	-95.75
3977.244	-96.75
3979.766	-93.75
3982.286	-96.75
3984.805	-94.75
3987.321	-92.75
3989.836	-96.75
3992.349	-87.75
3994.86	-90.75
3997.369	-91.75
3999.877	-94.75
4002.382	-93.75
4004.886	-91.75
4007.388	-94.75
4009.888	-93.75
4012.386	-92.75
4014.883	-94.75
4017.377	-92.75
4019.87	-90.75
4022.361	-95.75
4024.85	-93.75
4027.338	-97.75
4029.823	-93.75
4032.307	-97.75
4034.789	-95.75
4037.269	-94.75
4039.747	-97.75
4042.224	-92.75
4044.699	-96.75
4047.172	-94.75
4049.643	-93.75
4052.112	-95.75
4054.58	-98.75
4057.046	-99.75
4059.51	-99.75
4061.972	-99.75
4064.432	-92.75
4066.891	-93.75
4069.348	-92.75
4071.803	-96.75
4074.256	-92.75
4076.708	-92.75
4079.158	-96.75
4081.606	-93.75
4084.052	-95.75
4086.497	-100.75
4088.939	-99.75
4091.38	-96.75
4093.819	-97.75
4096.257	-102.75
4098.693	-96.75
4101.127	-98.75
4103.559	-96.75
4105.989	-57.75
4108.418	-53.75
4110.845	-49.75
4113.27	-52.75
4115.694	-43.75
4118.115	-38.75
4120.535	-94.75
4122.954	-88.75
4125.37	-92.75
4127.785	-92.75
4130.198	-93.75
4132.609	-93.75
4135.019	-101.75
4137.427	-105.75
4139.833	-101.75
4142.237	-103.75
