Data from B_sub_water_10CFU_B1_RamanShift_1.txt Node
Date: Thu Feb 23 12:09:38 IST 2017
User: aro
Spectrometer: QEPB0276
Trigger mode: 0
Integration Time (sec): 5.000000E0
Scans to average: 1
Electric dark correction enabled: true
Nonlinearity correction enabled: false
Boxcar width: 0
XAxis mode: Raman Shifts
Number of Pixels in Spectrum: 1044
>>>>>Begin Spectral Data<<<<<
160.701	-24.88
166.742	4.12
172.777	80.12
178.805	321.12
184.826	907.12
190.841	1898.12
196.849	3010.12
202.85	3738.12
208.845	3918.12
214.833	3797.12
220.815	3643.12
226.789	3538.12
232.758	3448.12
238.719	3339.12
244.674	3208.12
250.623	3049.12
256.565	2926.12
262.5	2788.12
268.429	2678.12
274.351	2566.12
280.267	2446.12
286.176	2364.12
292.079	2284.12
297.975	2215.12
303.865	2146.12
309.748	2100.12
315.625	2032.12
321.495	2007.12
327.359	1961.12
333.217	1944.12
339.068	1926.12
344.912	1931.12
350.751	1907.12
356.583	1924.12
362.408	1895.12
368.227	1932.12
374.04	1920.12
379.847	1914.12
385.647	1935.12
391.44	1946.12
397.228	1953.12
403.009	1977.12
408.784	1977.12
414.553	1974.12
420.315	1974.12
426.071	1988.12
431.821	1996.12
437.565	1985.12
443.302	1972.12
449.033	1969.12
454.758	1965.12
460.477	1960.12
466.189	1955.12
471.896	1919.12
477.596	1922.12
483.29	1908.12
488.978	1919.12
494.66	1888.12
500.335	1867.12
506.005	1817.12
511.668	1779.12
517.325	1768.12
522.977	1722.12
528.622	1706.12
534.261	1689.12
539.894	1652.12
545.521	1656.12
551.141	1642.12
556.756	1626.12
562.365	1611.12
567.968	1603.12
573.565	1613.12
579.155	1568.12
584.74	1581.12
590.319	1554.12
595.892	1553.12
601.459	1555.12
607.02	1544.12
612.575	1512.12
618.124	1502.12
623.667	1489.12
629.204	1469.12
634.735	1448.12
640.261	1435.12
645.781	1441.12
651.294	1424.12
656.802	1431.12
662.304	1414.12
667.8	1400.12
673.29	1395.12
678.775	1396.12
684.254	1389.12
689.726	1392.12
695.193	1376.12
700.655	1358.12
706.11	1361.12
711.56	1351.12
717.004	1338.12
722.442	1337.12
727.874	1327.12
733.301	1294.12
738.722	1298.12
744.137	1295.12
749.547	1299.12
754.951	1291.12
760.349	1297.12
765.741	1270.12
771.128	1274.12
776.509	1273.12
781.885	1272.12
787.254	1270.12
792.618	1263.12
797.977	1265.12
803.33	1255.12
808.677	1233.12
814.019	1224.12
819.355	1207.12
824.686	1179.12
830.011	1184.12
835.33	1193.12
840.644	1167.12
845.952	1169.12
851.255	1156.12
856.552	1144.12
861.844	1142.12
867.13	1149.12
872.41	1131.12
877.686	1120.12
882.955	1116.12
888.219	1096.12
893.478	1070.12
898.731	1061.12
903.979	1033.12
909.221	1023.12
914.458	1013.12
919.69	1017.12
924.916	1005.12
930.136	1019.12
935.351	996.12
940.561	1006.12
945.766	996.12
950.965	979.12
956.158	977.12
961.347	966.12
966.529	955.12
971.707	931.12
976.879	930.12
982.046	919.12
987.208	918.12
992.364	896.12
997.515	911.12
1002.66	927.12
1007.801	922.12
1012.936	930.12
1018.066	936.12
1023.19	933.12
1028.309	949.12
1033.423	935.12
1038.532	943.12
1043.636	945.12
1048.734	918.12
1053.827	913.12
1058.915	904.12
1063.998	904.12
1069.075	899.12
1074.147	912.12
1079.214	907.12
1084.276	912.12
1089.333	906.12
1094.385	909.12
1099.431	927.12
1104.472	927.12
1109.509	925.12
1114.54	887.12
1119.565	898.12
1124.586	874.12
1129.602	860.12
1134.613	875.12
1139.618	866.12
1144.619	854.12
1149.614	867.12
1154.604	855.12
1159.589	860.12
1164.57	870.12
1169.545	885.12
1174.515	881.12
1179.48	872.12
1184.44	870.12
1189.395	865.12
1194.345	846.12
1199.29	865.12
1204.23	859.12
1209.165	851.12
1214.095	875.12
1219.021	874.12
1223.941	872.12
1228.856	886.12
1233.766	874.12
1238.672	883.12
1243.572	889.12
1248.467	869.12
1253.358	875.12
1258.244	845.12
1263.124	848.12
1268	838.12
1272.871	826.12
1277.737	822.12
1282.599	809.12
1287.455	821.12
1292.306	813.12
1297.153	821.12
1301.995	828.12
1306.832	833.12
1311.664	838.12
1316.491	843.12
1321.314	823.12
1326.132	818.12
1330.945	808.12
1335.753	789.12
1340.556	777.12
1345.354	764.12
1350.148	747.12
1354.937	749.12
1359.722	747.12
1364.501	762.12
1369.276	771.12
1374.046	784.12
1378.811	799.12
1383.572	801.12
1388.327	784.12
1393.079	774.12
1397.825	753.12
1402.567	746.12
1407.304	744.12
1412.036	735.12
1416.764	734.12
1421.487	719.12
1426.205	726.12
1430.919	737.12
1435.628	743.12
1440.333	741.12
1445.032	749.12
1449.727	743.12
1454.418	746.12
1459.104	762.12
1463.785	748.12
1468.462	736.12
1473.134	739.12
1477.802	729.12
1482.465	729.12
1487.123	725.12
1491.777	722.12
1496.426	728.12
1501.071	734.12
1505.711	750.12
1510.347	764.12
1514.978	783.12
1519.604	792.12
1524.226	802.12
1528.844	802.12
1533.457	816.12
1538.065	806.12
1542.669	794.12
1547.269	795.12
1551.864	808.12
1556.454	800.12
1561.041	811.12
1565.622	817.12
1570.199	831.12
1574.772	839.12
1579.34	854.12
1583.904	872.12
1588.464	865.12
1593.019	900.12
1597.569	924.12
1602.115	929.12
1606.657	920.12
1611.195	932.12
1615.728	935.12
1620.256	969.12
1624.78	969.12
1629.3	990.12
1633.816	996.12
1638.327	1022.12
1642.834	1024.12
1647.336	1044.12
1651.834	1048.12
1656.328	1038.12
1660.817	1023.12
1665.302	1021.12
1669.783	993.12
1674.259	964.12
1678.732	933.12
1683.199	884.12
1687.663	852.12
1692.122	819.12
1696.577	781.12
1701.028	774.12
1705.474	763.12
1709.917	740.12
1714.355	725.12
1718.788	722.12
1723.218	682.12
1727.643	659.12
1732.064	635.12
1736.481	615.12
1740.893	595.12
1745.301	583.12
1749.705	563.12
1754.105	556.12
1758.501	519.12
1762.893	518.12
1767.28	509.12
1771.663	497.12
1776.042	482.12
1780.417	474.12
1784.787	491.12
1789.154	498.12
1793.516	489.12
1797.874	503.12
1802.228	518.12
1806.578	499.12
1810.924	501.12
1815.266	507.12
1819.603	491.12
1823.937	476.12
1828.266	461.12
1832.591	450.12
1836.913	456.12
1841.23	447.12
1845.543	441.12
1849.852	441.12
1854.156	451.12
1858.457	447.12
1862.754	449.12
1867.047	454.12
1871.335	455.12
1875.62	441.12
1879.9	433.12
1884.177	445.12
1888.449	442.12
1892.718	442.12
1896.982	431.12
1901.243	445.12
1905.499	435.12
1909.752	437.12
1914	433.12
1918.245	439.12
1922.485	449.12
1926.722	436.12
1930.954	445.12
1935.183	465.12
1939.408	463.12
1943.628	464.12
1947.845	461.12
1952.058	461.12
1956.267	467.12
1960.472	459.12
1964.673	449.12
1968.87	442.12
1973.063	434.12
1977.252	441.12
1981.438	446.12
1985.619	448.12
1989.797	443.12
1993.971	436.12
1998.14	442.12
2002.306	437.12
2006.469	436.12
2010.627	441.12
2014.781	437.12
2018.932	429.12
2023.078	438.12
2027.221	432.12
2031.36	435.12
2035.495	425.12
2039.627	429.12
2043.754	427.12
2047.878	423.12
2051.998	428.12
2056.114	427.12
2060.226	421.12
2064.334	420.12
2068.439	439.12
2072.54	424.12
2076.637	438.12
2080.73	442.12
2084.82	446.12
2088.906	437.12
2092.988	440.12
2097.066	443.12
2101.14	440.12
2105.211	433.12
2109.278	438.12
2113.342	435.12
2117.401	430.12
2121.457	425.12
2125.509	437.12
2129.558	421.12
2133.602	420.12
2137.643	418.12
2141.681	418.12
2145.714	424.12
2149.744	420.12
2153.77	414.12
2157.793	424.12
2161.812	404.12
2165.827	395.12
2169.838	394.12
2173.846	376.12
2177.851	374.12
2181.851	374.12
2185.848	360.12
2189.841	365.12
2193.831	357.12
2197.817	358.12
2201.799	352.12
2205.778	354.12
2209.753	350.12
2213.725	349.12
2217.693	354.12
2221.657	348.12
2225.618	341.12
2229.575	339.12
2233.529	331.12
2237.479	336.12
2241.425	322.12
2245.368	329.12
2249.307	330.12
2253.243	320.12
2257.175	305.12
2261.104	311.12
2265.029	313.12
2268.95	294.12
2272.868	302.12
2276.783	286.12
2280.694	283.12
2284.601	279.12
2288.505	271.12
2292.405	271.12
2296.302	275.12
2300.195	268.12
2304.085	266.12
2307.971	268.12
2311.854	258.12
2315.734	246.12
2319.609	245.12
2323.482	245.12
2327.351	236.12
2331.216	231.12
2335.078	240.12
2338.937	234.12
2342.792	234.12
2346.643	226.12
2350.492	228.12
2354.336	229.12
2358.178	223.12
2362.015	229.12
2365.85	224.12
2369.681	230.12
2373.508	223.12
2377.333	229.12
2381.153	225.12
2384.971	218.12
2388.785	225.12
2392.595	217.12
2396.402	221.12
2400.206	216.12
2404.007	205.12
2407.804	211.12
2411.597	208.12
2415.388	197.12
2419.174	202.12
2422.958	201.12
2426.738	198.12
2430.515	209.12
2434.289	201.12
2438.059	198.12
2441.825	205.12
2445.589	197.12
2449.349	184.12
2453.106	192.12
2456.859	180.12
2460.61	183.12
2464.356	184.12
2468.1	170.12
2471.84	185.12
2475.577	175.12
2479.311	174.12
2483.041	183.12
2486.768	182.12
2490.492	175.12
2494.213	175.12
2497.93	178.12
2501.644	173.12
2505.355	175.12
2509.062	175.12
2512.766	169.12
2516.467	178.12
2520.165	171.12
2523.859	170.12
2527.551	171.12
2531.239	164.12
2534.923	169.12
2538.605	159.12
2542.283	163.12
2545.958	170.12
2549.63	164.12
2553.299	164.12
2556.964	153.12
2560.626	158.12
2564.285	154.12
2567.941	162.12
2571.594	153.12
2575.243	156.12
2578.89	152.12
2582.533	159.12
2586.173	150.12
2589.809	147.12
2593.443	150.12
2597.073	147.12
2600.701	147.12
2604.325	147.12
2607.946	146.12
2611.564	142.12
2615.178	141.12
2618.79	146.12
2622.398	146.12
2626.004	141.12
2629.606	141.12
2633.205	137.12
2636.801	145.12
2640.394	136.12
2643.983	138.12
2647.57	131.12
2651.153	129.12
2654.734	126.12
2658.311	128.12
2661.885	128.12
2665.456	129.12
2669.025	118.12
2672.589	119.12
2676.151	119.12
2679.71	120.12
2683.266	115.12
2686.819	120.12
2690.368	115.12
2693.915	112.12
2697.458	112.12
2700.999	105.12
2704.536	105.12
2708.071	102.12
2711.602	98.12
2715.13	108.12
2718.656	99.12
2722.178	101.12
2725.697	111.12
2729.214	104.12
2732.727	101.12
2736.237	105.12
2739.744	113.12
2743.249	106.12
2746.75	107.12
2750.248	111.12
2753.743	109.12
2757.236	110.12
2760.725	113.12
2764.211	114.12
2767.695	115.12
2771.175	116.12
2774.652	115.12
2778.127	114.12
2781.598	114.12
2785.067	114.12
2788.532	114.12
2791.995	120.12
2795.455	111.12
2798.911	117.12
2802.365	115.12
2805.816	117.12
2809.264	123.12
2812.709	112.12
2816.151	117.12
2819.59	127.12
2823.026	118.12
2826.46	115.12
2829.89	119.12
2833.318	121.12
2836.742	115.12
2840.164	125.12
2843.583	120.12
2846.999	123.12
2850.412	124.12
2853.822	131.12
2857.229	133.12
2860.634	136.12
2864.035	132.12
2867.434	137.12
2870.83	142.12
2874.223	149.12
2877.613	151.12
2881	155.12
2884.385	154.12
2887.766	149.12
2891.145	151.12
2894.521	152.12
2897.894	157.12
2901.264	161.12
2904.631	162.12
2907.996	166.12
2911.358	158.12
2914.717	169.12
2918.073	171.12
2921.426	170.12
2924.777	176.12
2928.124	176.12
2931.469	178.12
2934.811	197.12
2938.15	196.12
2941.487	201.12
2944.821	210.12
2948.152	205.12
2951.48	210.12
2954.805	213.12
2958.128	229.12
2961.447	225.12
2964.765	227.12
2968.079	233.12
2971.39	237.12
2974.699	251.12
2978.005	257.12
2981.308	273.12
2984.609	268.12
2987.907	272.12
2991.202	292.12
2994.494	307.12
2997.784	316.12
3001.07	322.12
3004.355	339.12
3007.636	343.12
3010.915	357.12
3014.191	363.12
3017.464	377.12
3020.734	367.12
3024.002	377.12
3027.267	384.12
3030.53	393.12
3033.789	394.12
3037.046	405.12
3040.301	417.12
3043.552	421.12
3046.801	445.12
3050.048	449.12
3053.291	468.12
3056.532	480.12
3059.771	483.12
3063.006	502.12
3066.239	529.12
3069.469	545.12
3072.697	557.12
3075.922	569.12
3079.144	595.12
3082.364	605.12
3085.581	619.12
3088.795	638.12
3092.007	656.12
3095.216	671.12
3098.423	685.12
3101.627	700.12
3104.828	710.12
3108.026	728.12
3111.222	743.12
3114.416	755.12
3117.607	783.12
3120.795	800.12
3123.98	827.12
3127.163	847.12
3130.344	871.12
3133.521	885.12
3136.696	898.12
3139.869	919.12
3143.039	931.12
3146.206	936.12
3149.371	971.12
3152.533	981.12
3155.693	983.12
3158.85	1000.12
3162.005	993.12
3165.157	1001.12
3168.306	1007.12
3171.453	1005.12
3174.597	1013.12
3177.739	1018.12
3180.878	1021.12
3184.014	1020.12
3187.149	1020.12
3190.28	1030.12
3193.409	1044.12
3196.536	1043.12
3199.659	1051.12
3202.781	1048.12
3205.9	1055.12
3209.016	1057.12
3212.13	1064.12
3215.241	1043.12
3218.35	1049.12
3221.456	1046.12
3224.56	1035.12
3227.661	1035.12
3230.76	1002.12
3233.856	999.12
3236.95	997.12
3240.041	998.12
3243.13	988.12
3246.216	1000.12
3249.3	975.12
3252.382	978.12
3255.46	968.12
3258.537	978.12
3261.611	968.12
3264.682	972.12
3267.751	948.12
3270.818	946.12
3273.882	948.12
3276.943	949.12
3280.002	936.12
3283.059	928.12
3286.113	913.12
3289.165	916.12
3292.214	902.12
3295.261	887.12
3298.306	859.12
3301.348	855.12
3304.387	831.12
3307.425	815.12
3310.459	811.12
3313.492	795.12
3316.521	795.12
3319.549	787.12
3322.574	777.12
3325.597	772.12
3328.617	766.12
3331.635	758.12
3334.65	755.12
3337.663	749.12
3340.674	743.12
3343.682	737.12
3346.688	743.12
3349.691	730.12
3352.692	732.12
3355.691	723.12
3358.687	716.12
3361.681	700.12
3364.673	704.12
3367.662	692.12
3370.649	687.12
3373.633	680.12
3376.615	669.12
3379.595	659.12
3382.572	653.12
3385.547	653.12
3388.52	634.12
3391.49	617.12
3394.458	614.12
3397.424	615.12
3400.387	599.12
3403.348	596.12
3406.307	598.12
3409.263	584.12
3412.217	583.12
3415.168	575.12
3418.118	573.12
3421.065	569.12
3424.009	546.12
3426.951	540.12
3429.891	534.12
3432.829	528.12
3435.764	515.12
3438.697	507.12
3441.628	489.12
3444.557	486.12
3447.483	473.12
3450.407	464.12
3453.328	455.12
3456.247	438.12
3459.164	426.12
3462.079	414.12
3464.991	388.12
3467.902	392.12
3470.809	373.12
3473.715	368.12
3476.618	353.12
3479.519	357.12
3482.418	337.12
3485.315	331.12
3488.209	323.12
3491.101	316.12
3493.99	307.12
3496.878	299.12
3499.763	280.12
3502.646	274.12
3505.527	265.12
3508.405	262.12
3511.281	251.12
3514.155	236.12
3517.027	231.12
3519.897	224.12
3522.764	217.12
3525.629	201.12
3528.492	193.12
3531.352	178.12
3534.211	168.12
3537.067	156.12
3539.921	153.12
3542.773	143.12
3545.622	134.12
3548.469	127.12
3551.315	121.12
3554.157	116.12
3556.998	109.12
3559.837	106.12
3562.673	97.12
3565.507	92.12
3568.339	83.12
3571.169	81.12
3573.996	76.12
3576.822	69.12
3579.645	67.12
3582.466	52.12
3585.285	52.12
3588.101	49.12
3590.916	41.12
3593.728	37.12
3596.538	34.12
3599.346	30.12
3602.152	27.12
3604.956	20.12
3607.757	16.12
3610.556	14.12
3613.354	15.12
3616.149	5.12
3618.942	2.12
3621.732	-6.88
3624.521	-6.88
3627.307	-11.88
3630.092	-10.88
3632.874	-13.88
3635.654	-11.88
3638.432	-13.88
3641.208	-12.88
3643.982	-20.88
3646.753	-25.88
3649.523	-26.88
3652.29	-27.88
3655.055	-32.88
3657.818	-31.88
3660.579	-37.88
3663.338	-38.88
3666.095	-37.88
3668.849	-45.88
3671.602	-46.88
3674.352	-47.88
3677.101	-49.88
3679.847	-51.88
3682.591	-53.88
3685.333	-54.88
3688.073	-59.88
3690.811	-60.88
3693.547	-53.88
3696.281	-59.88
3699.013	-64.88
3701.742	-61.88
3704.47	-67.88
3707.195	-63.88
3709.919	-65.88
3712.64	-68.88
3715.359	-71.88
3718.076	-67.88
3720.792	-72.88
3723.505	-69.88
3726.216	-74.88
3728.925	-66.88
3731.632	-72.88
3734.336	-75.88
3737.039	-74.88
3739.74	-76.88
3742.439	-84.88
3745.136	-77.88
3747.83	-77.88
3750.523	-75.88
3753.213	-74.88
3755.902	-74.88
3758.589	-72.88
3761.273	-79.88
3763.956	-76.88
3766.636	-81.88
3769.315	-82.88
3771.991	-81.88
3774.665	-85.88
3777.338	-81.88
3780.008	-85.88
3782.677	-81.88
3785.343	-81.88
3788.007	-81.88
3790.67	-85.88
3793.33	-80.88
3795.989	-85.88
3798.645	-87.88
3801.299	-84.88
3803.952	-80.88
3806.602	-83.88
3809.251	-88.88
3811.897	-88.88
3814.542	-84.88
3817.184	-84.88
3819.825	-82.88
3822.463	-90.88
3825.1	-84.88
3827.735	-83.88
3830.367	-83.88
3832.998	-89.88
3835.627	-84.88
3838.253	-85.88
3840.878	-87.88
3843.501	-86.88
3846.122	-88.88
3848.741	-84.88
3851.358	-90.88
3853.973	-87.88
3856.586	-84.88
3859.197	-91.88
3861.806	-87.88
3864.414	-90.88
3867.019	-90.88
3869.622	-86.88
3872.224	-84.88
3874.823	-85.88
3877.421	-80.88
3880.016	-79.88
3882.61	-75.88
3885.202	-78.88
3887.792	-83.88
3890.38	-86.88
3892.966	-87.88
3895.55	-89.88
3898.132	-92.88
3900.713	-88.88
3903.291	-88.88
3905.868	-86.88
3908.442	-85.88
3911.015	-85.88
3913.586	-91.88
3916.155	-93.88
3918.722	-89.88
3921.287	-96.88
3923.85	-94.88
3926.411	-94.88
3928.971	-90.88
3931.528	-93.88
3934.084	-92.88
3936.638	-93.88
3939.19	-88.88
3941.74	-91.88
3944.288	-89.88
3946.834	-92.88
3949.378	-89.88
3951.921	-92.88
3954.462	-92.88
3957	-93.88
3959.537	-93.88
3962.072	-91.88
3964.606	-93.88
3967.137	-91.88
3969.667	-94.88
3972.194	-91.88
3974.72	-88.88
3977.244	-89.88
3979.766	-85.88
3982.286	-92.88
3984.805	-90.88
3987.321	-90.88
3989.836	-90.88
3992.349	-87.88
3994.86	-87.88
3997.369	-89.88
3999.877	-89.88
4002.382	-88.88
4004.886	-87.88
4007.388	-90.88
4009.888	-87.88
4012.386	-92.88
4014.883	-89.88
4017.377	-87.88
4019.87	-85.88
4022.361	-91.88
4024.85	-87.88
4027.338	-91.88
4029.823	-89.88
4032.307	-93.88
4034.789	-91.88
4037.269	-93.88
4039.747	-91.88
4042.224	-86.88
4044.699	-93.88
4047.172	-88.88
4049.643	-89.88
4052.112	-90.88
4054.58	-91.88
4057.046	-94.88
4059.51	-96.88
4061.972	-92.88
4064.432	-89.88
4066.891	-92.88
4069.348	-90.88
4071.803	-88.88
4074.256	-87.88
4076.708	-87.88
4079.158	-89.88
4081.606	-89.88
4084.052	-90.88
4086.497	-93.88
4088.939	-94.88
4091.38	-92.88
4093.819	-91.88
4096.257	-93.88
4098.693	-89.88
4101.127	-94.88
4103.559	-91.88
4105.989	-59.88
4108.418	-53.88
4110.845	-55.88
4113.27	-54.88
4115.694	-43.88
4118.115	-35.88
4120.535	-91.88
4122.954	-91.88
4125.37	-91.88
4127.785	-89.88
4130.198	-87.88
4132.609	-84.88
4135.019	-93.88
4137.427	-95.88
4139.833	-95.88
4142.237	-94.88
