Data from B_sub_water_0CFU3_RamanShift_1.txt Node
Date: Thu Feb 23 11:47:18 IST 2017
User: aro
Spectrometer: QEPB0276
Trigger mode: 0
Integration Time (sec): 5.000000E0
Scans to average: 1
Electric dark correction enabled: true
Nonlinearity correction enabled: false
Boxcar width: 0
XAxis mode: Raman Shifts
Number of Pixels in Spectrum: 1044
>>>>>Begin Spectral Data<<<<<
160.701	-27.88
166.742	-2.88
172.777	95.12
178.805	360.12
184.826	1007.12
190.841	2074.12
196.849	3270.12
202.85	4069.12
208.845	4207.12
214.833	4048.12
220.815	3925.12
226.789	3808.12
232.758	3693.12
238.719	3590.12
244.674	3434.12
250.623	3294.12
256.565	3116.12
262.5	2969.12
268.429	2821.12
274.351	2731.12
280.267	2590.12
286.176	2498.12
292.079	2419.12
297.975	2337.12
303.865	2266.12
309.748	2219.12
315.625	2151.12
321.495	2120.12
327.359	2078.12
333.217	2043.12
339.068	2034.12
344.912	2046.12
350.751	2013.12
356.583	2024.12
362.408	2024.12
368.227	2019.12
374.04	2028.12
379.847	2008.12
385.647	2027.12
391.44	2060.12
397.228	2065.12
403.009	2077.12
408.784	2082.12
414.553	2091.12
420.315	2083.12
426.071	2092.12
431.821	2078.12
437.565	2095.12
443.302	2084.12
449.033	2072.12
454.758	2071.12
460.477	2066.12
466.189	2037.12
471.896	2020.12
477.596	2027.12
483.29	2008.12
488.978	2003.12
494.66	1996.12
500.335	1955.12
506.005	1911.12
511.668	1871.12
517.325	1841.12
522.977	1807.12
528.622	1767.12
534.261	1760.12
539.894	1738.12
545.521	1715.12
551.141	1711.12
556.756	1701.12
562.365	1690.12
567.968	1657.12
573.565	1667.12
579.155	1648.12
584.74	1630.12
590.319	1630.12
595.892	1585.12
601.459	1605.12
607.02	1582.12
612.575	1572.12
618.124	1550.12
623.667	1533.12
629.204	1528.12
634.735	1506.12
640.261	1493.12
645.781	1475.12
651.294	1472.12
656.802	1463.12
662.304	1457.12
667.8	1443.12
673.29	1448.12
678.775	1445.12
684.254	1427.12
689.726	1416.12
695.193	1418.12
700.655	1393.12
706.11	1400.12
711.56	1382.12
717.004	1367.12
722.442	1365.12
727.874	1327.12
733.301	1342.12
738.722	1330.12
744.137	1324.12
749.547	1318.12
754.951	1320.12
760.349	1311.12
765.741	1306.12
771.128	1303.12
776.509	1300.12
781.885	1290.12
787.254	1286.12
792.618	1297.12
797.977	1283.12
803.33	1275.12
808.677	1253.12
814.019	1249.12
819.355	1228.12
824.686	1210.12
830.011	1201.12
835.33	1191.12
840.644	1180.12
845.952	1179.12
851.255	1176.12
856.552	1145.12
861.844	1152.12
867.13	1147.12
872.41	1130.12
877.686	1123.12
882.955	1118.12
888.219	1083.12
893.478	1078.12
898.731	1046.12
903.979	1032.12
909.221	1016.12
914.458	1011.12
919.69	1008.12
924.916	1005.12
930.136	1006.12
935.351	991.12
940.561	986.12
945.766	980.12
950.965	968.12
956.158	958.12
961.347	946.12
966.529	942.12
971.707	922.12
976.879	900.12
982.046	897.12
987.208	894.12
992.364	885.12
997.515	883.12
1002.66	906.12
1007.801	902.12
1012.936	906.12
1018.066	919.12
1023.19	928.12
1028.309	915.12
1033.423	914.12
1038.532	918.12
1043.636	921.12
1048.734	908.12
1053.827	886.12
1058.915	880.12
1063.998	862.12
1069.075	864.12
1074.147	866.12
1079.214	864.12
1084.276	886.12
1089.333	882.12
1094.385	892.12
1099.431	889.12
1104.472	906.12
1109.509	894.12
1114.54	880.12
1119.565	860.12
1124.586	843.12
1129.602	840.12
1134.613	837.12
1139.618	839.12
1144.619	843.12
1149.614	835.12
1154.604	843.12
1159.589	847.12
1164.57	854.12
1169.545	837.12
1174.515	835.12
1179.48	844.12
1184.44	839.12
1189.395	833.12
1194.345	831.12
1199.29	837.12
1204.23	828.12
1209.165	831.12
1214.095	822.12
1219.021	847.12
1223.941	840.12
1228.856	856.12
1233.766	857.12
1238.672	860.12
1243.572	848.12
1248.467	843.12
1253.358	822.12
1258.244	831.12
1263.124	816.12
1268	787.12
1272.871	794.12
1277.737	783.12
1282.599	779.12
1287.455	770.12
1292.306	789.12
1297.153	796.12
1301.995	794.12
1306.832	792.12
1311.664	798.12
1316.491	808.12
1321.314	797.12
1326.132	786.12
1330.945	774.12
1335.753	758.12
1340.556	744.12
1345.354	732.12
1350.148	711.12
1354.937	715.12
1359.722	715.12
1364.501	721.12
1369.276	740.12
1374.046	738.12
1378.811	747.12
1383.572	753.12
1388.327	758.12
1393.079	727.12
1397.825	723.12
1402.567	705.12
1407.304	706.12
1412.036	700.12
1416.764	684.12
1421.487	686.12
1426.205	704.12
1430.919	692.12
1435.628	703.12
1440.333	706.12
1445.032	712.12
1449.727	705.12
1454.418	710.12
1459.104	712.12
1463.785	692.12
1468.462	694.12
1473.134	696.12
1477.802	676.12
1482.465	683.12
1487.123	684.12
1491.777	689.12
1496.426	682.12
1501.071	703.12
1505.711	709.12
1510.347	714.12
1514.978	741.12
1519.604	739.12
1524.226	760.12
1528.844	775.12
1533.457	757.12
1538.065	780.12
1542.669	762.12
1547.269	768.12
1551.864	752.12
1556.454	762.12
1561.041	777.12
1565.622	783.12
1570.199	801.12
1574.772	809.12
1579.34	827.12
1583.904	844.12
1588.464	850.12
1593.019	873.12
1597.569	902.12
1602.115	895.12
1606.657	910.12
1611.195	918.12
1615.728	932.12
1620.256	947.12
1624.78	961.12
1629.3	990.12
1633.816	997.12
1638.327	1011.12
1642.834	1029.12
1647.336	1040.12
1651.834	1037.12
1656.328	1028.12
1660.817	1024.12
1665.302	1008.12
1669.783	970.12
1674.259	950.12
1678.732	911.12
1683.199	871.12
1687.663	840.12
1692.122	784.12
1696.577	759.12
1701.028	742.12
1705.474	730.12
1709.917	715.12
1714.355	707.12
1718.788	654.12
1723.218	640.12
1727.643	622.12
1732.064	604.12
1736.481	576.12
1740.893	555.12
1745.301	535.12
1749.705	527.12
1754.105	507.12
1758.501	485.12
1762.893	480.12
1767.28	456.12
1771.663	448.12
1776.042	446.12
1780.417	444.12
1784.787	445.12
1789.154	445.12
1793.516	446.12
1797.874	458.12
1802.228	458.12
1806.578	445.12
1810.924	460.12
1815.266	444.12
1819.603	440.12
1823.937	422.12
1828.266	412.12
1832.591	412.12
1836.913	403.12
1841.23	408.12
1845.543	402.12
1849.852	410.12
1854.156	395.12
1858.457	396.12
1862.754	393.12
1867.047	409.12
1871.335	398.12
1875.62	389.12
1879.9	394.12
1884.177	400.12
1888.449	400.12
1892.718	397.12
1896.982	398.12
1901.243	390.12
1905.499	391.12
1909.752	377.12
1914	391.12
1918.245	376.12
1922.485	392.12
1926.722	397.12
1930.954	403.12
1935.183	413.12
1939.408	421.12
1943.628	418.12
1947.845	412.12
1952.058	408.12
1956.267	417.12
1960.472	412.12
1964.673	396.12
1968.87	406.12
1973.063	390.12
1977.252	402.12
1981.438	397.12
1985.619	398.12
1989.797	395.12
1993.971	393.12
1998.14	390.12
2002.306	396.12
2006.469	389.12
2010.627	393.12
2014.781	398.12
2018.932	394.12
2023.078	393.12
2027.221	398.12
2031.36	397.12
2035.495	391.12
2039.627	390.12
2043.754	387.12
2047.878	376.12
2051.998	381.12
2056.114	381.12
2060.226	374.12
2064.334	383.12
2068.439	388.12
2072.54	405.12
2076.637	406.12
2080.73	407.12
2084.82	408.12
2088.906	412.12
2092.988	406.12
2097.066	396.12
2101.14	409.12
2105.211	396.12
2109.278	402.12
2113.342	405.12
2117.401	399.12
2121.457	393.12
2125.509	398.12
2129.558	385.12
2133.602	389.12
2137.643	387.12
2141.681	382.12
2145.714	383.12
2149.744	368.12
2153.77	380.12
2157.793	374.12
2161.812	367.12
2165.827	357.12
2169.838	354.12
2173.846	342.12
2177.851	347.12
2181.851	340.12
2185.848	324.12
2189.841	322.12
2193.831	326.12
2197.817	315.12
2201.799	304.12
2205.778	317.12
2209.753	304.12
2213.725	317.12
2217.693	314.12
2221.657	314.12
2225.618	306.12
2229.575	308.12
2233.529	301.12
2237.479	297.12
2241.425	292.12
2245.368	289.12
2249.307	286.12
2253.243	283.12
2257.175	279.12
2261.104	273.12
2265.029	269.12
2268.95	261.12
2272.868	248.12
2276.783	255.12
2280.694	247.12
2284.601	242.12
2288.505	252.12
2292.405	243.12
2296.302	238.12
2300.195	234.12
2304.085	231.12
2307.971	226.12
2311.854	221.12
2315.734	206.12
2319.609	211.12
2323.482	206.12
2327.351	193.12
2331.216	197.12
2335.078	204.12
2338.937	201.12
2342.792	201.12
2346.643	193.12
2350.492	194.12
2354.336	193.12
2358.178	183.12
2362.015	191.12
2365.85	183.12
2369.681	178.12
2373.508	183.12
2377.333	186.12
2381.153	188.12
2384.971	187.12
2388.785	187.12
2392.595	181.12
2396.402	179.12
2400.206	175.12
2404.007	171.12
2407.804	173.12
2411.597	169.12
2415.388	161.12
2419.174	169.12
2422.958	163.12
2426.738	166.12
2430.515	170.12
2434.289	153.12
2438.059	160.12
2441.825	155.12
2445.589	159.12
2449.349	158.12
2453.106	148.12
2456.859	152.12
2460.61	145.12
2464.356	151.12
2468.1	145.12
2471.84	150.12
2475.577	141.12
2479.311	143.12
2483.041	145.12
2486.768	139.12
2490.492	143.12
2494.213	139.12
2497.93	140.12
2501.644	138.12
2505.355	138.12
2509.062	136.12
2512.766	138.12
2516.467	139.12
2520.165	137.12
2523.859	139.12
2527.551	134.12
2531.239	134.12
2534.923	135.12
2538.605	131.12
2542.283	127.12
2545.958	132.12
2549.63	130.12
2553.299	135.12
2556.964	129.12
2560.626	130.12
2564.285	132.12
2567.941	128.12
2571.594	116.12
2575.243	123.12
2578.89	121.12
2582.533	117.12
2586.173	114.12
2589.809	114.12
2593.443	115.12
2597.073	110.12
2600.701	119.12
2604.325	116.12
2607.946	115.12
2611.564	112.12
2615.178	118.12
2618.79	112.12
2622.398	111.12
2626.004	111.12
2629.606	98.12
2633.205	104.12
2636.801	108.12
2640.394	100.12
2643.983	101.12
2647.57	107.12
2651.153	108.12
2654.734	96.12
2658.311	92.12
2661.885	96.12
2665.456	90.12
2669.025	87.12
2672.589	93.12
2676.151	88.12
2679.71	91.12
2683.266	89.12
2686.819	88.12
2690.368	80.12
2693.915	83.12
2697.458	86.12
2700.999	77.12
2704.536	84.12
2708.071	81.12
2711.602	79.12
2715.13	76.12
2718.656	82.12
2722.178	76.12
2725.697	80.12
2729.214	77.12
2732.727	73.12
2736.237	76.12
2739.744	84.12
2743.249	80.12
2746.75	86.12
2750.248	87.12
2753.743	80.12
2757.236	82.12
2760.725	87.12
2764.211	94.12
2767.695	88.12
2771.175	86.12
2774.652	88.12
2778.127	92.12
2781.598	92.12
2785.067	85.12
2788.532	91.12
2791.995	91.12
2795.455	91.12
2798.911	98.12
2802.365	96.12
2805.816	89.12
2809.264	95.12
2812.709	96.12
2816.151	104.12
2819.59	92.12
2823.026	98.12
2826.46	97.12
2829.89	103.12
2833.318	101.12
2836.742	102.12
2840.164	103.12
2843.583	101.12
2846.999	112.12
2850.412	108.12
2853.822	110.12
2857.229	119.12
2860.634	116.12
2864.035	131.12
2867.434	127.12
2870.83	127.12
2874.223	125.12
2877.613	135.12
2881	131.12
2884.385	133.12
2887.766	136.12
2891.145	135.12
2894.521	141.12
2897.894	147.12
2901.264	151.12
2904.631	146.12
2907.996	150.12
2911.358	148.12
2914.717	158.12
2918.073	155.12
2921.426	163.12
2924.777	170.12
2928.124	164.12
2931.469	173.12
2934.811	181.12
2938.15	183.12
2941.487	200.12
2944.821	198.12
2948.152	198.12
2951.48	206.12
2954.805	208.12
2958.128	214.12
2961.447	220.12
2964.765	213.12
2968.079	226.12
2971.39	243.12
2974.699	243.12
2978.005	263.12
2981.308	272.12
2984.609	285.12
2987.907	293.12
2991.202	299.12
2994.494	305.12
2997.784	328.12
3001.07	333.12
3004.355	341.12
3007.636	343.12
3010.915	363.12
3014.191	372.12
3017.464	379.12
3020.734	387.12
3024.002	395.12
3027.267	403.12
3030.53	409.12
3033.789	417.12
3037.046	431.12
3040.301	439.12
3043.552	455.12
3046.801	462.12
3050.048	473.12
3053.291	492.12
3056.532	507.12
3059.771	523.12
3063.006	543.12
3066.239	558.12
3069.469	586.12
3072.697	600.12
3075.922	601.12
3079.144	631.12
3082.364	642.12
3085.581	671.12
3088.795	692.12
3092.007	707.12
3095.216	714.12
3098.423	733.12
3101.627	760.12
3104.828	759.12
3108.026	801.12
3111.222	813.12
3114.416	829.12
3117.607	853.12
3120.795	859.12
3123.98	887.12
3127.163	909.12
3130.344	946.12
3133.521	964.12
3136.696	965.12
3139.869	1004.12
3143.039	1009.12
3146.206	1040.12
3149.371	1038.12
3152.533	1059.12
3155.693	1067.12
3158.85	1065.12
3162.005	1090.12
3165.157	1083.12
3168.306	1102.12
3171.453	1097.12
3174.597	1107.12
3177.739	1116.12
3180.878	1097.12
3184.014	1119.12
3187.149	1115.12
3190.28	1117.12
3193.409	1129.12
3196.536	1120.12
3199.659	1139.12
3202.781	1151.12
3205.9	1144.12
3209.016	1133.12
3212.13	1155.12
3215.241	1135.12
3218.35	1126.12
3221.456	1119.12
3224.56	1125.12
3227.661	1107.12
3230.76	1085.12
3233.856	1089.12
3236.95	1068.12
3240.041	1067.12
3243.13	1081.12
3246.216	1047.12
3249.3	1044.12
3252.382	1070.12
3255.46	1056.12
3258.537	1041.12
3261.611	1041.12
3264.682	1044.12
3267.751	1032.12
3270.818	1037.12
3273.882	1032.12
3276.943	1028.12
3280.002	1024.12
3283.059	1003.12
3286.113	999.12
3289.165	982.12
3292.214	969.12
3295.261	962.12
3298.306	935.12
3301.348	917.12
3304.387	902.12
3307.425	892.12
3310.459	884.12
3313.492	874.12
3316.521	857.12
3319.549	852.12
3322.574	852.12
3325.597	834.12
3328.617	820.12
3331.635	822.12
3334.65	814.12
3337.663	810.12
3340.674	804.12
3343.682	811.12
3346.688	802.12
3349.691	803.12
3352.692	802.12
3355.691	785.12
3358.687	779.12
3361.681	777.12
3364.673	760.12
3367.662	750.12
3370.649	741.12
3373.633	735.12
3376.615	716.12
3379.595	725.12
3382.572	704.12
3385.547	700.12
3388.52	685.12
3391.49	680.12
3394.458	673.12
3397.424	656.12
3400.387	658.12
3403.348	650.12
3406.307	640.12
3409.263	637.12
3412.217	629.12
3415.168	634.12
3418.118	623.12
3421.065	607.12
3424.009	598.12
3426.951	595.12
3429.891	587.12
3432.829	580.12
3435.764	559.12
3438.697	547.12
3441.628	536.12
3444.557	526.12
3447.483	523.12
3450.407	502.12
3453.328	484.12
3456.247	473.12
3459.164	455.12
3462.079	450.12
3464.991	432.12
3467.902	418.12
3470.809	417.12
3473.715	396.12
3476.618	389.12
3479.519	380.12
3482.418	374.12
3485.315	360.12
3488.209	343.12
3491.101	342.12
3493.99	325.12
3496.878	318.12
3499.763	310.12
3502.646	297.12
3505.527	301.12
3508.405	276.12
3511.281	270.12
3514.155	268.12
3517.027	251.12
3519.897	231.12
3522.764	225.12
3525.629	212.12
3528.492	202.12
3531.352	190.12
3534.211	181.12
3537.067	177.12
3539.921	167.12
3542.773	149.12
3545.622	144.12
3548.469	137.12
3551.315	129.12
3554.157	126.12
3556.998	115.12
3559.837	113.12
3562.673	105.12
3565.507	96.12
3568.339	93.12
3571.169	92.12
3573.996	82.12
3576.822	79.12
3579.645	69.12
3582.466	64.12
3585.285	58.12
3588.101	51.12
3590.916	45.12
3593.728	39.12
3596.538	33.12
3599.346	29.12
3602.152	27.12
3604.956	18.12
3607.757	16.12
3610.556	13.12
3613.354	12.12
3616.149	2.12
3618.942	-1.88
3621.732	-3.88
3624.521	-8.88
3627.307	-8.88
3630.092	-10.88
3632.874	-13.88
3635.654	-8.88
3638.432	-17.88
3641.208	-13.88
3643.982	-22.88
3646.753	-28.88
3649.523	-27.88
3652.29	-31.88
3655.055	-40.88
3657.818	-39.88
3660.579	-40.88
3663.338	-41.88
3666.095	-40.88
3668.849	-43.88
3671.602	-47.88
3674.352	-53.88
3677.101	-57.88
3679.847	-56.88
3682.591	-60.88
3685.333	-66.88
3688.073	-66.88
3690.811	-64.88
3693.547	-65.88
3696.281	-64.88
3699.013	-69.88
3701.742	-67.88
3704.47	-68.88
3707.195	-67.88
3709.919	-70.88
3712.64	-75.88
3715.359	-75.88
3718.076	-75.88
3720.792	-77.88
3723.505	-80.88
3726.216	-81.88
3728.925	-72.88
3731.632	-77.88
3734.336	-80.88
3737.039	-80.88
3739.74	-83.88
3742.439	-87.88
3745.136	-85.88
3747.83	-84.88
3750.523	-86.88
3753.213	-84.88
3755.902	-83.88
3758.589	-80.88
3761.273	-83.88
3763.956	-84.88
3766.636	-87.88
3769.315	-88.88
3771.991	-89.88
3774.665	-91.88
3777.338	-91.88
3780.008	-92.88
3782.677	-89.88
3785.343	-87.88
3788.007	-86.88
3790.67	-92.88
3793.33	-89.88
3795.989	-93.88
3798.645	-92.88
3801.299	-92.88
3803.952	-89.88
3806.602	-91.88
3809.251	-94.88
3811.897	-95.88
3814.542	-92.88
3817.184	-93.88
3819.825	-90.88
3822.463	-90.88
3825.1	-89.88
3827.735	-94.88
3830.367	-91.88
3832.998	-98.88
3835.627	-92.88
3838.253	-95.88
3840.878	-92.88
3843.501	-95.88
3846.122	-92.88
3848.741	-94.88
3851.358	-92.88
3853.973	-94.88
3856.586	-95.88
3859.197	-97.88
3861.806	-93.88
3864.414	-96.88
3867.019	-96.88
3869.622	-95.88
3872.224	-97.88
3874.823	-95.88
3877.421	-92.88
3880.016	-88.88
3882.61	-84.88
3885.202	-82.88
3887.792	-88.88
3890.38	-88.88
3892.966	-93.88
3895.55	-96.88
3898.132	-96.88
3900.713	-97.88
3903.291	-95.88
3905.868	-97.88
3908.442	-98.88
3911.015	-100.88
3913.586	-99.88
3916.155	-97.88
3918.722	-94.88
3921.287	-97.88
3923.85	-96.88
3926.411	-99.88
3928.971	-97.88
3931.528	-101.88
3934.084	-99.88
3936.638	-103.88
3939.19	-97.88
3941.74	-99.88
3944.288	-99.88
3946.834	-100.88
3949.378	-97.88
3951.921	-100.88
3954.462	-96.88
3957	-97.88
3959.537	-98.88
3962.072	-97.88
3964.606	-97.88
3967.137	-99.88
3969.667	-97.88
3972.194	-95.88
3974.72	-92.88
3977.244	-100.88
3979.766	-95.88
3982.286	-98.88
3984.805	-96.88
3987.321	-96.88
3989.836	-101.88
3992.349	-92.88
3994.86	-93.88
3997.369	-95.88
3999.877	-97.88
4002.382	-95.88
4004.886	-93.88
4007.388	-97.88
4009.888	-97.88
4012.386	-98.88
4014.883	-99.88
4017.377	-98.88
4019.87	-97.88
4022.361	-101.88
4024.85	-98.88
4027.338	-99.88
4029.823	-97.88
4032.307	-100.88
4034.789	-96.88
4037.269	-96.88
4039.747	-100.88
4042.224	-96.88
4044.699	-99.88
4047.172	-95.88
4049.643	-98.88
4052.112	-98.88
4054.58	-99.88
4057.046	-99.88
4059.51	-98.88
4061.972	-102.88
4064.432	-95.88
4066.891	-97.88
4069.348	-94.88
4071.803	-97.88
4074.256	-95.88
4076.708	-96.88
4079.158	-96.88
4081.606	-100.88
4084.052	-98.88
4086.497	-99.88
4088.939	-101.88
4091.38	-101.88
4093.819	-97.88
4096.257	-105.88
4098.693	-99.88
4101.127	-99.88
4103.559	-97.88
4105.989	-62.88
4108.418	-59.88
4110.845	-61.88
4113.27	-56.88
4115.694	-48.88
4118.115	-39.88
4120.535	-97.88
4122.954	-95.88
4125.37	-95.88
4127.785	-95.88
4130.198	-97.88
4132.609	-98.88
4135.019	-105.88
4137.427	-106.88
4139.833	-103.88
4142.237	-107.88
