Data from B_sub_water_1000000CFU2_RamanShift_1.txt Node
Date: Thu Feb 23 12:07:33 IST 2017
User: aro
Spectrometer: QEPB0276
Trigger mode: 0
Integration Time (sec): 5.000000E0
Scans to average: 1
Electric dark correction enabled: true
Nonlinearity correction enabled: false
Boxcar width: 0
XAxis mode: Raman Shifts
Number of Pixels in Spectrum: 1044
>>>>>Begin Spectral Data<<<<<
160.701	-22.75
166.742	4.25
172.777	76.25
178.805	299.25
184.826	857.25
190.841	1779.25
196.849	2826.25
202.85	3515.25
208.845	3684.25
214.833	3572.25
220.815	3431.25
226.789	3331.25
232.758	3224.25
238.719	3149.25
244.674	3020.25
250.623	2904.25
256.565	2752.25
262.5	2626.25
268.429	2512.25
274.351	2421.25
280.267	2314.25
286.176	2222.25
292.079	2163.25
297.975	2102.25
303.865	2015.25
309.748	1968.25
315.625	1934.25
321.495	1908.25
327.359	1883.25
333.217	1863.25
339.068	1841.25
344.912	1830.25
350.751	1829.25
356.583	1827.25
362.408	1822.25
368.227	1827.25
374.04	1819.25
379.847	1836.25
385.647	1838.25
391.44	1854.25
397.228	1853.25
403.009	1861.25
408.784	1873.25
414.553	1874.25
420.315	1897.25
426.071	1878.25
431.821	1893.25
437.565	1881.25
443.302	1882.25
449.033	1874.25
454.758	1854.25
460.477	1854.25
466.189	1845.25
471.896	1832.25
477.596	1823.25
483.29	1829.25
488.978	1791.25
494.66	1794.25
500.335	1751.25
506.005	1730.25
511.668	1696.25
517.325	1669.25
522.977	1644.25
528.622	1608.25
534.261	1602.25
539.894	1558.25
545.521	1543.25
551.141	1555.25
556.756	1544.25
562.365	1532.25
567.968	1512.25
573.565	1492.25
579.155	1480.25
584.74	1464.25
590.319	1465.25
595.892	1461.25
601.459	1451.25
607.02	1435.25
612.575	1423.25
618.124	1397.25
623.667	1390.25
629.204	1382.25
634.735	1365.25
640.261	1355.25
645.781	1332.25
651.294	1332.25
656.802	1336.25
662.304	1326.25
667.8	1327.25
673.29	1298.25
678.775	1308.25
684.254	1292.25
689.726	1292.25
695.193	1297.25
700.655	1278.25
706.11	1269.25
711.56	1255.25
717.004	1251.25
722.442	1219.25
727.874	1222.25
733.301	1226.25
738.722	1219.25
744.137	1212.25
749.547	1190.25
754.951	1209.25
760.349	1189.25
765.741	1199.25
771.128	1175.25
776.509	1199.25
781.885	1186.25
787.254	1180.25
792.618	1189.25
797.977	1175.25
803.33	1180.25
808.677	1166.25
814.019	1146.25
819.355	1131.25
824.686	1109.25
830.011	1115.25
835.33	1099.25
840.644	1084.25
845.952	1074.25
851.255	1083.25
856.552	1059.25
861.844	1062.25
867.13	1054.25
872.41	1054.25
877.686	1043.25
882.955	1033.25
888.219	1013.25
893.478	984.25
898.731	968.25
903.979	968.25
909.221	939.25
914.458	943.25
919.69	931.25
924.916	924.25
930.136	927.25
935.351	925.25
940.561	915.25
945.766	920.25
950.965	916.25
956.158	895.25
961.347	889.25
966.529	883.25
971.707	858.25
976.879	857.25
982.046	852.25
987.208	831.25
992.364	840.25
997.515	838.25
1002.66	847.25
1007.801	851.25
1012.936	859.25
1018.066	866.25
1023.19	866.25
1028.309	872.25
1033.423	855.25
1038.532	867.25
1043.636	865.25
1048.734	845.25
1053.827	845.25
1058.915	829.25
1063.998	827.25
1069.075	815.25
1074.147	819.25
1079.214	820.25
1084.276	827.25
1089.333	834.25
1094.385	839.25
1099.431	832.25
1104.472	846.25
1109.509	836.25
1114.54	832.25
1119.565	799.25
1124.586	802.25
1129.602	791.25
1134.613	797.25
1139.618	803.25
1144.619	795.25
1149.614	791.25
1154.604	804.25
1159.589	794.25
1164.57	800.25
1169.545	793.25
1174.515	814.25
1179.48	800.25
1184.44	799.25
1189.395	785.25
1194.345	793.25
1199.29	783.25
1204.23	792.25
1209.165	788.25
1214.095	784.25
1219.021	798.25
1223.941	801.25
1228.856	804.25
1233.766	800.25
1238.672	809.25
1243.572	792.25
1248.467	796.25
1253.358	787.25
1258.244	785.25
1263.124	772.25
1268	763.25
1272.871	746.25
1277.737	744.25
1282.599	742.25
1287.455	743.25
1292.306	737.25
1297.153	744.25
1301.995	755.25
1306.832	755.25
1311.664	760.25
1316.491	767.25
1321.314	764.25
1326.132	755.25
1330.945	737.25
1335.753	725.25
1340.556	710.25
1345.354	680.25
1350.148	691.25
1354.937	675.25
1359.722	669.25
1364.501	686.25
1369.276	689.25
1374.046	706.25
1378.811	700.25
1383.572	709.25
1388.327	712.25
1393.079	702.25
1397.825	688.25
1402.567	678.25
1407.304	664.25
1412.036	665.25
1416.764	664.25
1421.487	666.25
1426.205	661.25
1430.919	661.25
1435.628	664.25
1440.333	666.25
1445.032	680.25
1449.727	685.25
1454.418	685.25
1459.104	682.25
1463.785	672.25
1468.462	664.25
1473.134	659.25
1477.802	651.25
1482.465	648.25
1487.123	647.25
1491.777	651.25
1496.426	669.25
1501.071	673.25
1505.711	684.25
1510.347	695.25
1514.978	701.25
1519.604	706.25
1524.226	726.25
1528.844	718.25
1533.457	735.25
1538.065	726.25
1542.669	719.25
1547.269	713.25
1551.864	716.25
1556.454	728.25
1561.041	732.25
1565.622	736.25
1570.199	746.25
1574.772	770.25
1579.34	783.25
1583.904	796.25
1588.464	808.25
1593.019	826.25
1597.569	825.25
1602.115	822.25
1606.657	841.25
1611.195	854.25
1615.728	859.25
1620.256	887.25
1624.78	889.25
1629.3	909.25
1633.816	922.25
1638.327	941.25
1642.834	955.25
1647.336	955.25
1651.834	967.25
1656.328	961.25
1660.817	950.25
1665.302	927.25
1669.783	897.25
1674.259	885.25
1678.732	846.25
1683.199	820.25
1687.663	780.25
1692.122	744.25
1696.577	718.25
1701.028	692.25
1705.474	692.25
1709.917	670.25
1714.355	651.25
1718.788	632.25
1723.218	602.25
1727.643	588.25
1732.064	576.25
1736.481	548.25
1740.893	528.25
1745.301	523.25
1749.705	502.25
1754.105	473.25
1758.501	470.25
1762.893	457.25
1767.28	448.25
1771.663	435.25
1776.042	442.25
1780.417	431.25
1784.787	431.25
1789.154	428.25
1793.516	434.25
1797.874	443.25
1802.228	443.25
1806.578	435.25
1810.924	448.25
1815.266	440.25
1819.603	428.25
1823.937	418.25
1828.266	415.25
1832.591	406.25
1836.913	395.25
1841.23	391.25
1845.543	382.25
1849.852	388.25
1854.156	383.25
1858.457	396.25
1862.754	386.25
1867.047	390.25
1871.335	384.25
1875.62	383.25
1879.9	395.25
1884.177	389.25
1888.449	389.25
1892.718	393.25
1896.982	384.25
1901.243	383.25
1905.499	381.25
1909.752	377.25
1914	370.25
1918.245	384.25
1922.485	393.25
1926.722	398.25
1930.954	389.25
1935.183	398.25
1939.408	407.25
1943.628	400.25
1947.845	412.25
1952.058	399.25
1956.267	407.25
1960.472	404.25
1964.673	394.25
1968.87	393.25
1973.063	390.25
1977.252	385.25
1981.438	389.25
1985.619	383.25
1989.797	385.25
1993.971	383.25
1998.14	376.25
2002.306	382.25
2006.469	384.25
2010.627	375.25
2014.781	391.25
2018.932	381.25
2023.078	379.25
2027.221	382.25
2031.36	378.25
2035.495	371.25
2039.627	375.25
2043.754	374.25
2047.878	370.25
2051.998	376.25
2056.114	378.25
2060.226	369.25
2064.334	377.25
2068.439	374.25
2072.54	387.25
2076.637	386.25
2080.73	388.25
2084.82	390.25
2088.906	395.25
2092.988	391.25
2097.066	398.25
2101.14	389.25
2105.211	394.25
2109.278	383.25
2113.342	386.25
2117.401	382.25
2121.457	382.25
2125.509	380.25
2129.558	378.25
2133.602	374.25
2137.643	371.25
2141.681	370.25
2145.714	363.25
2149.744	365.25
2153.77	370.25
2157.793	357.25
2161.812	357.25
2165.827	359.25
2169.838	353.25
2173.846	330.25
2177.851	326.25
2181.851	317.25
2185.848	320.25
2189.841	314.25
2193.831	315.25
2197.817	310.25
2201.799	296.25
2205.778	307.25
2209.753	305.25
2213.725	315.25
2217.693	305.25
2221.657	313.25
2225.618	295.25
2229.575	290.25
2233.529	294.25
2237.479	294.25
2241.425	280.25
2245.368	288.25
2249.307	281.25
2253.243	284.25
2257.175	273.25
2261.104	265.25
2265.029	260.25
2268.95	262.25
2272.868	251.25
2276.783	260.25
2280.694	247.25
2284.601	248.25
2288.505	239.25
2292.405	240.25
2296.302	242.25
2300.195	234.25
2304.085	233.25
2307.971	220.25
2311.854	219.25
2315.734	212.25
2319.609	213.25
2323.482	208.25
2327.351	203.25
2331.216	200.25
2335.078	203.25
2338.937	200.25
2342.792	196.25
2346.643	193.25
2350.492	199.25
2354.336	196.25
2358.178	184.25
2362.015	195.25
2365.85	195.25
2369.681	194.25
2373.508	186.25
2377.333	196.25
2381.153	190.25
2384.971	190.25
2388.785	189.25
2392.595	189.25
2396.402	195.25
2400.206	177.25
2404.007	174.25
2407.804	172.25
2411.597	183.25
2415.388	176.25
2419.174	175.25
2422.958	175.25
2426.738	164.25
2430.515	164.25
2434.289	171.25
2438.059	167.25
2441.825	169.25
2445.589	175.25
2449.349	164.25
2453.106	157.25
2456.859	162.25
2460.61	157.25
2464.356	150.25
2468.1	152.25
2471.84	152.25
2475.577	154.25
2479.311	154.25
2483.041	150.25
2486.768	154.25
2490.492	148.25
2494.213	151.25
2497.93	146.25
2501.644	151.25
2505.355	149.25
2509.062	155.25
2512.766	150.25
2516.467	150.25
2520.165	152.25
2523.859	152.25
2527.551	141.25
2531.239	137.25
2534.923	138.25
2538.605	143.25
2542.283	142.25
2545.958	142.25
2549.63	147.25
2553.299	146.25
2556.964	138.25
2560.626	130.25
2564.285	132.25
2567.941	127.25
2571.594	131.25
2575.243	125.25
2578.89	125.25
2582.533	122.25
2586.173	125.25
2589.809	120.25
2593.443	126.25
2597.073	127.25
2600.701	122.25
2604.325	125.25
2607.946	125.25
2611.564	115.25
2615.178	121.25
2618.79	118.25
2622.398	117.25
2626.004	118.25
2629.606	112.25
2633.205	114.25
2636.801	118.25
2640.394	118.25
2643.983	116.25
2647.57	114.25
2651.153	105.25
2654.734	110.25
2658.311	104.25
2661.885	100.25
2665.456	100.25
2669.025	102.25
2672.589	101.25
2676.151	97.25
2679.71	100.25
2683.266	98.25
2686.819	92.25
2690.368	98.25
2693.915	95.25
2697.458	90.25
2700.999	93.25
2704.536	87.25
2708.071	92.25
2711.602	83.25
2715.13	88.25
2718.656	88.25
2722.178	85.25
2725.697	83.25
2729.214	88.25
2732.727	82.25
2736.237	84.25
2739.744	89.25
2743.249	88.25
2746.75	91.25
2750.248	95.25
2753.743	96.25
2757.236	97.25
2760.725	91.25
2764.211	102.25
2767.695	98.25
2771.175	96.25
2774.652	96.25
2778.127	93.25
2781.598	89.25
2785.067	88.25
2788.532	96.25
2791.995	97.25
2795.455	101.25
2798.911	104.25
2802.365	103.25
2805.816	97.25
2809.264	98.25
2812.709	94.25
2816.151	94.25
2819.59	95.25
2823.026	99.25
2826.46	93.25
2829.89	101.25
2833.318	108.25
2836.742	107.25
2840.164	113.25
2843.583	115.25
2846.999	116.25
2850.412	110.25
2853.822	109.25
2857.229	115.25
2860.634	120.25
2864.035	122.25
2867.434	121.25
2870.83	125.25
2874.223	124.25
2877.613	136.25
2881	136.25
2884.385	130.25
2887.766	136.25
2891.145	137.25
2894.521	127.25
2897.894	140.25
2901.264	147.25
2904.631	145.25
2907.996	141.25
2911.358	152.25
2914.717	152.25
2918.073	154.25
2921.426	155.25
2924.777	156.25
2928.124	161.25
2931.469	165.25
2934.811	173.25
2938.15	173.25
2941.487	183.25
2944.821	190.25
2948.152	196.25
2951.48	190.25
2954.805	196.25
2958.128	199.25
2961.447	200.25
2964.765	208.25
2968.079	213.25
2971.39	219.25
2974.699	229.25
2978.005	240.25
2981.308	244.25
2984.609	257.25
2987.907	259.25
2991.202	262.25
2994.494	278.25
2997.784	294.25
3001.07	306.25
3004.355	314.25
3007.636	319.25
3010.915	331.25
3014.191	326.25
3017.464	349.25
3020.734	352.25
3024.002	352.25
3027.267	354.25
3030.53	367.25
3033.789	370.25
3037.046	381.25
3040.301	390.25
3043.552	397.25
3046.801	408.25
3050.048	426.25
3053.291	431.25
3056.532	444.25
3059.771	469.25
3063.006	484.25
3066.239	490.25
3069.469	501.25
3072.697	532.25
3075.922	540.25
3079.144	568.25
3082.364	580.25
3085.581	593.25
3088.795	600.25
3092.007	619.25
3095.216	638.25
3098.423	651.25
3101.627	660.25
3104.828	688.25
3108.026	699.25
3111.222	727.25
3114.416	735.25
3117.607	744.25
3120.795	769.25
3123.98	780.25
3127.163	809.25
3130.344	819.25
3133.521	842.25
3136.696	854.25
3139.869	870.25
3143.039	885.25
3146.206	895.25
3149.371	930.25
3152.533	938.25
3155.693	943.25
3158.85	951.25
3162.005	947.25
3165.157	957.25
3168.306	967.25
3171.453	963.25
3174.597	969.25
3177.739	974.25
3180.878	964.25
3184.014	975.25
3187.149	977.25
3190.28	995.25
3193.409	994.25
3196.536	1001.25
3199.659	986.25
3202.781	1014.25
3205.9	998.25
3209.016	994.25
3212.13	1003.25
3215.241	1000.25
3218.35	1008.25
3221.456	983.25
3224.56	981.25
3227.661	973.25
3230.76	958.25
3233.856	950.25
3236.95	942.25
3240.041	939.25
3243.13	946.25
3246.216	945.25
3249.3	919.25
3252.382	916.25
3255.46	919.25
3258.537	923.25
3261.611	913.25
3264.682	911.25
3267.751	920.25
3270.818	920.25
3273.882	900.25
3276.943	893.25
3280.002	890.25
3283.059	886.25
3286.113	879.25
3289.165	867.25
3292.214	852.25
3295.261	844.25
3298.306	822.25
3301.348	806.25
3304.387	785.25
3307.425	780.25
3310.459	775.25
3313.492	767.25
3316.521	761.25
3319.549	733.25
3322.574	749.25
3325.597	748.25
3328.617	727.25
3331.635	733.25
3334.65	728.25
3337.663	711.25
3340.674	709.25
3343.682	722.25
3346.688	709.25
3349.691	704.25
3352.692	706.25
3355.691	701.25
3358.687	685.25
3361.681	678.25
3364.673	676.25
3367.662	666.25
3370.649	658.25
3373.633	659.25
3376.615	643.25
3379.595	638.25
3382.572	624.25
3385.547	620.25
3388.52	601.25
3391.49	599.25
3394.458	585.25
3397.424	576.25
3400.387	570.25
3403.348	561.25
3406.307	577.25
3409.263	562.25
3412.217	560.25
3415.168	543.25
3418.118	545.25
3421.065	539.25
3424.009	530.25
3426.951	523.25
3429.891	519.25
3432.829	505.25
3435.764	493.25
3438.697	490.25
3441.628	477.25
3444.557	473.25
3447.483	455.25
3450.407	449.25
3453.328	428.25
3456.247	413.25
3459.164	414.25
3462.079	391.25
3464.991	393.25
3467.902	376.25
3470.809	363.25
3473.715	346.25
3476.618	345.25
3479.519	331.25
3482.418	324.25
3485.315	314.25
3488.209	311.25
3491.101	300.25
3493.99	288.25
3496.878	285.25
3499.763	276.25
3502.646	265.25
3505.527	265.25
3508.405	246.25
3511.281	242.25
3514.155	233.25
3517.027	223.25
3519.897	210.25
3522.764	204.25
3525.629	192.25
3528.492	171.25
3531.352	178.25
3534.211	160.25
3537.067	150.25
3539.921	150.25
3542.773	134.25
3545.622	128.25
3548.469	122.25
3551.315	114.25
3554.157	108.25
3556.998	101.25
3559.837	95.25
3562.673	94.25
3565.507	88.25
3568.339	83.25
3571.169	77.25
3573.996	69.25
3576.822	72.25
3579.645	63.25
3582.466	50.25
3585.285	53.25
3588.101	48.25
3590.916	46.25
3593.728	43.25
3596.538	41.25
3599.346	30.25
3602.152	31.25
3604.956	25.25
3607.757	16.25
3610.556	16.25
3613.354	12.25
3616.149	4.25
3618.942	-1.75
3621.732	-2.75
3624.521	-5.75
3627.307	-2.75
3630.092	-8.75
3632.874	-4.75
3635.654	-8.75
3638.432	-16.75
3641.208	-14.75
3643.982	-18.75
3646.753	-22.75
3649.523	-24.75
3652.29	-23.75
3655.055	-28.75
3657.818	-30.75
3660.579	-33.75
3663.338	-32.75
3666.095	-34.75
3668.849	-44.75
3671.602	-38.75
3674.352	-39.75
3677.101	-42.75
3679.847	-46.75
3682.591	-50.75
3685.333	-57.75
3688.073	-53.75
3690.811	-58.75
3693.547	-53.75
3696.281	-56.75
3699.013	-59.75
3701.742	-53.75
3704.47	-57.75
3707.195	-54.75
3709.919	-58.75
3712.64	-60.75
3715.359	-63.75
3718.076	-63.75
3720.792	-66.75
3723.505	-66.75
3726.216	-68.75
3728.925	-61.75
3731.632	-65.75
3734.336	-67.75
3737.039	-70.75
3739.74	-68.75
3742.439	-74.75
3745.136	-69.75
3747.83	-70.75
3750.523	-73.75
3753.213	-71.75
3755.902	-70.75
3758.589	-71.75
3761.273	-76.75
3763.956	-71.75
3766.636	-73.75
3769.315	-75.75
3771.991	-77.75
3774.665	-75.75
3777.338	-74.75
3780.008	-75.75
3782.677	-74.75
3785.343	-73.75
3788.007	-74.75
3790.67	-79.75
3793.33	-77.75
3795.989	-79.75
3798.645	-83.75
3801.299	-76.75
3803.952	-75.75
3806.602	-75.75
3809.251	-79.75
3811.897	-78.75
3814.542	-77.75
3817.184	-77.75
3819.825	-76.75
3822.463	-82.75
3825.1	-77.75
3827.735	-81.75
3830.367	-79.75
3832.998	-83.75
3835.627	-79.75
3838.253	-78.75
3840.878	-78.75
3843.501	-78.75
3846.122	-76.75
3848.741	-79.75
3851.358	-81.75
3853.973	-81.75
3856.586	-82.75
3859.197	-89.75
3861.806	-84.75
3864.414	-83.75
3867.019	-82.75
3869.622	-81.75
3872.224	-79.75
3874.823	-81.75
3877.421	-74.75
3880.016	-73.75
3882.61	-70.75
3885.202	-68.75
3887.792	-76.75
3890.38	-78.75
3892.966	-83.75
3895.55	-82.75
3898.132	-87.75
3900.713	-84.75
3903.291	-81.75
3905.868	-77.75
3908.442	-80.75
3911.015	-80.75
3913.586	-84.75
3916.155	-84.75
3918.722	-80.75
3921.287	-86.75
3923.85	-85.75
3926.411	-87.75
3928.971	-87.75
3931.528	-87.75
3934.084	-84.75
3936.638	-87.75
3939.19	-79.75
3941.74	-83.75
3944.288	-84.75
3946.834	-86.75
3949.378	-84.75
3951.921	-84.75
3954.462	-83.75
3957	-85.75
3959.537	-83.75
3962.072	-86.75
3964.606	-83.75
3967.137	-83.75
3969.667	-88.75
3972.194	-84.75
3974.72	-80.75
3977.244	-84.75
3979.766	-81.75
3982.286	-83.75
3984.805	-82.75
3987.321	-81.75
3989.836	-84.75
3992.349	-78.75
3994.86	-81.75
3997.369	-80.75
3999.877	-80.75
4002.382	-84.75
4004.886	-82.75
4007.388	-83.75
4009.888	-80.75
4012.386	-78.75
4014.883	-83.75
4017.377	-80.75
4019.87	-83.75
4022.361	-82.75
4024.85	-83.75
4027.338	-83.75
4029.823	-83.75
4032.307	-85.75
4034.789	-86.75
4037.269	-82.75
4039.747	-87.75
4042.224	-83.75
4044.699	-84.75
4047.172	-83.75
4049.643	-85.75
4052.112	-82.75
4054.58	-82.75
4057.046	-85.75
4059.51	-87.75
4061.972	-86.75
4064.432	-82.75
4066.891	-83.75
4069.348	-85.75
4071.803	-85.75
4074.256	-83.75
4076.708	-83.75
4079.158	-85.75
4081.606	-83.75
4084.052	-85.75
4086.497	-83.75
4088.939	-83.75
4091.38	-84.75
4093.819	-79.75
4096.257	-86.75
4098.693	-84.75
4101.127	-84.75
4103.559	-85.75
4105.989	-52.75
4108.418	-49.75
4110.845	-45.75
4113.27	-47.75
4115.694	-43.75
4118.115	-34.75
4120.535	-81.75
4122.954	-83.75
4125.37	-81.75
4127.785	-82.75
4130.198	-87.75
4132.609	-85.75
4135.019	-89.75
4137.427	-89.75
4139.833	-88.75
4142.237	-88.75
