Data from B_sub_water_1000000CFU_B1_RamanShift_1.txt Node
Date: Thu Feb 23 12:23:38 IST 2017
User: aro
Spectrometer: QEPB0276
Trigger mode: 0
Integration Time (sec): 5.000000E0
Scans to average: 1
Electric dark correction enabled: true
Nonlinearity correction enabled: false
Boxcar width: 0
XAxis mode: Raman Shifts
Number of Pixels in Spectrum: 1044
>>>>>Begin Spectral Data<<<<<
160.701	-26.38
166.742	-2.38
172.777	78.62
178.805	314.62
184.826	863.62
190.841	1812.62
196.849	2862.62
202.85	3556.62
208.845	3743.62
214.833	3589.62
220.815	3458.62
226.789	3356.62
232.758	3235.62
238.719	3137.62
244.674	3035.62
250.623	2891.62
256.565	2748.62
262.5	2610.62
268.429	2500.62
274.351	2369.62
280.267	2283.62
286.176	2190.62
292.079	2109.62
297.975	2051.62
303.865	1990.62
309.748	1933.62
315.625	1892.62
321.495	1845.62
327.359	1820.62
333.217	1779.62
339.068	1784.62
344.912	1767.62
350.751	1775.62
356.583	1755.62
362.408	1773.62
368.227	1759.62
374.04	1767.62
379.847	1786.62
385.647	1791.62
391.44	1803.62
397.228	1796.62
403.009	1825.62
408.784	1829.62
414.553	1817.62
420.315	1820.62
426.071	1817.62
431.821	1834.62
437.565	1842.62
443.302	1825.62
449.033	1825.62
454.758	1799.62
460.477	1788.62
466.189	1776.62
471.896	1755.62
477.596	1749.62
483.29	1754.62
488.978	1733.62
494.66	1712.62
500.335	1688.62
506.005	1678.62
511.668	1636.62
517.325	1595.62
522.977	1554.62
528.622	1539.62
534.261	1504.62
539.894	1496.62
545.521	1489.62
551.141	1460.62
556.756	1450.62
562.365	1451.62
567.968	1428.62
573.565	1419.62
579.155	1413.62
584.74	1392.62
590.319	1381.62
595.892	1391.62
601.459	1378.62
607.02	1362.62
612.575	1344.62
618.124	1314.62
623.667	1314.62
629.204	1312.62
634.735	1276.62
640.261	1265.62
645.781	1250.62
651.294	1262.62
656.802	1251.62
662.304	1242.62
667.8	1240.62
673.29	1218.62
678.775	1224.62
684.254	1220.62
689.726	1206.62
695.193	1199.62
700.655	1187.62
706.11	1174.62
711.56	1164.62
717.004	1140.62
722.442	1154.62
727.874	1139.62
733.301	1127.62
738.722	1136.62
744.137	1120.62
749.547	1112.62
754.951	1119.62
760.349	1111.62
765.741	1100.62
771.128	1095.62
776.509	1113.62
781.885	1107.62
787.254	1089.62
792.618	1093.62
797.977	1078.62
803.33	1071.62
808.677	1062.62
814.019	1046.62
819.355	1034.62
824.686	1015.62
830.011	1012.62
835.33	1020.62
840.644	1006.62
845.952	990.62
851.255	984.62
856.552	966.62
861.844	948.62
867.13	952.62
872.41	948.62
877.686	943.62
882.955	920.62
888.219	909.62
893.478	884.62
898.731	868.62
903.979	858.62
909.221	833.62
914.458	828.62
919.69	826.62
924.916	826.62
930.136	825.62
935.351	804.62
940.561	791.62
945.766	801.62
950.965	799.62
956.158	780.62
961.347	780.62
966.529	754.62
971.707	756.62
976.879	742.62
982.046	729.62
987.208	732.62
992.364	722.62
997.515	737.62
1002.66	738.62
1007.801	738.62
1012.936	739.62
1018.066	747.62
1023.19	739.62
1028.309	752.62
1033.423	753.62
1038.532	750.62
1043.636	740.62
1048.734	739.62
1053.827	710.62
1058.915	712.62
1063.998	707.62
1069.075	698.62
1074.147	707.62
1079.214	700.62
1084.276	711.62
1089.333	721.62
1094.385	730.62
1099.431	726.62
1104.472	720.62
1109.509	714.62
1114.54	703.62
1119.565	691.62
1124.586	692.62
1129.602	682.62
1134.613	661.62
1139.618	681.62
1144.619	673.62
1149.614	679.62
1154.604	676.62
1159.589	686.62
1164.57	690.62
1169.545	688.62
1174.515	686.62
1179.48	682.62
1184.44	682.62
1189.395	678.62
1194.345	668.62
1199.29	651.62
1204.23	660.62
1209.165	686.62
1214.095	676.62
1219.021	686.62
1223.941	680.62
1228.856	692.62
1233.766	694.62
1238.672	692.62
1243.572	687.62
1248.467	668.62
1253.358	666.62
1258.244	652.62
1263.124	646.62
1268	647.62
1272.871	629.62
1277.737	625.62
1282.599	617.62
1287.455	620.62
1292.306	623.62
1297.153	635.62
1301.995	625.62
1306.832	641.62
1311.664	644.62
1316.491	641.62
1321.314	635.62
1326.132	627.62
1330.945	611.62
1335.753	598.62
1340.556	587.62
1345.354	579.62
1350.148	564.62
1354.937	565.62
1359.722	576.62
1364.501	574.62
1369.276	576.62
1374.046	599.62
1378.811	600.62
1383.572	595.62
1388.327	594.62
1393.079	593.62
1397.825	569.62
1402.567	553.62
1407.304	552.62
1412.036	544.62
1416.764	547.62
1421.487	546.62
1426.205	548.62
1430.919	550.62
1435.628	552.62
1440.333	560.62
1445.032	571.62
1449.727	565.62
1454.418	562.62
1459.104	557.62
1463.785	546.62
1468.462	544.62
1473.134	542.62
1477.802	534.62
1482.465	530.62
1487.123	530.62
1491.777	536.62
1496.426	543.62
1501.071	554.62
1505.711	569.62
1510.347	581.62
1514.978	580.62
1519.604	595.62
1524.226	600.62
1528.844	602.62
1533.457	604.62
1538.065	610.62
1542.669	606.62
1547.269	596.62
1551.864	615.62
1556.454	604.62
1561.041	618.62
1565.622	631.62
1570.199	641.62
1574.772	652.62
1579.34	654.62
1583.904	686.62
1588.464	700.62
1593.019	711.62
1597.569	718.62
1602.115	732.62
1606.657	739.62
1611.195	754.62
1615.728	751.62
1620.256	779.62
1624.78	795.62
1629.3	808.62
1633.816	822.62
1638.327	824.62
1642.834	836.62
1647.336	852.62
1651.834	852.62
1656.328	850.62
1660.817	849.62
1665.302	829.62
1669.783	816.62
1674.259	779.62
1678.732	734.62
1683.199	718.62
1687.663	662.62
1692.122	643.62
1696.577	608.62
1701.028	591.62
1705.474	596.62
1709.917	582.62
1714.355	546.62
1718.788	538.62
1723.218	503.62
1727.643	471.62
1732.064	471.62
1736.481	439.62
1740.893	436.62
1745.301	412.62
1749.705	396.62
1754.105	376.62
1758.501	360.62
1762.893	357.62
1767.28	358.62
1771.663	336.62
1776.042	330.62
1780.417	331.62
1784.787	320.62
1789.154	325.62
1793.516	327.62
1797.874	342.62
1802.228	332.62
1806.578	339.62
1810.924	326.62
1815.266	328.62
1819.603	324.62
1823.937	312.62
1828.266	300.62
1832.591	302.62
1836.913	294.62
1841.23	289.62
1845.543	292.62
1849.852	292.62
1854.156	288.62
1858.457	287.62
1862.754	287.62
1867.047	278.62
1871.335	282.62
1875.62	277.62
1879.9	280.62
1884.177	281.62
1888.449	292.62
1892.718	286.62
1896.982	286.62
1901.243	291.62
1905.499	286.62
1909.752	284.62
1914	290.62
1918.245	289.62
1922.485	282.62
1926.722	291.62
1930.954	286.62
1935.183	301.62
1939.408	298.62
1943.628	310.62
1947.845	312.62
1952.058	306.62
1956.267	313.62
1960.472	301.62
1964.673	294.62
1968.87	299.62
1973.063	293.62
1977.252	298.62
1981.438	286.62
1985.619	300.62
1989.797	290.62
1993.971	292.62
1998.14	293.62
2002.306	292.62
2006.469	290.62
2010.627	291.62
2014.781	292.62
2018.932	291.62
2023.078	293.62
2027.221	294.62
2031.36	288.62
2035.495	290.62
2039.627	283.62
2043.754	280.62
2047.878	285.62
2051.998	282.62
2056.114	280.62
2060.226	281.62
2064.334	285.62
2068.439	288.62
2072.54	296.62
2076.637	305.62
2080.73	306.62
2084.82	305.62
2088.906	305.62
2092.988	308.62
2097.066	301.62
2101.14	297.62
2105.211	302.62
2109.278	298.62
2113.342	296.62
2117.401	299.62
2121.457	302.62
2125.509	291.62
2129.558	282.62
2133.602	286.62
2137.643	289.62
2141.681	286.62
2145.714	292.62
2149.744	282.62
2153.77	287.62
2157.793	278.62
2161.812	277.62
2165.827	264.62
2169.838	262.62
2173.846	255.62
2177.851	249.62
2181.851	253.62
2185.848	245.62
2189.841	241.62
2193.831	236.62
2197.817	229.62
2201.799	234.62
2205.778	231.62
2209.753	226.62
2213.725	230.62
2217.693	221.62
2221.657	225.62
2225.618	218.62
2229.575	221.62
2233.529	222.62
2237.479	214.62
2241.425	219.62
2245.368	206.62
2249.307	207.62
2253.243	196.62
2257.175	201.62
2261.104	192.62
2265.029	194.62
2268.95	178.62
2272.868	180.62
2276.783	179.62
2280.694	178.62
2284.601	168.62
2288.505	175.62
2292.405	164.62
2296.302	175.62
2300.195	167.62
2304.085	157.62
2307.971	163.62
2311.854	150.62
2315.734	130.62
2319.609	140.62
2323.482	142.62
2327.351	135.62
2331.216	139.62
2335.078	133.62
2338.937	132.62
2342.792	133.62
2346.643	125.62
2350.492	128.62
2354.336	136.62
2358.178	123.62
2362.015	130.62
2365.85	127.62
2369.681	132.62
2373.508	124.62
2377.333	128.62
2381.153	129.62
2384.971	119.62
2388.785	124.62
2392.595	123.62
2396.402	126.62
2400.206	121.62
2404.007	123.62
2407.804	117.62
2411.597	115.62
2415.388	111.62
2419.174	112.62
2422.958	114.62
2426.738	107.62
2430.515	112.62
2434.289	106.62
2438.059	108.62
2441.825	110.62
2445.589	103.62
2449.349	107.62
2453.106	99.62
2456.859	102.62
2460.61	100.62
2464.356	96.62
2468.1	93.62
2471.84	93.62
2475.577	87.62
2479.311	94.62
2483.041	87.62
2486.768	93.62
2490.492	91.62
2494.213	92.62
2497.93	88.62
2501.644	90.62
2505.355	91.62
2509.062	92.62
2512.766	91.62
2516.467	87.62
2520.165	91.62
2523.859	92.62
2527.551	85.62
2531.239	84.62
2534.923	83.62
2538.605	82.62
2542.283	81.62
2545.958	83.62
2549.63	88.62
2553.299	87.62
2556.964	80.62
2560.626	82.62
2564.285	76.62
2567.941	79.62
2571.594	68.62
2575.243	75.62
2578.89	70.62
2582.533	70.62
2586.173	72.62
2589.809	71.62
2593.443	71.62
2597.073	64.62
2600.701	77.62
2604.325	66.62
2607.946	75.62
2611.564	66.62
2615.178	72.62
2618.79	65.62
2622.398	68.62
2626.004	63.62
2629.606	63.62
2633.205	61.62
2636.801	67.62
2640.394	66.62
2643.983	68.62
2647.57	63.62
2651.153	62.62
2654.734	58.62
2658.311	53.62
2661.885	56.62
2665.456	57.62
2669.025	51.62
2672.589	44.62
2676.151	48.62
2679.71	57.62
2683.266	50.62
2686.819	56.62
2690.368	53.62
2693.915	51.62
2697.458	46.62
2700.999	47.62
2704.536	43.62
2708.071	49.62
2711.602	39.62
2715.13	49.62
2718.656	43.62
2722.178	45.62
2725.697	45.62
2729.214	43.62
2732.727	43.62
2736.237	49.62
2739.744	43.62
2743.249	52.62
2746.75	48.62
2750.248	52.62
2753.743	53.62
2757.236	51.62
2760.725	55.62
2764.211	53.62
2767.695	58.62
2771.175	55.62
2774.652	57.62
2778.127	63.62
2781.598	60.62
2785.067	60.62
2788.532	59.62
2791.995	63.62
2795.455	59.62
2798.911	61.62
2802.365	61.62
2805.816	62.62
2809.264	65.62
2812.709	60.62
2816.151	62.62
2819.59	65.62
2823.026	66.62
2826.46	61.62
2829.89	70.62
2833.318	73.62
2836.742	73.62
2840.164	76.62
2843.583	78.62
2846.999	82.62
2850.412	77.62
2853.822	79.62
2857.229	78.62
2860.634	79.62
2864.035	87.62
2867.434	91.62
2870.83	98.62
2874.223	95.62
2877.613	99.62
2881	100.62
2884.385	108.62
2887.766	105.62
2891.145	105.62
2894.521	96.62
2897.894	116.62
2901.264	112.62
2904.631	108.62
2907.996	116.62
2911.358	119.62
2914.717	126.62
2918.073	132.62
2921.426	128.62
2924.777	133.62
2928.124	141.62
2931.469	142.62
2934.811	142.62
2938.15	144.62
2941.487	152.62
2944.821	164.62
2948.152	163.62
2951.48	171.62
2954.805	162.62
2958.128	187.62
2961.447	177.62
2964.765	185.62
2968.079	192.62
2971.39	197.62
2974.699	213.62
2978.005	213.62
2981.308	231.62
2984.609	235.62
2987.907	242.62
2991.202	244.62
2994.494	266.62
2997.784	273.62
3001.07	288.62
3004.355	294.62
3007.636	306.62
3010.915	314.62
3014.191	325.62
3017.464	317.62
3020.734	336.62
3024.002	339.62
3027.267	347.62
3030.53	360.62
3033.789	367.62
3037.046	376.62
3040.301	383.62
3043.552	391.62
3046.801	390.62
3050.048	420.62
3053.291	430.62
3056.532	454.62
3059.771	463.62
3063.006	476.62
3066.239	488.62
3069.469	503.62
3072.697	525.62
3075.922	542.62
3079.144	562.62
3082.364	580.62
3085.581	589.62
3088.795	603.62
3092.007	620.62
3095.216	630.62
3098.423	641.62
3101.627	671.62
3104.828	677.62
3108.026	706.62
3111.222	714.62
3114.416	733.62
3117.607	760.62
3120.795	776.62
3123.98	794.62
3127.163	813.62
3130.344	835.62
3133.521	859.62
3136.696	863.62
3139.869	893.62
3143.039	905.62
3146.206	928.62
3149.371	954.62
3152.533	952.62
3155.693	947.62
3158.85	960.62
3162.005	962.62
3165.157	967.62
3168.306	982.62
3171.453	997.62
3174.597	977.62
3177.739	996.62
3180.878	988.62
3184.014	998.62
3187.149	995.62
3190.28	1009.62
3193.409	1010.62
3196.536	1013.62
3199.659	1020.62
3202.781	1031.62
3205.9	1024.62
3209.016	1022.62
3212.13	1011.62
3215.241	1019.62
3218.35	1003.62
3221.456	1008.62
3224.56	996.62
3227.661	986.62
3230.76	982.62
3233.856	989.62
3236.95	962.62
3240.041	954.62
3243.13	955.62
3246.216	953.62
3249.3	967.62
3252.382	942.62
3255.46	934.62
3258.537	938.62
3261.611	946.62
3264.682	924.62
3267.751	925.62
3270.818	924.62
3273.882	937.62
3276.943	922.62
3280.002	913.62
3283.059	897.62
3286.113	904.62
3289.165	890.62
3292.214	854.62
3295.261	871.62
3298.306	850.62
3301.348	837.62
3304.387	805.62
3307.425	808.62
3310.459	791.62
3313.492	786.62
3316.521	769.62
3319.549	750.62
3322.574	757.62
3325.597	749.62
3328.617	744.62
3331.635	737.62
3334.65	744.62
3337.663	727.62
3340.674	724.62
3343.682	738.62
3346.688	727.62
3349.691	719.62
3352.692	717.62
3355.691	712.62
3358.687	709.62
3361.681	698.62
3364.673	694.62
3367.662	681.62
3370.649	670.62
3373.633	668.62
3376.615	659.62
3379.595	663.62
3382.572	640.62
3385.547	636.62
3388.52	624.62
3391.49	626.62
3394.458	607.62
3397.424	595.62
3400.387	596.62
3403.348	582.62
3406.307	587.62
3409.263	579.62
3412.217	575.62
3415.168	564.62
3418.118	565.62
3421.065	556.62
3424.009	544.62
3426.951	545.62
3429.891	532.62
3432.829	524.62
3435.764	509.62
3438.697	507.62
3441.628	489.62
3444.557	476.62
3447.483	467.62
3450.407	453.62
3453.328	437.62
3456.247	418.62
3459.164	420.62
3462.079	407.62
3464.991	393.62
3467.902	385.62
3470.809	370.62
3473.715	359.62
3476.618	353.62
3479.519	343.62
3482.418	328.62
3485.315	317.62
3488.209	319.62
3491.101	302.62
3493.99	297.62
3496.878	287.62
3499.763	279.62
3502.646	268.62
3505.527	269.62
3508.405	257.62
3511.281	245.62
3514.155	241.62
3517.027	226.62
3519.897	221.62
3522.764	206.62
3525.629	192.62
3528.492	185.62
3531.352	172.62
3534.211	168.62
3537.067	158.62
3539.921	148.62
3542.773	140.62
3545.622	133.62
3548.469	123.62
3551.315	118.62
3554.157	116.62
3556.998	105.62
3559.837	97.62
3562.673	89.62
3565.507	87.62
3568.339	82.62
3571.169	79.62
3573.996	64.62
3576.822	70.62
3579.645	63.62
3582.466	54.62
3585.285	59.62
3588.101	53.62
3590.916	43.62
3593.728	35.62
3596.538	34.62
3599.346	30.62
3602.152	28.62
3604.956	21.62
3607.757	17.62
3610.556	7.62
3613.354	10.62
3616.149	4.62
3618.942	2.62
3621.732	1.62
3624.521	-0.38
3627.307	-4.38
3630.092	-6.38
3632.874	-7.38
3635.654	-12.38
3638.432	-17.38
3641.208	-14.38
3643.982	-24.38
3646.753	-28.38
3649.523	-25.38
3652.29	-26.38
3655.055	-35.38
3657.818	-32.38
3660.579	-30.38
3663.338	-34.38
3666.095	-35.38
3668.849	-37.38
3671.602	-42.38
3674.352	-45.38
3677.101	-48.38
3679.847	-52.38
3682.591	-53.38
3685.333	-62.38
3688.073	-59.38
3690.811	-58.38
3693.547	-54.38
3696.281	-56.38
3699.013	-57.38
3701.742	-59.38
3704.47	-61.38
3707.195	-56.38
3709.919	-62.38
3712.64	-67.38
3715.359	-71.38
3718.076	-69.38
3720.792	-67.38
3723.505	-70.38
3726.216	-74.38
3728.925	-67.38
3731.632	-69.38
3734.336	-72.38
3737.039	-69.38
3739.74	-69.38
3742.439	-75.38
3745.136	-73.38
3747.83	-75.38
3750.523	-75.38
3753.213	-75.38
3755.902	-76.38
3758.589	-75.38
3761.273	-78.38
3763.956	-75.38
3766.636	-73.38
3769.315	-77.38
3771.991	-79.38
3774.665	-78.38
3777.338	-76.38
3780.008	-80.38
3782.677	-77.38
3785.343	-77.38
3788.007	-77.38
3790.67	-82.38
3793.33	-81.38
3795.989	-82.38
3798.645	-83.38
3801.299	-83.38
3803.952	-76.38
3806.602	-77.38
3809.251	-79.38
3811.897	-83.38
3814.542	-82.38
3817.184	-81.38
3819.825	-80.38
3822.463	-85.38
3825.1	-80.38
3827.735	-85.38
3830.367	-81.38
3832.998	-85.38
3835.627	-82.38
3838.253	-84.38
3840.878	-79.38
3843.501	-79.38
3846.122	-83.38
3848.741	-80.38
3851.358	-80.38
3853.973	-81.38
3856.586	-86.38
3859.197	-92.38
3861.806	-86.38
3864.414	-87.38
3867.019	-88.38
3869.622	-89.38
3872.224	-82.38
3874.823	-84.38
3877.421	-80.38
3880.016	-77.38
3882.61	-74.38
3885.202	-72.38
3887.792	-79.38
3890.38	-83.38
3892.966	-87.38
3895.55	-87.38
3898.132	-87.38
3900.713	-89.38
3903.291	-84.38
3905.868	-84.38
3908.442	-85.38
3911.015	-84.38
3913.586	-87.38
3916.155	-88.38
3918.722	-82.38
3921.287	-89.38
3923.85	-89.38
3926.411	-90.38
3928.971	-87.38
3931.528	-90.38
3934.084	-86.38
3936.638	-84.38
3939.19	-84.38
3941.74	-87.38
3944.288	-86.38
3946.834	-88.38
3949.378	-84.38
3951.921	-90.38
3954.462	-85.38
3957	-90.38
3959.537	-90.38
3962.072	-88.38
3964.606	-88.38
3967.137	-89.38
3969.667	-87.38
3972.194	-85.38
3974.72	-79.38
3977.244	-86.38
3979.766	-84.38
3982.286	-87.38
3984.805	-85.38
3987.321	-86.38
3989.836	-87.38
3992.349	-83.38
3994.86	-84.38
3997.369	-82.38
3999.877	-87.38
4002.382	-87.38
4004.886	-85.38
4007.388	-86.38
4009.888	-81.38
4012.386	-82.38
4014.883	-88.38
4017.377	-86.38
4019.87	-84.38
4022.361	-85.38
4024.85	-84.38
4027.338	-90.38
4029.823	-88.38
4032.307	-89.38
4034.789	-88.38
4037.269	-89.38
4039.747	-87.38
4042.224	-85.38
4044.699	-85.38
4047.172	-84.38
4049.643	-83.38
4052.112	-85.38
4054.58	-90.38
4057.046	-89.38
4059.51	-91.38
4061.972	-90.38
4064.432	-83.38
4066.891	-87.38
4069.348	-86.38
4071.803	-85.38
4074.256	-84.38
4076.708	-86.38
4079.158	-85.38
4081.606	-85.38
4084.052	-86.38
4086.497	-89.38
4088.939	-92.38
4091.38	-88.38
4093.819	-89.38
4096.257	-91.38
4098.693	-88.38
4101.127	-90.38
4103.559	-89.38
4105.989	-57.38
4108.418	-53.38
4110.845	-53.38
4113.27	-50.38
4115.694	-44.38
4118.115	-34.38
4120.535	-87.38
4122.954	-87.38
4125.37	-88.38
4127.785	-88.38
4130.198	-89.38
4132.609	-86.38
4135.019	-89.38
4137.427	-91.38
4139.833	-90.38
4142.237	-93.38
