Data from B_sub_water_1000000CFU_B2_RamanShift_1.txt Node
Date: Thu Feb 23 12:24:28 IST 2017
User: aro
Spectrometer: QEPB0276
Trigger mode: 0
Integration Time (sec): 5.000000E0
Scans to average: 1
Electric dark correction enabled: true
Nonlinearity correction enabled: false
Boxcar width: 0
XAxis mode: Raman Shifts
Number of Pixels in Spectrum: 1044
>>>>>Begin Spectral Data<<<<<
160.701	-23
166.742	3
172.777	73
178.805	305
184.826	853
190.841	1775
196.849	2839
202.85	3546
208.845	3707
214.833	3598
220.815	3447
226.789	3322
232.758	3244
238.719	3160
244.674	3035
250.623	2897
256.565	2749
262.5	2640
268.429	2500
274.351	2400
280.267	2304
286.176	2207
292.079	2150
297.975	2072
303.865	2026
309.748	1976
315.625	1923
321.495	1889
327.359	1851
333.217	1849
339.068	1822
344.912	1819
350.751	1818
356.583	1823
362.408	1815
368.227	1820
374.04	1819
379.847	1824
385.647	1843
391.44	1850
397.228	1851
403.009	1876
408.784	1864
414.553	1892
420.315	1876
426.071	1875
431.821	1886
437.565	1888
443.302	1879
449.033	1868
454.758	1856
460.477	1852
466.189	1845
471.896	1816
477.596	1811
483.29	1804
488.978	1791
494.66	1779
500.335	1762
506.005	1730
511.668	1703
517.325	1639
522.977	1630
528.622	1609
534.261	1562
539.894	1565
545.521	1552
551.141	1543
556.756	1534
562.365	1522
567.968	1511
573.565	1504
579.155	1479
584.74	1479
590.319	1464
595.892	1443
601.459	1436
607.02	1431
612.575	1430
618.124	1410
623.667	1389
629.204	1375
634.735	1373
640.261	1343
645.781	1331
651.294	1331
656.802	1323
662.304	1316
667.8	1321
673.29	1297
678.775	1301
684.254	1285
689.726	1312
695.193	1274
700.655	1282
706.11	1281
711.56	1254
717.004	1247
722.442	1233
727.874	1244
733.301	1222
738.722	1211
744.137	1211
749.547	1211
754.951	1200
760.349	1190
765.741	1189
771.128	1191
776.509	1187
781.885	1208
787.254	1186
792.618	1181
797.977	1178
803.33	1171
808.677	1159
814.019	1146
819.355	1123
824.686	1119
830.011	1118
835.33	1102
840.644	1087
845.952	1089
851.255	1084
856.552	1072
861.844	1069
867.13	1060
872.41	1043
877.686	1036
882.955	1030
888.219	992
893.478	983
898.731	971
903.979	944
909.221	948
914.458	941
919.69	932
924.916	933
930.136	928
935.351	928
940.561	920
945.766	925
950.965	915
956.158	898
961.347	890
966.529	881
971.707	851
976.879	850
982.046	852
987.208	833
992.364	838
997.515	847
1002.66	852
1007.801	851
1012.936	860
1018.066	859
1023.19	868
1028.309	868
1033.423	872
1038.532	853
1043.636	850
1048.734	839
1053.827	836
1058.915	827
1063.998	822
1069.075	824
1074.147	825
1079.214	828
1084.276	831
1089.333	830
1094.385	841
1099.431	853
1104.472	849
1109.509	840
1114.54	826
1119.565	814
1124.586	806
1129.602	785
1134.613	787
1139.618	794
1144.619	781
1149.614	796
1154.604	789
1159.589	796
1164.57	798
1169.545	811
1174.515	796
1179.48	796
1184.44	793
1189.395	791
1194.345	782
1199.29	792
1204.23	775
1209.165	790
1214.095	782
1219.021	802
1223.941	819
1228.856	818
1233.766	806
1238.672	810
1243.572	811
1248.467	804
1253.358	801
1258.244	770
1263.124	757
1268	736
1272.871	750
1277.737	751
1282.599	737
1287.455	741
1292.306	741
1297.153	744
1301.995	756
1306.832	760
1311.664	753
1316.491	758
1321.314	757
1326.132	732
1330.945	720
1335.753	717
1340.556	703
1345.354	686
1350.148	683
1354.937	669
1359.722	676
1364.501	666
1369.276	698
1374.046	704
1378.811	711
1383.572	719
1388.327	721
1393.079	706
1397.825	693
1402.567	673
1407.304	660
1412.036	671
1416.764	663
1421.487	659
1426.205	656
1430.919	654
1435.628	668
1440.333	671
1445.032	679
1449.727	684
1454.418	682
1459.104	674
1463.785	671
1468.462	655
1473.134	656
1477.802	661
1482.465	646
1487.123	650
1491.777	648
1496.426	657
1501.071	666
1505.711	677
1510.347	699
1514.978	700
1519.604	718
1524.226	718
1528.844	716
1533.457	719
1538.065	725
1542.669	725
1547.269	721
1551.864	724
1556.454	732
1561.041	739
1565.622	759
1570.199	764
1574.772	759
1579.34	776
1583.904	788
1588.464	806
1593.019	825
1597.569	825
1602.115	843
1606.657	849
1611.195	858
1615.728	868
1620.256	893
1624.78	902
1629.3	915
1633.816	920
1638.327	942
1642.834	948
1647.336	953
1651.834	939
1656.328	952
1660.817	931
1665.302	921
1669.783	905
1674.259	883
1678.732	849
1683.199	799
1687.663	765
1692.122	728
1696.577	698
1701.028	699
1705.474	691
1709.917	680
1714.355	661
1718.788	636
1723.218	606
1727.643	587
1732.064	572
1736.481	547
1740.893	532
1745.301	529
1749.705	497
1754.105	482
1758.501	468
1762.893	464
1767.28	437
1771.663	439
1776.042	442
1780.417	430
1784.787	424
1789.154	435
1793.516	443
1797.874	452
1802.228	455
1806.578	446
1810.924	447
1815.266	446
1819.603	433
1823.937	420
1828.266	414
1832.591	408
1836.913	399
1841.23	395
1845.543	387
1849.852	400
1854.156	396
1858.457	383
1862.754	399
1867.047	399
1871.335	393
1875.62	386
1879.9	387
1884.177	390
1888.449	402
1892.718	389
1896.982	390
1901.243	394
1905.499	381
1909.752	398
1914	389
1918.245	389
1922.485	391
1926.722	402
1930.954	393
1935.183	400
1939.408	402
1943.628	414
1947.845	416
1952.058	414
1956.267	404
1960.472	407
1964.673	402
1968.87	400
1973.063	397
1977.252	388
1981.438	391
1985.619	390
1989.797	390
1993.971	382
1998.14	388
2002.306	384
2006.469	390
2010.627	388
2014.781	393
2018.932	387
2023.078	384
2027.221	393
2031.36	389
2035.495	388
2039.627	378
2043.754	368
2047.878	376
2051.998	373
2056.114	376
2060.226	374
2064.334	375
2068.439	387
2072.54	387
2076.637	389
2080.73	390
2084.82	390
2088.906	400
2092.988	392
2097.066	388
2101.14	390
2105.211	386
2109.278	387
2113.342	397
2117.401	388
2121.457	388
2125.509	388
2129.558	381
2133.602	378
2137.643	380
2141.681	388
2145.714	372
2149.744	371
2153.77	378
2157.793	362
2161.812	365
2165.827	348
2169.838	342
2173.846	338
2177.851	327
2181.851	329
2185.848	332
2189.841	319
2193.831	321
2197.817	321
2201.799	309
2205.778	311
2209.753	302
2213.725	308
2217.693	311
2221.657	307
2225.618	303
2229.575	303
2233.529	305
2237.479	302
2241.425	296
2245.368	286
2249.307	292
2253.243	281
2257.175	278
2261.104	272
2265.029	273
2268.95	255
2272.868	257
2276.783	253
2280.694	247
2284.601	250
2288.505	250
2292.405	241
2296.302	246
2300.195	244
2304.085	237
2307.971	226
2311.854	220
2315.734	214
2319.609	209
2323.482	205
2327.351	208
2331.216	198
2335.078	199
2338.937	202
2342.792	208
2346.643	195
2350.492	202
2354.336	208
2358.178	191
2362.015	199
2365.85	192
2369.681	198
2373.508	189
2377.333	190
2381.153	194
2384.971	195
2388.785	199
2392.595	187
2396.402	192
2400.206	191
2404.007	181
2407.804	184
2411.597	175
2415.388	179
2419.174	181
2422.958	173
2426.738	169
2430.515	182
2434.289	165
2438.059	169
2441.825	171
2445.589	172
2449.349	166
2453.106	164
2456.859	153
2460.61	155
2464.356	153
2468.1	158
2471.84	150
2475.577	145
2479.311	153
2483.041	155
2486.768	153
2490.492	153
2494.213	148
2497.93	150
2501.644	146
2505.355	154
2509.062	147
2512.766	145
2516.467	153
2520.165	148
2523.859	153
2527.551	153
2531.239	144
2534.923	142
2538.605	143
2542.283	141
2545.958	145
2549.63	144
2553.299	135
2556.964	134
2560.626	139
2564.285	135
2567.941	139
2571.594	134
2575.243	130
2578.89	131
2582.533	132
2586.173	131
2589.809	123
2593.443	133
2597.073	125
2600.701	127
2604.325	119
2607.946	123
2611.564	123
2615.178	125
2618.79	122
2622.398	124
2626.004	123
2629.606	118
2633.205	117
2636.801	124
2640.394	119
2643.983	116
2647.57	116
2651.153	112
2654.734	100
2658.311	102
2661.885	105
2665.456	102
2669.025	105
2672.589	109
2676.151	104
2679.71	102
2683.266	97
2686.819	100
2690.368	93
2693.915	94
2697.458	92
2700.999	88
2704.536	88
2708.071	88
2711.602	91
2715.13	92
2718.656	87
2722.178	84
2725.697	87
2729.214	91
2732.727	85
2736.237	84
2739.744	90
2743.249	91
2746.75	89
2750.248	97
2753.743	89
2757.236	94
2760.725	97
2764.211	104
2767.695	98
2771.175	99
2774.652	100
2778.127	103
2781.598	100
2785.067	95
2788.532	98
2791.995	95
2795.455	101
2798.911	104
2802.365	98
2805.816	95
2809.264	104
2812.709	91
2816.151	104
2819.59	97
2823.026	100
2826.46	98
2829.89	106
2833.318	101
2836.742	108
2840.164	104
2843.583	110
2846.999	111
2850.412	109
2853.822	115
2857.229	114
2860.634	123
2864.035	118
2867.434	122
2870.83	126
2874.223	136
2877.613	133
2881	137
2884.385	132
2887.766	136
2891.145	133
2894.521	132
2897.894	134
2901.264	140
2904.631	131
2907.996	142
2911.358	151
2914.717	151
2918.073	149
2921.426	150
2924.777	162
2928.124	158
2931.469	166
2934.811	170
2938.15	170
2941.487	178
2944.821	191
2948.152	187
2951.48	194
2954.805	190
2958.128	195
2961.447	203
2964.765	206
2968.079	199
2971.39	214
2974.699	232
2978.005	237
2981.308	241
2984.609	256
2987.907	260
2991.202	266
2994.494	284
2997.784	290
3001.07	296
3004.355	307
3007.636	307
3010.915	332
3014.191	335
3017.464	341
3020.734	340
3024.002	359
3027.267	359
3030.53	367
3033.789	376
3037.046	384
3040.301	387
3043.552	403
3046.801	403
3050.048	417
3053.291	435
3056.532	446
3059.771	466
3063.006	480
3066.239	498
3069.469	503
3072.697	524
3075.922	533
3079.144	543
3082.364	574
3085.581	582
3088.795	593
3092.007	614
3095.216	630
3098.423	645
3101.627	653
3104.828	680
3108.026	696
3111.222	711
3114.416	729
3117.607	743
3120.795	762
3123.98	792
3127.163	795
3130.344	815
3133.521	845
3136.696	853
3139.869	867
3143.039	893
3146.206	895
3149.371	916
3152.533	921
3155.693	929
3158.85	939
3162.005	947
3165.157	948
3168.306	951
3171.453	952
3174.597	954
3177.739	964
3180.878	970
3184.014	970
3187.149	970
3190.28	971
3193.409	982
3196.536	982
3199.659	986
3202.781	1005
3205.9	992
3209.016	982
3212.13	986
3215.241	991
3218.35	981
3221.456	975
3224.56	977
3227.661	956
3230.76	956
3233.856	946
3236.95	934
3240.041	936
3243.13	934
3246.216	917
3249.3	909
3252.382	902
3255.46	899
3258.537	898
3261.611	898
3264.682	886
3267.751	912
3270.818	894
3273.882	895
3276.943	891
3280.002	876
3283.059	870
3286.113	864
3289.165	852
3292.214	840
3295.261	830
3298.306	816
3301.348	793
3304.387	778
3307.425	774
3310.459	759
3313.492	755
3316.521	754
3319.549	742
3322.574	728
3325.597	734
3328.617	719
3331.635	723
3334.65	706
3337.663	708
3340.674	700
3343.682	700
3346.688	700
3349.691	696
3352.692	692
3355.691	696
3358.687	681
3361.681	669
3364.673	651
3367.662	663
3370.649	653
3373.633	646
3376.615	639
3379.595	636
3382.572	614
3385.547	610
3388.52	589
3391.49	592
3394.458	588
3397.424	582
3400.387	569
3403.348	556
3406.307	558
3409.263	552
3412.217	555
3415.168	544
3418.118	527
3421.065	530
3424.009	512
3426.951	513
3429.891	508
3432.829	515
3435.764	493
3438.697	477
3441.628	476
3444.557	454
3447.483	455
3450.407	435
3453.328	417
3456.247	405
3459.164	401
3462.079	386
3464.991	372
3467.902	365
3470.809	366
3473.715	346
3476.618	337
3479.519	323
3482.418	327
3485.315	317
3488.209	304
3491.101	290
3493.99	281
3496.878	266
3499.763	263
3502.646	258
3505.527	253
3508.405	243
3511.281	237
3514.155	229
3517.027	223
3519.897	208
3522.764	198
3525.629	188
3528.492	180
3531.352	165
3534.211	154
3537.067	151
3539.921	135
3542.773	141
3545.622	132
3548.469	126
3551.315	115
3554.157	107
3556.998	105
3559.837	93
3562.673	92
3565.507	80
3568.339	78
3571.169	74
3573.996	67
3576.822	67
3579.645	59
3582.466	50
3585.285	47
3588.101	44
3590.916	39
3593.728	34
3596.538	39
3599.346	26
3602.152	20
3604.956	24
3607.757	16
3610.556	15
3613.354	11
3616.149	2
3618.942	4
3621.732	1
3624.521	2
3627.307	-8
3630.092	-9
3632.874	-5
3635.654	-10
3638.432	-18
3641.208	-15
3643.982	-21
3646.753	-28
3649.523	-28
3652.29	-29
3655.055	-34
3657.818	-33
3660.579	-35
3663.338	-35
3666.095	-34
3668.849	-38
3671.602	-40
3674.352	-44
3677.101	-49
3679.847	-49
3682.591	-54
3685.333	-58
3688.073	-58
3690.811	-61
3693.547	-57
3696.281	-59
3699.013	-61
3701.742	-57
3704.47	-59
3707.195	-56
3709.919	-60
3712.64	-63
3715.359	-65
3718.076	-67
3720.792	-68
3723.505	-67
3726.216	-71
3728.925	-67
3731.632	-69
3734.336	-72
3737.039	-75
3739.74	-71
3742.439	-76
3745.136	-72
3747.83	-74
3750.523	-76
3753.213	-75
3755.902	-68
3758.589	-69
3761.273	-73
3763.956	-73
3766.636	-74
3769.315	-77
3771.991	-78
3774.665	-81
3777.338	-77
3780.008	-79
3782.677	-75
3785.343	-76
3788.007	-76
3790.67	-81
3793.33	-75
3795.989	-83
3798.645	-82
3801.299	-80
3803.952	-78
3806.602	-80
3809.251	-82
3811.897	-84
3814.542	-82
3817.184	-79
3819.825	-76
3822.463	-82
3825.1	-78
3827.735	-77
3830.367	-76
3832.998	-87
3835.627	-78
3838.253	-79
3840.878	-85
3843.501	-84
3846.122	-86
3848.741	-81
3851.358	-81
3853.973	-83
3856.586	-83
3859.197	-83
3861.806	-81
3864.414	-86
3867.019	-86
3869.622	-85
3872.224	-83
3874.823	-80
3877.421	-81
3880.016	-75
3882.61	-75
3885.202	-74
3887.792	-82
3890.38	-80
3892.966	-81
3895.55	-87
3898.132	-83
3900.713	-85
3903.291	-82
3905.868	-83
3908.442	-83
3911.015	-82
3913.586	-85
3916.155	-86
3918.722	-83
3921.287	-87
3923.85	-87
3926.411	-88
3928.971	-85
3931.528	-87
3934.084	-85
3936.638	-85
3939.19	-79
3941.74	-84
3944.288	-84
3946.834	-89
3949.378	-82
3951.921	-86
3954.462	-85
3957	-88
3959.537	-89
3962.072	-87
3964.606	-90
3967.137	-85
3969.667	-86
3972.194	-86
3974.72	-83
3977.244	-88
3979.766	-81
3982.286	-84
3984.805	-86
3987.321	-85
3989.836	-85
3992.349	-82
3994.86	-81
3997.369	-85
3999.877	-86
4002.382	-84
4004.886	-83
4007.388	-86
4009.888	-83
4012.386	-84
4014.883	-84
4017.377	-84
4019.87	-82
4022.361	-86
4024.85	-81
4027.338	-86
4029.823	-84
4032.307	-90
4034.789	-87
4037.269	-86
4039.747	-88
4042.224	-85
4044.699	-86
4047.172	-82
4049.643	-82
4052.112	-84
4054.58	-88
4057.046	-87
4059.51	-90
4061.972	-89
4064.432	-83
4066.891	-89
4069.348	-84
4071.803	-88
4074.256	-84
4076.708	-82
4079.158	-85
4081.606	-85
4084.052	-86
4086.497	-90
4088.939	-85
4091.38	-86
4093.819	-85
4096.257	-89
4098.693	-88
4101.127	-90
4103.559	-86
4105.989	-56
4108.418	-50
4110.845	-52
4113.27	-47
4115.694	-41
4118.115	-42
4120.535	-87
4122.954	-85
4125.37	-88
4127.785	-84
4130.198	-88
4132.609	-84
4135.019	-92
4137.427	-89
4139.833	-87
4142.237	-90
