Data from B_sub_water_10000CFU3_RamanShift_1.txt Node
Date: Thu Feb 23 12:02:38 IST 2017
User: aro
Spectrometer: QEPB0276
Trigger mode: 0
Integration Time (sec): 5.000000E0
Scans to average: 1
Electric dark correction enabled: true
Nonlinearity correction enabled: false
Boxcar width: 0
XAxis mode: Raman Shifts
Number of Pixels in Spectrum: 1044
>>>>>Begin Spectral Data<<<<<
160.701	-25.75
166.742	1.25
172.777	83.25
178.805	336.25
184.826	929.25
190.841	1945.25
196.849	3089.25
202.85	3813.25
208.845	3971.25
214.833	3871.25
220.815	3730.25
226.789	3617.25
232.758	3494.25
238.719	3425.25
244.674	3296.25
250.623	3152.25
256.565	3016.25
262.5	2874.25
268.429	2776.25
274.351	2620.25
280.267	2526.25
286.176	2467.25
292.079	2366.25
297.975	2302.25
303.865	2218.25
309.748	2169.25
315.625	2127.25
321.495	2078.25
327.359	2062.25
333.217	2034.25
339.068	2018.25
344.912	2009.25
350.751	1984.25
356.583	2023.25
362.408	2007.25
368.227	2010.25
374.04	1981.25
379.847	2014.25
385.647	2029.25
391.44	2045.25
397.228	2028.25
403.009	2051.25
408.784	2061.25
414.553	2061.25
420.315	2091.25
426.071	2071.25
431.821	2055.25
437.565	2080.25
443.302	2064.25
449.033	2058.25
454.758	2042.25
460.477	2040.25
466.189	2006.25
471.896	2007.25
477.596	2003.25
483.29	1990.25
488.978	1986.25
494.66	1954.25
500.335	1945.25
506.005	1912.25
511.668	1882.25
517.325	1860.25
522.977	1820.25
528.622	1810.25
534.261	1767.25
539.894	1758.25
545.521	1755.25
551.141	1743.25
556.756	1730.25
562.365	1723.25
567.968	1687.25
573.565	1687.25
579.155	1679.25
584.74	1661.25
590.319	1657.25
595.892	1652.25
601.459	1625.25
607.02	1618.25
612.575	1596.25
618.124	1589.25
623.667	1573.25
629.204	1565.25
634.735	1558.25
640.261	1537.25
645.781	1540.25
651.294	1501.25
656.802	1510.25
662.304	1486.25
667.8	1511.25
673.29	1486.25
678.775	1484.25
684.254	1479.25
689.726	1472.25
695.193	1478.25
700.655	1450.25
706.11	1434.25
711.56	1423.25
717.004	1432.25
722.442	1425.25
727.874	1423.25
733.301	1383.25
738.722	1390.25
744.137	1393.25
749.547	1386.25
754.951	1386.25
760.349	1372.25
765.741	1383.25
771.128	1373.25
776.509	1374.25
781.885	1354.25
787.254	1370.25
792.618	1374.25
797.977	1341.25
803.33	1349.25
808.677	1324.25
814.019	1319.25
819.355	1288.25
824.686	1277.25
830.011	1278.25
835.33	1288.25
840.644	1252.25
845.952	1252.25
851.255	1246.25
856.552	1232.25
861.844	1224.25
867.13	1245.25
872.41	1217.25
877.686	1199.25
882.955	1198.25
888.219	1157.25
893.478	1164.25
898.731	1123.25
903.979	1114.25
909.221	1114.25
914.458	1104.25
919.69	1098.25
924.916	1090.25
930.136	1099.25
935.351	1095.25
940.561	1093.25
945.766	1075.25
950.965	1080.25
956.158	1072.25
961.347	1060.25
966.529	1039.25
971.707	1041.25
976.879	1014.25
982.046	996.25
987.208	1007.25
992.364	993.25
997.515	994.25
1002.66	1010.25
1007.801	1001.25
1012.936	1019.25
1018.066	1034.25
1023.19	1016.25
1028.309	1031.25
1033.423	1033.25
1038.532	1028.25
1043.636	1023.25
1048.734	1012.25
1053.827	994.25
1058.915	981.25
1063.998	980.25
1069.075	981.25
1074.147	981.25
1079.214	984.25
1084.276	1014.25
1089.333	993.25
1094.385	1000.25
1099.431	1016.25
1104.472	997.25
1109.509	1010.25
1114.54	988.25
1119.565	975.25
1124.586	957.25
1129.602	957.25
1134.613	935.25
1139.618	954.25
1144.619	946.25
1149.614	944.25
1154.604	949.25
1159.589	970.25
1164.57	966.25
1169.545	967.25
1174.515	955.25
1179.48	962.25
1184.44	949.25
1189.395	951.25
1194.345	944.25
1199.29	948.25
1204.23	935.25
1209.165	967.25
1214.095	951.25
1219.021	960.25
1223.941	963.25
1228.856	967.25
1233.766	971.25
1238.672	975.25
1243.572	977.25
1248.467	959.25
1253.358	960.25
1258.244	935.25
1263.124	919.25
1268	917.25
1272.871	907.25
1277.737	905.25
1282.599	891.25
1287.455	896.25
1292.306	907.25
1297.153	901.25
1301.995	911.25
1306.832	915.25
1311.664	916.25
1316.491	923.25
1321.314	921.25
1326.132	914.25
1330.945	893.25
1335.753	879.25
1340.556	850.25
1345.354	834.25
1350.148	818.25
1354.937	806.25
1359.722	816.25
1364.501	816.25
1369.276	836.25
1374.046	861.25
1378.811	876.25
1383.572	890.25
1388.327	876.25
1393.079	848.25
1397.825	836.25
1402.567	834.25
1407.304	816.25
1412.036	817.25
1416.764	797.25
1421.487	804.25
1426.205	810.25
1430.919	803.25
1435.628	813.25
1440.333	811.25
1445.032	814.25
1449.727	832.25
1454.418	824.25
1459.104	827.25
1463.785	805.25
1468.462	805.25
1473.134	787.25
1477.802	804.25
1482.465	794.25
1487.123	788.25
1491.777	785.25
1496.426	803.25
1501.071	812.25
1505.711	819.25
1510.347	831.25
1514.978	851.25
1519.604	863.25
1524.226	874.25
1528.844	880.25
1533.457	877.25
1538.065	868.25
1542.669	880.25
1547.269	859.25
1551.864	886.25
1556.454	884.25
1561.041	885.25
1565.622	898.25
1570.199	909.25
1574.772	921.25
1579.34	928.25
1583.904	957.25
1588.464	974.25
1593.019	983.25
1597.569	987.25
1602.115	980.25
1606.657	989.25
1611.195	1005.25
1615.728	1016.25
1620.256	1031.25
1624.78	1057.25
1629.3	1050.25
1633.816	1075.25
1638.327	1081.25
1642.834	1100.25
1647.336	1108.25
1651.834	1111.25
1656.328	1109.25
1660.817	1102.25
1665.302	1075.25
1669.783	1055.25
1674.259	1034.25
1678.732	991.25
1683.199	953.25
1687.663	921.25
1692.122	877.25
1696.577	833.25
1701.028	832.25
1705.474	817.25
1709.917	818.25
1714.355	807.25
1718.788	782.25
1723.218	751.25
1727.643	726.25
1732.064	702.25
1736.481	677.25
1740.893	655.25
1745.301	637.25
1749.705	638.25
1754.105	613.25
1758.501	594.25
1762.893	577.25
1767.28	562.25
1771.663	561.25
1776.042	547.25
1780.417	544.25
1784.787	538.25
1789.154	551.25
1793.516	561.25
1797.874	560.25
1802.228	564.25
1806.578	575.25
1810.924	573.25
1815.266	565.25
1819.603	552.25
1823.937	547.25
1828.266	535.25
1832.591	526.25
1836.913	519.25
1841.23	511.25
1845.543	502.25
1849.852	512.25
1854.156	498.25
1858.457	496.25
1862.754	496.25
1867.047	499.25
1871.335	505.25
1875.62	517.25
1879.9	505.25
1884.177	498.25
1888.449	504.25
1892.718	502.25
1896.982	497.25
1901.243	505.25
1905.499	493.25
1909.752	488.25
1914	496.25
1918.245	501.25
1922.485	496.25
1926.722	510.25
1930.954	508.25
1935.183	503.25
1939.408	517.25
1943.628	526.25
1947.845	525.25
1952.058	507.25
1956.267	518.25
1960.472	513.25
1964.673	512.25
1968.87	504.25
1973.063	503.25
1977.252	497.25
1981.438	489.25
1985.619	488.25
1989.797	491.25
1993.971	489.25
1998.14	488.25
2002.306	498.25
2006.469	498.25
2010.627	489.25
2014.781	491.25
2018.932	488.25
2023.078	489.25
2027.221	493.25
2031.36	480.25
2035.495	476.25
2039.627	465.25
2043.754	469.25
2047.878	469.25
2051.998	466.25
2056.114	467.25
2060.226	469.25
2064.334	466.25
2068.439	484.25
2072.54	485.25
2076.637	487.25
2080.73	497.25
2084.82	488.25
2088.906	486.25
2092.988	497.25
2097.066	488.25
2101.14	477.25
2105.211	491.25
2109.278	479.25
2113.342	493.25
2117.401	485.25
2121.457	476.25
2125.509	475.25
2129.558	468.25
2133.602	476.25
2137.643	465.25
2141.681	470.25
2145.714	455.25
2149.744	460.25
2153.77	463.25
2157.793	458.25
2161.812	450.25
2165.827	435.25
2169.838	441.25
2173.846	427.25
2177.851	415.25
2181.851	412.25
2185.848	401.25
2189.841	400.25
2193.831	388.25
2197.817	394.25
2201.799	378.25
2205.778	392.25
2209.753	389.25
2213.725	379.25
2217.693	387.25
2221.657	388.25
2225.618	376.25
2229.575	386.25
2233.529	377.25
2237.479	383.25
2241.425	365.25
2245.368	362.25
2249.307	359.25
2253.243	356.25
2257.175	346.25
2261.104	354.25
2265.029	341.25
2268.95	332.25
2272.868	324.25
2276.783	322.25
2280.694	324.25
2284.601	319.25
2288.505	314.25
2292.405	313.25
2296.302	311.25
2300.195	310.25
2304.085	294.25
2307.971	293.25
2311.854	285.25
2315.734	270.25
2319.609	280.25
2323.482	267.25
2327.351	269.25
2331.216	271.25
2335.078	255.25
2338.937	261.25
2342.792	255.25
2346.643	256.25
2350.492	253.25
2354.336	259.25
2358.178	249.25
2362.015	252.25
2365.85	260.25
2369.681	254.25
2373.508	250.25
2377.333	257.25
2381.153	261.25
2384.971	243.25
2388.785	247.25
2392.595	245.25
2396.402	246.25
2400.206	244.25
2404.007	232.25
2407.804	243.25
2411.597	237.25
2415.388	232.25
2419.174	226.25
2422.958	226.25
2426.738	224.25
2430.515	239.25
2434.289	230.25
2438.059	227.25
2441.825	226.25
2445.589	223.25
2449.349	220.25
2453.106	211.25
2456.859	212.25
2460.61	206.25
2464.356	207.25
2468.1	204.25
2471.84	198.25
2475.577	198.25
2479.311	210.25
2483.041	206.25
2486.768	203.25
2490.492	202.25
2494.213	200.25
2497.93	202.25
2501.644	196.25
2505.355	199.25
2509.062	193.25
2512.766	201.25
2516.467	201.25
2520.165	203.25
2523.859	202.25
2527.551	193.25
2531.239	194.25
2534.923	186.25
2538.605	191.25
2542.283	192.25
2545.958	189.25
2549.63	187.25
2553.299	190.25
2556.964	180.25
2560.626	190.25
2564.285	184.25
2567.941	181.25
2571.594	178.25
2575.243	171.25
2578.89	181.25
2582.533	175.25
2586.173	171.25
2589.809	169.25
2593.443	178.25
2597.073	168.25
2600.701	170.25
2604.325	167.25
2607.946	167.25
2611.564	167.25
2615.178	170.25
2618.79	165.25
2622.398	167.25
2626.004	163.25
2629.606	166.25
2633.205	160.25
2636.801	161.25
2640.394	150.25
2643.983	156.25
2647.57	150.25
2651.153	149.25
2654.734	139.25
2658.311	148.25
2661.885	142.25
2665.456	151.25
2669.025	141.25
2672.589	138.25
2676.151	139.25
2679.71	138.25
2683.266	137.25
2686.819	139.25
2690.368	132.25
2693.915	125.25
2697.458	124.25
2700.999	122.25
2704.536	124.25
2708.071	114.25
2711.602	118.25
2715.13	132.25
2718.656	118.25
2722.178	116.25
2725.697	115.25
2729.214	118.25
2732.727	110.25
2736.237	120.25
2739.744	120.25
2743.249	123.25
2746.75	124.25
2750.248	120.25
2753.743	124.25
2757.236	126.25
2760.725	134.25
2764.211	130.25
2767.695	126.25
2771.175	125.25
2774.652	127.25
2778.127	130.25
2781.598	129.25
2785.067	127.25
2788.532	126.25
2791.995	131.25
2795.455	131.25
2798.911	131.25
2802.365	128.25
2805.816	127.25
2809.264	137.25
2812.709	123.25
2816.151	128.25
2819.59	122.25
2823.026	122.25
2826.46	123.25
2829.89	133.25
2833.318	133.25
2836.742	136.25
2840.164	139.25
2843.583	139.25
2846.999	140.25
2850.412	133.25
2853.822	143.25
2857.229	137.25
2860.634	144.25
2864.035	142.25
2867.434	142.25
2870.83	153.25
2874.223	157.25
2877.613	156.25
2881	159.25
2884.385	157.25
2887.766	157.25
2891.145	160.25
2894.521	157.25
2897.894	160.25
2901.264	169.25
2904.631	158.25
2907.996	163.25
2911.358	171.25
2914.717	173.25
2918.073	173.25
2921.426	183.25
2924.777	183.25
2928.124	181.25
2931.469	184.25
2934.811	188.25
2938.15	197.25
2941.487	203.25
2944.821	205.25
2948.152	205.25
2951.48	213.25
2954.805	219.25
2958.128	219.25
2961.447	214.25
2964.765	227.25
2968.079	233.25
2971.39	251.25
2974.699	256.25
2978.005	258.25
2981.308	270.25
2984.609	280.25
2987.907	284.25
2991.202	293.25
2994.494	310.25
2997.784	309.25
3001.07	321.25
3004.355	327.25
3007.636	351.25
3010.915	361.25
3014.191	365.25
3017.464	378.25
3020.734	376.25
3024.002	378.25
3027.267	388.25
3030.53	389.25
3033.789	394.25
3037.046	410.25
3040.301	409.25
3043.552	431.25
3046.801	444.25
3050.048	449.25
3053.291	467.25
3056.532	475.25
3059.771	497.25
3063.006	502.25
3066.239	516.25
3069.469	536.25
3072.697	543.25
3075.922	559.25
3079.144	594.25
3082.364	598.25
3085.581	608.25
3088.795	633.25
3092.007	639.25
3095.216	650.25
3098.423	675.25
3101.627	681.25
3104.828	695.25
3108.026	725.25
3111.222	733.25
3114.416	740.25
3117.607	763.25
3120.795	798.25
3123.98	806.25
3127.163	824.25
3130.344	843.25
3133.521	882.25
3136.696	892.25
3139.869	899.25
3143.039	901.25
3146.206	942.25
3149.371	953.25
3152.533	957.25
3155.693	949.25
3158.85	969.25
3162.005	962.25
3165.157	975.25
3168.306	976.25
3171.453	996.25
3174.597	1002.25
3177.739	999.25
3180.878	998.25
3184.014	1006.25
3187.149	1016.25
3190.28	1012.25
3193.409	1017.25
3196.536	1020.25
3199.659	1020.25
3202.781	1025.25
3205.9	1033.25
3209.016	1045.25
3212.13	1036.25
3215.241	1024.25
3218.35	1031.25
3221.456	1009.25
3224.56	1013.25
3227.661	1008.25
3230.76	980.25
3233.856	988.25
3236.95	973.25
3240.041	972.25
3243.13	968.25
3246.216	962.25
3249.3	962.25
3252.382	949.25
3255.46	951.25
3258.537	939.25
3261.611	954.25
3264.682	928.25
3267.751	931.25
3270.818	943.25
3273.882	937.25
3276.943	927.25
3280.002	932.25
3283.059	913.25
3286.113	891.25
3289.165	890.25
3292.214	868.25
3295.261	863.25
3298.306	854.25
3301.348	835.25
3304.387	824.25
3307.425	810.25
3310.459	800.25
3313.492	786.25
3316.521	785.25
3319.549	778.25
3322.574	769.25
3325.597	760.25
3328.617	749.25
3331.635	739.25
3334.65	741.25
3337.663	738.25
3340.674	728.25
3343.682	727.25
3346.688	724.25
3349.691	730.25
3352.692	713.25
3355.691	720.25
3358.687	717.25
3361.681	692.25
3364.673	690.25
3367.662	689.25
3370.649	670.25
3373.633	664.25
3376.615	656.25
3379.595	650.25
3382.572	629.25
3385.547	630.25
3388.52	625.25
3391.49	613.25
3394.458	595.25
3397.424	587.25
3400.387	580.25
3403.348	573.25
3406.307	575.25
3409.263	571.25
3412.217	574.25
3415.168	563.25
3418.118	564.25
3421.065	555.25
3424.009	546.25
3426.951	533.25
3429.891	533.25
3432.829	515.25
3435.764	507.25
3438.697	499.25
3441.628	486.25
3444.557	478.25
3447.483	470.25
3450.407	455.25
3453.328	434.25
3456.247	419.25
3459.164	412.25
3462.079	400.25
3464.991	391.25
3467.902	373.25
3470.809	372.25
3473.715	352.25
3476.618	344.25
3479.519	339.25
3482.418	331.25
3485.315	317.25
3488.209	317.25
3491.101	297.25
3493.99	297.25
3496.878	293.25
3499.763	280.25
3502.646	267.25
3505.527	269.25
3508.405	252.25
3511.281	249.25
3514.155	233.25
3517.027	222.25
3519.897	216.25
3522.764	204.25
3525.629	196.25
3528.492	181.25
3531.352	170.25
3534.211	159.25
3537.067	151.25
3539.921	149.25
3542.773	141.25
3545.622	133.25
3548.469	124.25
3551.315	114.25
3554.157	109.25
3556.998	105.25
3559.837	99.25
3562.673	91.25
3565.507	84.25
3568.339	80.25
3571.169	75.25
3573.996	71.25
3576.822	66.25
3579.645	66.25
3582.466	57.25
3585.285	56.25
3588.101	38.25
3590.916	43.25
3593.728	30.25
3596.538	31.25
3599.346	21.25
3602.152	20.25
3604.956	16.25
3607.757	11.25
3610.556	9.25
3613.354	6.25
3616.149	6.25
3618.942	-4.75
3621.732	-2.75
3624.521	-6.75
3627.307	-10.75
3630.092	-13.75
3632.874	-9.75
3635.654	-14.75
3638.432	-17.75
3641.208	-18.75
3643.982	-26.75
3646.753	-24.75
3649.523	-27.75
3652.29	-30.75
3655.055	-37.75
3657.818	-36.75
3660.579	-41.75
3663.338	-39.75
3666.095	-42.75
3668.849	-46.75
3671.602	-46.75
3674.352	-50.75
3677.101	-53.75
3679.847	-60.75
3682.591	-60.75
3685.333	-62.75
3688.073	-60.75
3690.811	-56.75
3693.547	-60.75
3696.281	-64.75
3699.013	-66.75
3701.742	-64.75
3704.47	-68.75
3707.195	-66.75
3709.919	-67.75
3712.64	-71.75
3715.359	-74.75
3718.076	-73.75
3720.792	-73.75
3723.505	-72.75
3726.216	-75.75
3728.925	-65.75
3731.632	-74.75
3734.336	-77.75
3737.039	-75.75
3739.74	-79.75
3742.439	-85.75
3745.136	-80.75
3747.83	-85.75
3750.523	-82.75
3753.213	-83.75
3755.902	-79.75
3758.589	-78.75
3761.273	-81.75
3763.956	-80.75
3766.636	-81.75
3769.315	-86.75
3771.991	-86.75
3774.665	-85.75
3777.338	-84.75
3780.008	-85.75
3782.677	-83.75
3785.343	-87.75
3788.007	-83.75
3790.67	-90.75
3793.33	-86.75
3795.989	-87.75
3798.645	-89.75
3801.299	-86.75
3803.952	-83.75
3806.602	-84.75
3809.251	-89.75
3811.897	-89.75
3814.542	-88.75
3817.184	-90.75
3819.825	-89.75
3822.463	-89.75
3825.1	-87.75
3827.735	-88.75
3830.367	-86.75
3832.998	-95.75
3835.627	-87.75
3838.253	-90.75
3840.878	-92.75
3843.501	-88.75
3846.122	-92.75
3848.741	-91.75
3851.358	-90.75
3853.973	-89.75
3856.586	-92.75
3859.197	-94.75
3861.806	-91.75
3864.414	-93.75
3867.019	-92.75
3869.622	-90.75
3872.224	-91.75
3874.823	-92.75
3877.421	-86.75
3880.016	-83.75
3882.61	-81.75
3885.202	-79.75
3887.792	-86.75
3890.38	-88.75
3892.966	-91.75
3895.55	-92.75
3898.132	-94.75
3900.713	-94.75
3903.291	-91.75
3905.868	-92.75
3908.442	-92.75
3911.015	-93.75
3913.586	-98.75
3916.155	-98.75
3918.722	-91.75
3921.287	-97.75
3923.85	-96.75
3926.411	-93.75
3928.971	-92.75
3931.528	-96.75
3934.084	-93.75
3936.638	-94.75
3939.19	-90.75
3941.74	-96.75
3944.288	-97.75
3946.834	-99.75
3949.378	-97.75
3951.921	-99.75
3954.462	-93.75
3957	-98.75
3959.537	-94.75
3962.072	-92.75
3964.606	-89.75
3967.137	-91.75
3969.667	-94.75
3972.194	-94.75
3974.72	-90.75
3977.244	-97.75
3979.766	-95.75
3982.286	-96.75
3984.805	-95.75
3987.321	-93.75
3989.836	-91.75
3992.349	-86.75
3994.86	-89.75
3997.369	-87.75
3999.877	-90.75
4002.382	-95.75
4004.886	-92.75
4007.388	-95.75
4009.888	-96.75
4012.386	-95.75
4014.883	-97.75
4017.377	-94.75
4019.87	-93.75
4022.361	-92.75
4024.85	-88.75
4027.338	-94.75
4029.823	-88.75
4032.307	-95.75
4034.789	-93.75
4037.269	-94.75
4039.747	-97.75
4042.224	-95.75
4044.699	-99.75
4047.172	-94.75
4049.643	-91.75
4052.112	-92.75
4054.58	-92.75
4057.046	-92.75
4059.51	-94.75
4061.972	-96.75
4064.432	-89.75
4066.891	-95.75
4069.348	-93.75
4071.803	-95.75
4074.256	-94.75
4076.708	-95.75
4079.158	-94.75
4081.606	-94.75
4084.052	-94.75
4086.497	-97.75
4088.939	-96.75
4091.38	-96.75
4093.819	-94.75
4096.257	-96.75
4098.693	-93.75
4101.127	-95.75
4103.559	-94.75
4105.989	-58.75
4108.418	-55.75
4110.845	-60.75
4113.27	-52.75
4115.694	-46.75
4118.115	-43.75
4120.535	-96.75
4122.954	-94.75
4125.37	-95.75
4127.785	-93.75
4130.198	-94.75
4132.609	-92.75
4135.019	-98.75
4137.427	-98.75
4139.833	-97.75
4142.237	-99.75
