Data from 0CFU1_RamanShift_1.txt Node
Date: Tue Jan 31 14:12:07 IST 2017
User: aro
Spectrometer: QEPB0276
Trigger mode: 0
Integration Time (sec): 5.000000E0
Scans to average: 1
Electric dark correction enabled: true
Nonlinearity correction enabled: false
Boxcar width: 0
XAxis mode: Raman Shifts
Number of Pixels in Spectrum: 1044
>>>>>Begin Spectral Data<<<<<
160.701	-36
166.742	-4
172.777	97
178.805	398
184.826	1119
190.841	2253
196.849	3536
202.85	4348
208.845	4530
214.833	4372
220.815	4196
226.789	4041
232.758	3972
238.719	3849
244.674	3723
250.623	3552
256.565	3390
262.5	3219
268.429	3076
274.351	2949
280.267	2818
286.176	2733
292.079	2635
297.975	2562
303.865	2486
309.748	2397
315.625	2341
321.495	2300
327.359	2268
333.217	2224
339.068	2204
344.912	2196
350.751	2190
356.583	2184
362.408	2192
368.227	2182
374.04	2223
379.847	2225
385.647	2225
391.44	2217
397.228	2226
403.009	2264
408.784	2269
414.553	2269
420.315	2266
426.071	2273
431.821	2272
437.565	2295
443.302	2270
449.033	2270
454.758	2279
460.477	2249
466.189	2241
471.896	2217
477.596	2212
483.29	2206
488.978	2189
494.66	2199
500.335	2157
506.005	2111
511.668	2093
517.325	2058
522.977	2016
528.622	1997
534.261	1982
539.894	1944
545.521	1925
551.141	1935
556.756	1914
562.365	1897
567.968	1890
573.565	1866
579.155	1841
584.74	1845
590.319	1814
595.892	1826
601.459	1807
607.02	1792
612.575	1803
618.124	1779
623.667	1754
629.204	1737
634.735	1738
640.261	1705
645.781	1705
651.294	1701
656.802	1679
662.304	1681
667.8	1662
673.29	1666
678.775	1662
684.254	1660
689.726	1642
695.193	1632
700.655	1655
706.11	1620
711.56	1613
717.004	1610
722.442	1589
727.874	1596
733.301	1581
738.722	1545
744.137	1554
749.547	1569
754.951	1551
760.349	1549
765.741	1539
771.128	1547
776.509	1537
781.885	1564
787.254	1550
792.618	1539
797.977	1543
803.33	1507
808.677	1527
814.019	1493
819.355	1469
824.686	1460
830.011	1459
835.33	1457
840.644	1427
845.952	1422
851.255	1432
856.552	1429
861.844	1404
867.13	1417
872.41	1432
877.686	1432
882.955	1460
888.219	1437
893.478	1400
898.731	1339
903.979	1308
909.221	1295
914.458	1288
919.69	1254
924.916	1260
930.136	1242
935.351	1259
940.561	1250
945.766	1266
950.965	1254
956.158	1243
961.347	1233
966.529	1211
971.707	1211
976.879	1202
982.046	1178
987.208	1168
992.364	1165
997.515	1178
1002.66	1182
1007.801	1181
1012.936	1183
1018.066	1199
1023.19	1211
1028.309	1241
1033.423	1224
1038.532	1244
1043.636	1230
1048.734	1219
1053.827	1203
1058.915	1187
1063.998	1180
1069.075	1169
1074.147	1177
1079.214	1176
1084.276	1210
1089.333	1200
1094.385	1192
1099.431	1213
1104.472	1201
1109.509	1202
1114.54	1183
1119.565	1168
1124.586	1173
1129.602	1162
1134.613	1144
1139.618	1129
1144.619	1137
1149.614	1129
1154.604	1139
1159.589	1137
1164.57	1140
1169.545	1152
1174.515	1151
1179.48	1168
1184.44	1156
1189.395	1138
1194.345	1151
1199.29	1150
1204.23	1124
1209.165	1141
1214.095	1140
1219.021	1154
1223.941	1165
1228.856	1156
1233.766	1177
1238.672	1168
1243.572	1173
1248.467	1174
1253.358	1176
1258.244	1140
1263.124	1135
1268	1115
1272.871	1088
1277.737	1093
1282.599	1093
1287.455	1108
1292.306	1097
1297.153	1101
1301.995	1122
1306.832	1113
1311.664	1128
1316.491	1120
1321.314	1124
1326.132	1116
1330.945	1114
1335.753	1111
1340.556	1096
1345.354	1067
1350.148	1058
1354.937	1053
1359.722	1032
1364.501	1022
1369.276	1012
1374.046	996
1378.811	1014
1383.572	1021
1388.327	1015
1393.079	1011
1397.825	1007
1402.567	1009
1407.304	1005
1412.036	994
1416.764	987
1421.487	991
1426.205	989
1430.919	1001
1435.628	1003
1440.333	1007
1445.032	1037
1449.727	1050
1454.418	1072
1459.104	1086
1463.785	1067
1468.462	1057
1473.134	1024
1477.802	1021
1482.465	1030
1487.123	1005
1491.777	1002
1496.426	1011
1501.071	1005
1505.711	1010
1510.347	1027
1514.978	1047
1519.604	1042
1524.226	1051
1528.844	1058
1533.457	1048
1538.065	1055
1542.669	1056
1547.269	1057
1551.864	1053
1556.454	1060
1561.041	1064
1565.622	1056
1570.199	1097
1574.772	1111
1579.34	1113
1583.904	1144
1588.464	1164
1593.019	1199
1597.569	1214
1602.115	1210
1606.657	1213
1611.195	1241
1615.728	1272
1620.256	1259
1624.78	1275
1629.3	1292
1633.816	1332
1638.327	1339
1642.834	1348
1647.336	1351
1651.834	1350
1656.328	1343
1660.817	1350
1665.302	1323
1669.783	1306
1674.259	1273
1678.732	1237
1683.199	1189
1687.663	1164
1692.122	1119
1696.577	1056
1701.028	1031
1705.474	972
1709.917	937
1714.355	927
1718.788	911
1723.218	900
1727.643	884
1732.064	873
1736.481	842
1740.893	847
1745.301	811
1749.705	788
1754.105	777
1758.501	748
1762.893	733
1767.28	719
1771.663	716
1776.042	705
1780.417	714
1784.787	711
1789.154	718
1793.516	712
1797.874	713
1802.228	699
1806.578	689
1810.924	686
1815.266	681
1819.603	659
1823.937	661
1828.266	662
1832.591	663
1836.913	649
1841.23	639
1845.543	650
1849.852	641
1854.156	642
1858.457	646
1862.754	642
1867.047	643
1871.335	658
1875.62	674
1879.9	660
1884.177	669
1888.449	662
1892.718	670
1896.982	658
1901.243	666
1905.499	642
1909.752	651
1914	646
1918.245	646
1922.485	645
1926.722	653
1930.954	659
1935.183	654
1939.408	664
1943.628	657
1947.845	647
1952.058	651
1956.267	653
1960.472	649
1964.673	647
1968.87	628
1973.063	629
1977.252	640
1981.438	631
1985.619	617
1989.797	614
1993.971	622
1998.14	625
2002.306	626
2006.469	637
2010.627	634
2014.781	638
2018.932	642
2023.078	632
2027.221	629
2031.36	628
2035.495	636
2039.627	619
2043.754	631
2047.878	626
2051.998	608
2056.114	618
2060.226	615
2064.334	623
2068.439	631
2072.54	628
2076.637	629
2080.73	627
2084.82	640
2088.906	623
2092.988	623
2097.066	647
2101.14	644
2105.211	631
2109.278	629
2113.342	614
2117.401	613
2121.457	613
2125.509	609
2129.558	603
2133.602	593
2137.643	607
2141.681	606
2145.714	596
2149.744	596
2153.77	607
2157.793	587
2161.812	584
2165.827	578
2169.838	577
2173.846	558
2177.851	557
2181.851	557
2185.848	550
2189.841	534
2193.831	520
2197.817	525
2201.799	524
2205.778	526
2209.753	519
2213.725	527
2217.693	523
2221.657	524
2225.618	518
2229.575	519
2233.529	505
2237.479	509
2241.425	514
2245.368	513
2249.307	504
2253.243	480
2257.175	480
2261.104	470
2265.029	467
2268.95	464
2272.868	455
2276.783	445
2280.694	434
2284.601	435
2288.505	427
2292.405	420
2296.302	423
2300.195	419
2304.085	419
2307.971	414
2311.854	405
2315.734	391
2319.609	384
2323.482	374
2327.351	368
2331.216	385
2335.078	375
2338.937	366
2342.792	371
2346.643	360
2350.492	361
2354.336	356
2358.178	367
2362.015	360
2365.85	374
2369.681	360
2373.508	362
2377.333	362
2381.153	369
2384.971	369
2388.785	369
2392.595	363
2396.402	358
2400.206	363
2404.007	370
2407.804	344
2411.597	349
2415.388	357
2419.174	342
2422.958	353
2426.738	348
2430.515	343
2434.289	350
2438.059	346
2441.825	348
2445.589	338
2449.349	340
2453.106	326
2456.859	331
2460.61	331
2464.356	334
2468.1	324
2471.84	328
2475.577	322
2479.311	320
2483.041	320
2486.768	320
2490.492	312
2494.213	319
2497.93	312
2501.644	316
2505.355	325
2509.062	314
2512.766	313
2516.467	317
2520.165	316
2523.859	312
2527.551	313
2531.239	313
2534.923	301
2538.605	300
2542.283	299
2545.958	293
2549.63	295
2553.299	293
2556.964	291
2560.626	290
2564.285	295
2567.941	287
2571.594	283
2575.243	281
2578.89	285
2582.533	281
2586.173	283
2589.809	269
2593.443	275
2597.073	273
2600.701	273
2604.325	268
2607.946	267
2611.564	260
2615.178	266
2618.79	267
2622.398	261
2626.004	259
2629.606	253
2633.205	259
2636.801	256
2640.394	251
2643.983	255
2647.57	250
2651.153	248
2654.734	243
2658.311	237
2661.885	244
2665.456	238
2669.025	242
2672.589	234
2676.151	233
2679.71	224
2683.266	222
2686.819	230
2690.368	230
2693.915	219
2697.458	230
2700.999	215
2704.536	228
2708.071	210
2711.602	208
2715.13	209
2718.656	209
2722.178	212
2725.697	211
2729.214	214
2732.727	212
2736.237	212
2739.744	217
2743.249	223
2746.75	223
2750.248	217
2753.743	214
2757.236	219
2760.725	209
2764.211	207
2767.695	205
2771.175	202
2774.652	201
2778.127	212
2781.598	210
2785.067	202
2788.532	210
2791.995	205
2795.455	206
2798.911	207
2802.365	210
2805.816	212
2809.264	206
2812.709	207
2816.151	218
2819.59	214
2823.026	215
2826.46	218
2829.89	226
2833.318	219
2836.742	221
2840.164	227
2843.583	218
2846.999	230
2850.412	229
2853.822	231
2857.229	227
2860.634	235
2864.035	240
2867.434	255
2870.83	252
2874.223	257
2877.613	257
2881	265
2884.385	272
2887.766	263
2891.145	264
2894.521	270
2897.894	276
2901.264	276
2904.631	269
2907.996	270
2911.358	277
2914.717	274
2918.073	286
2921.426	277
2924.777	290
2928.124	302
2931.469	307
2934.811	316
2938.15	330
2941.487	336
2944.821	335
2948.152	336
2951.48	337
2954.805	345
2958.128	333
2961.447	336
2964.765	347
2968.079	359
2971.39	353
2974.699	371
2978.005	385
2981.308	386
2984.609	393
2987.907	398
2991.202	412
2994.494	421
2997.784	416
3001.07	434
3004.355	449
3007.636	455
3010.915	467
3014.191	471
3017.464	481
3020.734	490
3024.002	511
3027.267	508
3030.53	514
3033.789	524
3037.046	545
3040.301	549
3043.552	565
3046.801	582
3050.048	598
3053.291	613
3056.532	629
3059.771	644
3063.006	666
3066.239	688
3069.469	705
3072.697	722
3075.922	733
3079.144	768
3082.364	777
3085.581	804
3088.795	824
3092.007	833
3095.216	878
3098.423	887
3101.627	896
3104.828	917
3108.026	932
3111.222	957
3114.416	973
3117.607	1011
3120.795	1015
3123.98	1058
3127.163	1084
3130.344	1098
3133.521	1123
3136.696	1146
3139.869	1162
3143.039	1190
3146.206	1194
3149.371	1229
3152.533	1248
3155.693	1255
3158.85	1264
3162.005	1262
3165.157	1283
3168.306	1272
3171.453	1279
3174.597	1288
3177.739	1302
3180.878	1299
3184.014	1303
3187.149	1314
3190.28	1318
3193.409	1310
3196.536	1314
3199.659	1320
3202.781	1325
3205.9	1328
3209.016	1319
3212.13	1324
3215.241	1338
3218.35	1333
3221.456	1322
3224.56	1304
3227.661	1305
3230.76	1283
3233.856	1259
3236.95	1267
3240.041	1261
3243.13	1240
3246.216	1213
3249.3	1203
3252.382	1199
3255.46	1188
3258.537	1200
3261.611	1177
3264.682	1172
3267.751	1171
3270.818	1151
3273.882	1170
3276.943	1153
3280.002	1146
3283.059	1125
3286.113	1115
3289.165	1109
3292.214	1100
3295.261	1086
3298.306	1065
3301.348	1047
3304.387	1025
3307.425	1014
3310.459	999
3313.492	989
3316.521	991
3319.549	982
3322.574	958
3325.597	951
3328.617	947
3331.635	944
3334.65	942
3337.663	935
3340.674	927
3343.682	923
3346.688	913
3349.691	909
3352.692	916
3355.691	915
3358.687	907
3361.681	893
3364.673	897
3367.662	882
3370.649	867
3373.633	848
3376.615	843
3379.595	830
3382.572	819
3385.547	805
3388.52	804
3391.49	784
3394.458	773
3397.424	778
3400.387	753
3403.348	750
3406.307	747
3409.263	729
3412.217	712
3415.168	717
3418.118	719
3421.065	703
3424.009	692
3426.951	687
3429.891	677
3432.829	664
3435.764	657
3438.697	640
3441.628	628
3444.557	603
3447.483	587
3450.407	586
3453.328	565
3456.247	549
3459.164	529
3462.079	511
3464.991	496
3467.902	480
3470.809	473
3473.715	450
3476.618	439
3479.519	415
3482.418	419
3485.315	401
3488.209	394
3491.101	374
3493.99	368
3496.878	360
3499.763	348
3502.646	339
3505.527	323
3508.405	312
3511.281	298
3514.155	286
3517.027	282
3519.897	260
3522.764	244
3525.629	240
3528.492	231
3531.352	221
3534.211	208
3537.067	190
3539.921	178
3542.773	164
3545.622	162
3548.469	148
3551.315	142
3554.157	132
3556.998	129
3559.837	116
3562.673	118
3565.507	104
3568.339	94
3571.169	87
3573.996	81
3576.822	87
3579.645	68
3582.466	62
3585.285	56
3588.101	57
3590.916	51
3593.728	40
3596.538	41
3599.346	37
3602.152	34
3604.956	24
3607.757	19
3610.556	11
3613.354	4
3616.149	8
3618.942	-3
3621.732	-1
3624.521	-2
3627.307	-7
3630.092	-10
3632.874	-5
3635.654	-20
3638.432	-18
3641.208	-24
3643.982	-30
3646.753	-31
3649.523	-31
3652.29	-39
3655.055	-41
3657.818	-39
3660.579	-42
3663.338	-48
3666.095	-49
3668.849	-50
3671.602	-56
3674.352	-55
3677.101	-60
3679.847	-57
3682.591	-63
3685.333	-67
3688.073	-71
3690.811	-62
3693.547	-70
3696.281	-68
3699.013	-73
3701.742	-77
3704.47	-77
3707.195	-75
3709.919	-77
3712.64	-88
3715.359	-82
3718.076	-81
3720.792	-83
3723.505	-85
3726.216	-83
3728.925	-88
3731.632	-87
3734.336	-87
3737.039	-91
3739.74	-93
3742.439	-89
3745.136	-94
3747.83	-99
3750.523	-95
3753.213	-89
3755.902	-96
3758.589	-92
3761.273	-89
3763.956	-88
3766.636	-93
3769.315	-96
3771.991	-95
3774.665	-96
3777.338	-101
3780.008	-99
3782.677	-99
3785.343	-101
3788.007	-99
3790.67	-99
3793.33	-99
3795.989	-99
3798.645	-98
3801.299	-98
3803.952	-103
3806.602	-105
3809.251	-104
3811.897	-104
3814.542	-109
3817.184	-103
3819.825	-101
3822.463	-100
3825.1	-103
3827.735	-105
3830.367	-102
3832.998	-105
3835.627	-108
3838.253	-110
3840.878	-109
3843.501	-105
3846.122	-107
3848.741	-101
3851.358	-105
3853.973	-104
3856.586	-100
3859.197	-102
3861.806	-105
3864.414	-107
3867.019	-112
3869.622	-106
3872.224	-111
3874.823	-108
3877.421	-99
3880.016	-96
3882.61	-95
3885.202	-93
3887.792	-96
3890.38	-103
3892.966	-108
3895.55	-111
3898.132	-112
3900.713	-111
3903.291	-114
3905.868	-108
3908.442	-109
3911.015	-107
3913.586	-112
3916.155	-107
3918.722	-107
3921.287	-107
3923.85	-112
3926.411	-111
3928.971	-112
3931.528	-113
3934.084	-111
3936.638	-108
3939.19	-107
3941.74	-105
3944.288	-111
3946.834	-104
3949.378	-108
3951.921	-111
3954.462	-112
3957	-109
3959.537	-112
3962.072	-109
3964.606	-110
3967.137	-105
3969.667	-109
3972.194	-105
3974.72	-105
3977.244	-110
3979.766	-111
3982.286	-107
3984.805	-110
3987.321	-114
3989.836	-110
3992.349	-110
3994.86	-109
3997.369	-105
3999.877	-110
4002.382	-106
4004.886	-106
4007.388	-110
4009.888	-108
4012.386	-112
4014.883	-110
4017.377	-111
4019.87	-109
4022.361	-110
4024.85	-106
4027.338	-109
4029.823	-107
4032.307	-105
4034.789	-106
4037.269	-108
4039.747	-110
4042.224	-112
4044.699	-112
4047.172	-114
4049.643	-108
4052.112	-113
4054.58	-110
4057.046	-112
4059.51	-113
4061.972	-110
4064.432	-109
4066.891	-113
4069.348	-112
4071.803	-116
4074.256	-111
4076.708	-108
4079.158	-114
4081.606	-112
4084.052	-105
4086.497	-110
4088.939	-111
4091.38	-111
4093.819	-114
4096.257	-117
4098.693	-113
4101.127	-110
4103.559	-115
4105.989	-70
4108.418	-71
4110.845	-73
4113.27	-66
4115.694	-60
4118.115	-49
4120.535	-111
4122.954	-115
4125.37	-113
4127.785	-113
4130.198	-110
4132.609	-110
4135.019	-114
4137.427	-113
4139.833	-112
4142.237	-116
