Data from 1000000CFU1_A_RamanShift_1.txt Node
Date: Tue Jan 31 15:30:24 IST 2017
User: aro
Spectrometer: QEPB0276
Trigger mode: 0
Integration Time (sec): 5.000000E0
Scans to average: 1
Electric dark correction enabled: true
Nonlinearity correction enabled: false
Boxcar width: 0
XAxis mode: Raman Shifts
Number of Pixels in Spectrum: 1044
>>>>>Begin Spectral Data<<<<<
160.701	-36.75
166.742	1.25
172.777	95.25
178.805	397.25
184.826	1107.25
190.841	2266.25
196.849	3515.25
202.85	4378.25
208.845	4548.25
214.833	4389.25
220.815	4216.25
226.789	4103.25
232.758	4023.25
238.719	3890.25
244.674	3714.25
250.623	3585.25
256.565	3425.25
262.5	3255.25
268.429	3113.25
274.351	3012.25
280.267	2879.25
286.176	2778.25
292.079	2685.25
297.975	2605.25
303.865	2523.25
309.748	2442.25
315.625	2395.25
321.495	2350.25
327.359	2303.25
333.217	2285.25
339.068	2265.25
344.912	2257.25
350.751	2254.25
356.583	2235.25
362.408	2253.25
368.227	2247.25
374.04	2244.25
379.847	2249.25
385.647	2272.25
391.44	2276.25
397.228	2295.25
403.009	2305.25
408.784	2312.25
414.553	2322.25
420.315	2345.25
426.071	2335.25
431.821	2339.25
437.565	2335.25
443.302	2313.25
449.033	2302.25
454.758	2299.25
460.477	2305.25
466.189	2271.25
471.896	2262.25
477.596	2259.25
483.29	2262.25
488.978	2240.25
494.66	2241.25
500.335	2214.25
506.005	2184.25
511.668	2130.25
517.325	2101.25
522.977	2078.25
528.622	2034.25
534.261	2025.25
539.894	2000.25
545.521	1984.25
551.141	1958.25
556.756	1964.25
562.365	1954.25
567.968	1933.25
573.565	1914.25
579.155	1915.25
584.74	1907.25
590.319	1880.25
595.892	1892.25
601.459	1876.25
607.02	1851.25
612.575	1849.25
618.124	1832.25
623.667	1790.25
629.204	1783.25
634.735	1782.25
640.261	1751.25
645.781	1754.25
651.294	1737.25
656.802	1715.25
662.304	1721.25
667.8	1728.25
673.29	1724.25
678.775	1713.25
684.254	1713.25
689.726	1702.25
695.193	1690.25
700.655	1701.25
706.11	1679.25
711.56	1665.25
717.004	1647.25
722.442	1648.25
727.874	1609.25
733.301	1617.25
738.722	1614.25
744.137	1594.25
749.547	1619.25
754.951	1591.25
760.349	1596.25
765.741	1582.25
771.128	1597.25
776.509	1585.25
781.885	1606.25
787.254	1582.25
792.618	1585.25
797.977	1580.25
803.33	1583.25
808.677	1583.25
814.019	1542.25
819.355	1523.25
824.686	1494.25
830.011	1505.25
835.33	1491.25
840.644	1475.25
845.952	1466.25
851.255	1484.25
856.552	1477.25
861.844	1468.25
867.13	1459.25
872.41	1456.25
877.686	1424.25
882.955	1429.25
888.219	1408.25
893.478	1385.25
898.731	1371.25
903.979	1336.25
909.221	1324.25
914.458	1314.25
919.69	1310.25
924.916	1301.25
930.136	1295.25
935.351	1306.25
940.561	1311.25
945.766	1298.25
950.965	1310.25
956.158	1282.25
961.347	1280.25
966.529	1270.25
971.707	1269.25
976.879	1233.25
982.046	1219.25
987.208	1217.25
992.364	1213.25
997.515	1203.25
1002.66	1221.25
1007.801	1218.25
1012.936	1241.25
1018.066	1257.25
1023.19	1256.25
1028.309	1266.25
1033.423	1263.25
1038.532	1261.25
1043.636	1235.25
1048.734	1229.25
1053.827	1231.25
1058.915	1208.25
1063.998	1204.25
1069.075	1201.25
1074.147	1198.25
1079.214	1216.25
1084.276	1210.25
1089.333	1212.25
1094.385	1212.25
1099.431	1243.25
1104.472	1256.25
1109.509	1235.25
1114.54	1224.25
1119.565	1216.25
1124.586	1201.25
1129.602	1194.25
1134.613	1181.25
1139.618	1176.25
1144.619	1178.25
1149.614	1188.25
1154.604	1179.25
1159.589	1186.25
1164.57	1205.25
1169.545	1195.25
1174.515	1210.25
1179.48	1206.25
1184.44	1200.25
1189.395	1185.25
1194.345	1197.25
1199.29	1203.25
1204.23	1179.25
1209.165	1177.25
1214.095	1182.25
1219.021	1186.25
1223.941	1198.25
1228.856	1213.25
1233.766	1202.25
1238.672	1224.25
1243.572	1239.25
1248.467	1231.25
1253.358	1203.25
1258.244	1182.25
1263.124	1179.25
1268	1178.25
1272.871	1144.25
1277.737	1132.25
1282.599	1129.25
1287.455	1142.25
1292.306	1140.25
1297.153	1131.25
1301.995	1145.25
1306.832	1155.25
1311.664	1161.25
1316.491	1182.25
1321.314	1168.25
1326.132	1176.25
1330.945	1165.25
1335.753	1152.25
1340.556	1123.25
1345.354	1124.25
1350.148	1116.25
1354.937	1101.25
1359.722	1096.25
1364.501	1075.25
1369.276	1079.25
1374.046	1060.25
1378.811	1055.25
1383.572	1054.25
1388.327	1055.25
1393.079	1059.25
1397.825	1053.25
1402.567	1048.25
1407.304	1048.25
1412.036	1017.25
1416.764	1022.25
1421.487	1019.25
1426.205	1032.25
1430.919	1051.25
1435.628	1048.25
1440.333	1055.25
1445.032	1070.25
1449.727	1070.25
1454.418	1074.25
1459.104	1085.25
1463.785	1078.25
1468.462	1081.25
1473.134	1068.25
1477.802	1055.25
1482.465	1062.25
1487.123	1058.25
1491.777	1049.25
1496.426	1061.25
1501.071	1059.25
1505.711	1066.25
1510.347	1075.25
1514.978	1097.25
1519.604	1109.25
1524.226	1121.25
1528.844	1099.25
1533.457	1112.25
1538.065	1090.25
1542.669	1109.25
1547.269	1118.25
1551.864	1115.25
1556.454	1114.25
1561.041	1116.25
1565.622	1144.25
1570.199	1144.25
1574.772	1162.25
1579.34	1182.25
1583.904	1189.25
1588.464	1214.25
1593.019	1230.25
1597.569	1241.25
1602.115	1266.25
1606.657	1279.25
1611.195	1285.25
1615.728	1302.25
1620.256	1306.25
1624.78	1334.25
1629.3	1349.25
1633.816	1371.25
1638.327	1381.25
1642.834	1394.25
1647.336	1409.25
1651.834	1409.25
1656.328	1394.25
1660.817	1395.25
1665.302	1378.25
1669.783	1373.25
1674.259	1323.25
1678.732	1298.25
1683.199	1252.25
1687.663	1219.25
1692.122	1144.25
1696.577	1119.25
1701.028	1072.25
1705.474	1032.25
1709.917	988.25
1714.355	970.25
1718.788	957.25
1723.218	941.25
1727.643	929.25
1732.064	920.25
1736.481	889.25
1740.893	874.25
1745.301	858.25
1749.705	812.25
1754.105	818.25
1758.501	792.25
1762.893	778.25
1767.28	765.25
1771.663	770.25
1776.042	762.25
1780.417	756.25
1784.787	751.25
1789.154	763.25
1793.516	766.25
1797.874	753.25
1802.228	759.25
1806.578	748.25
1810.924	733.25
1815.266	709.25
1819.603	715.25
1823.937	704.25
1828.266	697.25
1832.591	689.25
1836.913	683.25
1841.23	692.25
1845.543	691.25
1849.852	693.25
1854.156	679.25
1858.457	687.25
1862.754	695.25
1867.047	697.25
1871.335	696.25
1875.62	701.25
1879.9	704.25
1884.177	702.25
1888.449	700.25
1892.718	701.25
1896.982	711.25
1901.243	710.25
1905.499	692.25
1909.752	694.25
1914	688.25
1918.245	684.25
1922.485	704.25
1926.722	695.25
1930.954	704.25
1935.183	705.25
1939.408	701.25
1943.628	711.25
1947.845	708.25
1952.058	693.25
1956.267	700.25
1960.472	689.25
1964.673	680.25
1968.87	686.25
1973.063	674.25
1977.252	660.25
1981.438	668.25
1985.619	670.25
1989.797	653.25
1993.971	659.25
1998.14	672.25
2002.306	650.25
2006.469	653.25
2010.627	680.25
2014.781	686.25
2018.932	675.25
2023.078	670.25
2027.221	686.25
2031.36	682.25
2035.495	665.25
2039.627	666.25
2043.754	655.25
2047.878	646.25
2051.998	655.25
2056.114	646.25
2060.226	656.25
2064.334	665.25
2068.439	674.25
2072.54	669.25
2076.637	665.25
2080.73	665.25
2084.82	674.25
2088.906	678.25
2092.988	689.25
2097.066	669.25
2101.14	673.25
2105.211	663.25
2109.278	667.25
2113.342	654.25
2117.401	664.25
2121.457	660.25
2125.509	655.25
2129.558	641.25
2133.602	643.25
2137.643	630.25
2141.681	633.25
2145.714	633.25
2149.744	633.25
2153.77	629.25
2157.793	624.25
2161.812	623.25
2165.827	610.25
2169.838	604.25
2173.846	592.25
2177.851	577.25
2181.851	580.25
2185.848	571.25
2189.841	574.25
2193.831	559.25
2197.817	551.25
2201.799	551.25
2205.778	551.25
2209.753	543.25
2213.725	538.25
2217.693	545.25
2221.657	535.25
2225.618	557.25
2229.575	555.25
2233.529	553.25
2237.479	540.25
2241.425	532.25
2245.368	521.25
2249.307	514.25
2253.243	522.25
2257.175	502.25
2261.104	499.25
2265.029	491.25
2268.95	482.25
2272.868	483.25
2276.783	472.25
2280.694	464.25
2284.601	455.25
2288.505	461.25
2292.405	453.25
2296.302	452.25
2300.195	439.25
2304.085	437.25
2307.971	426.25
2311.854	426.25
2315.734	407.25
2319.609	406.25
2323.482	396.25
2327.351	407.25
2331.216	399.25
2335.078	391.25
2338.937	376.25
2342.792	387.25
2346.643	385.25
2350.492	381.25
2354.336	376.25
2358.178	384.25
2362.015	376.25
2365.85	382.25
2369.681	387.25
2373.508	393.25
2377.333	387.25
2381.153	382.25
2384.971	385.25
2388.785	390.25
2392.595	376.25
2396.402	373.25
2400.206	380.25
2404.007	384.25
2407.804	371.25
2411.597	371.25
2415.388	362.25
2419.174	361.25
2422.958	364.25
2426.738	368.25
2430.515	364.25
2434.289	357.25
2438.059	354.25
2441.825	367.25
2445.589	354.25
2449.349	360.25
2453.106	347.25
2456.859	352.25
2460.61	354.25
2464.356	338.25
2468.1	334.25
2471.84	347.25
2475.577	334.25
2479.311	334.25
2483.041	339.25
2486.768	339.25
2490.492	328.25
2494.213	339.25
2497.93	335.25
2501.644	330.25
2505.355	335.25
2509.062	329.25
2512.766	326.25
2516.467	333.25
2520.165	337.25
2523.859	332.25
2527.551	321.25
2531.239	327.25
2534.923	327.25
2538.605	320.25
2542.283	312.25
2545.958	319.25
2549.63	311.25
2553.299	308.25
2556.964	304.25
2560.626	312.25
2564.285	308.25
2567.941	305.25
2571.594	297.25
2575.243	301.25
2578.89	293.25
2582.533	301.25
2586.173	299.25
2589.809	292.25
2593.443	288.25
2597.073	289.25
2600.701	285.25
2604.325	280.25
2607.946	281.25
2611.564	278.25
2615.178	272.25
2618.79	281.25
2622.398	273.25
2626.004	266.25
2629.606	272.25
2633.205	272.25
2636.801	262.25
2640.394	267.25
2643.983	261.25
2647.57	257.25
2651.153	266.25
2654.734	256.25
2658.311	254.25
2661.885	246.25
2665.456	247.25
2669.025	246.25
2672.589	251.25
2676.151	242.25
2679.71	240.25
2683.266	249.25
2686.819	237.25
2690.368	238.25
2693.915	228.25
2697.458	235.25
2700.999	225.25
2704.536	231.25
2708.071	225.25
2711.602	216.25
2715.13	221.25
2718.656	225.25
2722.178	217.25
2725.697	229.25
2729.214	217.25
2732.727	224.25
2736.237	226.25
2739.744	218.25
2743.249	237.25
2746.75	229.25
2750.248	228.25
2753.743	216.25
2757.236	225.25
2760.725	216.25
2764.211	217.25
2767.695	217.25
2771.175	212.25
2774.652	212.25
2778.127	207.25
2781.598	202.25
2785.067	210.25
2788.532	216.25
2791.995	210.25
2795.455	213.25
2798.911	219.25
2802.365	208.25
2805.816	215.25
2809.264	218.25
2812.709	211.25
2816.151	219.25
2819.59	226.25
2823.026	208.25
2826.46	227.25
2829.89	224.25
2833.318	234.25
2836.742	223.25
2840.164	222.25
2843.583	226.25
2846.999	225.25
2850.412	229.25
2853.822	231.25
2857.229	230.25
2860.634	240.25
2864.035	242.25
2867.434	249.25
2870.83	247.25
2874.223	250.25
2877.613	245.25
2881	252.25
2884.385	261.25
2887.766	251.25
2891.145	255.25
2894.521	256.25
2897.894	257.25
2901.264	258.25
2904.631	258.25
2907.996	259.25
2911.358	266.25
2914.717	267.25
2918.073	275.25
2921.426	276.25
2924.777	276.25
2928.124	275.25
2931.469	281.25
2934.811	294.25
2938.15	299.25
2941.487	309.25
2944.821	304.25
2948.152	312.25
2951.48	327.25
2954.805	327.25
2958.128	333.25
2961.447	329.25
2964.765	333.25
2968.079	345.25
2971.39	353.25
2974.699	350.25
2978.005	366.25
2981.308	383.25
2984.609	387.25
2987.907	394.25
2991.202	401.25
2994.494	413.25
2997.784	411.25
3001.07	428.25
3004.355	453.25
3007.636	458.25
3010.915	477.25
3014.191	484.25
3017.464	486.25
3020.734	496.25
3024.002	505.25
3027.267	510.25
3030.53	518.25
3033.789	525.25
3037.046	539.25
3040.301	556.25
3043.552	565.25
3046.801	581.25
3050.048	596.25
3053.291	622.25
3056.532	635.25
3059.771	645.25
3063.006	677.25
3066.239	690.25
3069.469	724.25
3072.697	724.25
3075.922	746.25
3079.144	772.25
3082.364	798.25
3085.581	817.25
3088.795	832.25
3092.007	863.25
3095.216	884.25
3098.423	887.25
3101.627	911.25
3104.828	928.25
3108.026	930.25
3111.222	957.25
3114.416	987.25
3117.607	1011.25
3120.795	1044.25
3123.98	1066.25
3127.163	1080.25
3130.344	1108.25
3133.521	1132.25
3136.696	1166.25
3139.869	1179.25
3143.039	1202.25
3146.206	1212.25
3149.371	1242.25
3152.533	1253.25
3155.693	1256.25
3158.85	1271.25
3162.005	1292.25
3165.157	1302.25
3168.306	1287.25
3171.453	1281.25
3174.597	1289.25
3177.739	1289.25
3180.878	1297.25
3184.014	1305.25
3187.149	1328.25
3190.28	1329.25
3193.409	1327.25
3196.536	1345.25
3199.659	1341.25
3202.781	1346.25
3205.9	1335.25
3209.016	1328.25
3212.13	1353.25
3215.241	1347.25
3218.35	1336.25
3221.456	1327.25
3224.56	1332.25
3227.661	1326.25
3230.76	1296.25
3233.856	1283.25
3236.95	1285.25
3240.041	1258.25
3243.13	1249.25
3246.216	1240.25
3249.3	1221.25
3252.382	1211.25
3255.46	1212.25
3258.537	1194.25
3261.611	1199.25
3264.682	1181.25
3267.751	1183.25
3270.818	1178.25
3273.882	1160.25
3276.943	1171.25
3280.002	1152.25
3283.059	1140.25
3286.113	1143.25
3289.165	1116.25
3292.214	1114.25
3295.261	1098.25
3298.306	1060.25
3301.348	1068.25
3304.387	1058.25
3307.425	1034.25
3310.459	1016.25
3313.492	1003.25
3316.521	978.25
3319.549	981.25
3322.574	958.25
3325.597	971.25
3328.617	952.25
3331.635	955.25
3334.65	946.25
3337.663	934.25
3340.674	938.25
3343.682	937.25
3346.688	927.25
3349.691	929.25
3352.692	934.25
3355.691	914.25
3358.687	902.25
3361.681	886.25
3364.673	881.25
3367.662	878.25
3370.649	880.25
3373.633	857.25
3376.615	860.25
3379.595	836.25
3382.572	823.25
3385.547	823.25
3388.52	798.25
3391.49	802.25
3394.458	787.25
3397.424	771.25
3400.387	766.25
3403.348	758.25
3406.307	743.25
3409.263	737.25
3412.217	734.25
3415.168	713.25
3418.118	725.25
3421.065	708.25
3424.009	703.25
3426.951	672.25
3429.891	687.25
3432.829	669.25
3435.764	655.25
3438.697	637.25
3441.628	630.25
3444.557	614.25
3447.483	586.25
3450.407	590.25
3453.328	568.25
3456.247	539.25
3459.164	536.25
3462.079	517.25
3464.991	510.25
3467.902	490.25
3470.809	481.25
3473.715	458.25
3476.618	445.25
3479.519	421.25
3482.418	426.25
3485.315	405.25
3488.209	392.25
3491.101	383.25
3493.99	374.25
3496.878	362.25
3499.763	353.25
3502.646	337.25
3505.527	332.25
3508.405	318.25
3511.281	305.25
3514.155	294.25
3517.027	281.25
3519.897	258.25
3522.764	258.25
3525.629	249.25
3528.492	232.25
3531.352	221.25
3534.211	208.25
3537.067	189.25
3539.921	185.25
3542.773	179.25
3545.622	162.25
3548.469	149.25
3551.315	141.25
3554.157	140.25
3556.998	127.25
3559.837	127.25
3562.673	112.25
3565.507	106.25
3568.339	93.25
3571.169	84.25
3573.996	85.25
3576.822	85.25
3579.645	68.25
3582.466	66.25
3585.285	65.25
3588.101	51.25
3590.916	53.25
3593.728	50.25
3596.538	40.25
3599.346	39.25
3602.152	32.25
3604.956	19.25
3607.757	21.25
3610.556	15.25
3613.354	3.25
3616.149	13.25
3618.942	11.25
3621.732	0.25
3624.521	-5.75
3627.307	-7.75
3630.092	-11.75
3632.874	-14.75
3635.654	-24.75
3638.432	-23.75
3641.208	-29.75
3643.982	-28.75
3646.753	-29.75
3649.523	-30.75
3652.29	-37.75
3655.055	-34.75
3657.818	-35.75
3660.579	-41.75
3663.338	-50.75
3666.095	-49.75
3668.849	-52.75
3671.602	-55.75
3674.352	-59.75
3677.101	-60.75
3679.847	-57.75
3682.591	-59.75
3685.333	-64.75
3688.073	-61.75
3690.811	-71.75
3693.547	-72.75
3696.281	-71.75
3699.013	-77.75
3701.742	-79.75
3704.47	-80.75
3707.195	-77.75
3709.919	-74.75
3712.64	-80.75
3715.359	-81.75
3718.076	-79.75
3720.792	-83.75
3723.505	-84.75
3726.216	-83.75
3728.925	-88.75
3731.632	-86.75
3734.336	-90.75
3737.039	-96.75
3739.74	-92.75
3742.439	-92.75
3745.136	-91.75
3747.83	-93.75
3750.523	-90.75
3753.213	-95.75
3755.902	-98.75
3758.589	-92.75
3761.273	-92.75
3763.956	-93.75
3766.636	-98.75
3769.315	-95.75
3771.991	-94.75
3774.665	-95.75
3777.338	-98.75
3780.008	-98.75
3782.677	-98.75
3785.343	-99.75
3788.007	-99.75
3790.67	-100.75
3793.33	-101.75
3795.989	-100.75
3798.645	-101.75
3801.299	-100.75
3803.952	-108.75
3806.602	-104.75
3809.251	-102.75
3811.897	-100.75
3814.542	-105.75
3817.184	-102.75
3819.825	-102.75
3822.463	-101.75
3825.1	-101.75
3827.735	-99.75
3830.367	-102.75
3832.998	-107.75
3835.627	-103.75
3838.253	-105.75
3840.878	-105.75
3843.501	-103.75
3846.122	-106.75
3848.741	-100.75
3851.358	-106.75
3853.973	-105.75
3856.586	-102.75
3859.197	-106.75
3861.806	-111.75
3864.414	-107.75
3867.019	-107.75
3869.622	-107.75
3872.224	-111.75
3874.823	-102.75
3877.421	-100.75
3880.016	-99.75
3882.61	-96.75
3885.202	-100.75
3887.792	-97.75
3890.38	-106.75
3892.966	-100.75
3895.55	-106.75
3898.132	-112.75
3900.713	-104.75
3903.291	-110.75
3905.868	-107.75
3908.442	-108.75
3911.015	-108.75
3913.586	-115.75
3916.155	-108.75
3918.722	-114.75
3921.287	-108.75
3923.85	-111.75
3926.411	-109.75
3928.971	-108.75
3931.528	-110.75
3934.084	-109.75
3936.638	-107.75
3939.19	-113.75
3941.74	-110.75
3944.288	-112.75
3946.834	-108.75
3949.378	-111.75
3951.921	-106.75
3954.462	-114.75
3957	-110.75
3959.537	-112.75
3962.072	-108.75
3964.606	-115.75
3967.137	-113.75
3969.667	-110.75
3972.194	-110.75
3974.72	-110.75
3977.244	-111.75
3979.766	-112.75
3982.286	-105.75
3984.805	-106.75
3987.321	-112.75
3989.836	-114.75
3992.349	-110.75
3994.86	-111.75
3997.369	-110.75
3999.877	-114.75
4002.382	-106.75
4004.886	-105.75
4007.388	-108.75
4009.888	-107.75
4012.386	-110.75
4014.883	-107.75
4017.377	-111.75
4019.87	-111.75
4022.361	-112.75
4024.85	-113.75
4027.338	-111.75
4029.823	-111.75
4032.307	-106.75
4034.789	-107.75
4037.269	-109.75
4039.747	-107.75
4042.224	-105.75
4044.699	-112.75
4047.172	-113.75
4049.643	-110.75
4052.112	-112.75
4054.58	-112.75
4057.046	-115.75
4059.51	-108.75
4061.972	-111.75
4064.432	-104.75
4066.891	-109.75
4069.348	-108.75
4071.803	-110.75
4074.256	-114.75
4076.708	-110.75
4079.158	-117.75
4081.606	-115.75
4084.052	-110.75
4086.497	-110.75
4088.939	-108.75
4091.38	-111.75
4093.819	-110.75
4096.257	-117.75
4098.693	-114.75
4101.127	-110.75
4103.559	-113.75
4105.989	-71.75
4108.418	-69.75
4110.845	-68.75
4113.27	-61.75
4115.694	-59.75
4118.115	-54.75
4120.535	-106.75
4122.954	-113.75
4125.37	-112.75
4127.785	-114.75
4130.198	-111.75
4132.609	-114.75
4135.019	-116.75
4137.427	-112.75
4139.833	-112.75
4142.237	-114.75
