Data from 100000000CFU2_A_RamanShift_1.txt Node
Date: Tue Jan 31 15:38:34 IST 2017
User: aro
Spectrometer: QEPB0276
Trigger mode: 0
Integration Time (sec): 5.000000E0
Scans to average: 1
Electric dark correction enabled: true
Nonlinearity correction enabled: false
Boxcar width: 0
XAxis mode: Raman Shifts
Number of Pixels in Spectrum: 1044
>>>>>Begin Spectral Data<<<<<
160.701	-29.38
166.742	2.62
172.777	71.62
178.805	294.62
184.826	815.62
190.841	1645.62
196.849	2538.62
202.85	3138.62
208.845	3241.62
214.833	3158.62
220.815	3030.62
226.789	2937.62
232.758	2902.62
238.719	2799.62
244.674	2702.62
250.623	2589.62
256.565	2465.62
262.5	2354.62
268.429	2240.62
274.351	2180.62
280.267	2091.62
286.176	2017.62
292.079	1958.62
297.975	1896.62
303.865	1848.62
309.748	1787.62
315.625	1774.62
321.495	1731.62
327.359	1713.62
333.217	1668.62
339.068	1689.62
344.912	1672.62
350.751	1660.62
356.583	1648.62
362.408	1664.62
368.227	1671.62
374.04	1683.62
379.847	1674.62
385.647	1693.62
391.44	1697.62
397.228	1710.62
403.009	1690.62
408.784	1716.62
414.553	1718.62
420.315	1728.62
426.071	1732.62
431.821	1738.62
437.565	1714.62
443.302	1729.62
449.033	1707.62
454.758	1716.62
460.477	1706.62
466.189	1697.62
471.896	1690.62
477.596	1681.62
483.29	1672.62
488.978	1662.62
494.66	1666.62
500.335	1631.62
506.005	1612.62
511.668	1556.62
517.325	1540.62
522.977	1500.62
528.622	1508.62
534.261	1482.62
539.894	1465.62
545.521	1454.62
551.141	1425.62
556.756	1435.62
562.365	1405.62
567.968	1412.62
573.565	1384.62
579.155	1394.62
584.74	1393.62
590.319	1376.62
595.892	1363.62
601.459	1350.62
607.02	1342.62
612.575	1353.62
618.124	1338.62
623.667	1313.62
629.204	1308.62
634.735	1291.62
640.261	1283.62
645.781	1289.62
651.294	1272.62
656.802	1260.62
662.304	1257.62
667.8	1254.62
673.29	1243.62
678.775	1254.62
684.254	1229.62
689.726	1230.62
695.193	1217.62
700.655	1222.62
706.11	1206.62
711.56	1201.62
717.004	1205.62
722.442	1200.62
727.874	1191.62
733.301	1179.62
738.722	1167.62
744.137	1181.62
749.547	1164.62
754.951	1159.62
760.349	1154.62
765.741	1159.62
771.128	1159.62
776.509	1172.62
781.885	1161.62
787.254	1172.62
792.618	1159.62
797.977	1154.62
803.33	1134.62
808.677	1145.62
814.019	1133.62
819.355	1112.62
824.686	1101.62
830.011	1099.62
835.33	1096.62
840.644	1078.62
845.952	1077.62
851.255	1069.62
856.552	1077.62
861.844	1063.62
867.13	1050.62
872.41	1066.62
877.686	1044.62
882.955	1041.62
888.219	1034.62
893.478	1005.62
898.731	997.62
903.979	976.62
909.221	972.62
914.458	970.62
919.69	942.62
924.916	957.62
930.136	932.62
935.351	953.62
940.561	934.62
945.766	944.62
950.965	943.62
956.158	924.62
961.347	938.62
966.529	917.62
971.707	905.62
976.879	892.62
982.046	886.62
987.208	884.62
992.364	868.62
997.515	868.62
1002.66	868.62
1007.801	890.62
1012.936	897.62
1018.066	894.62
1023.19	897.62
1028.309	914.62
1033.423	912.62
1038.532	912.62
1043.636	901.62
1048.734	901.62
1053.827	888.62
1058.915	881.62
1063.998	871.62
1069.075	871.62
1074.147	884.62
1079.214	875.62
1084.276	870.62
1089.333	893.62
1094.385	900.62
1099.431	889.62
1104.472	898.62
1109.509	902.62
1114.54	885.62
1119.565	887.62
1124.586	854.62
1129.602	868.62
1134.613	858.62
1139.618	845.62
1144.619	841.62
1149.614	839.62
1154.604	844.62
1159.589	858.62
1164.57	861.62
1169.545	865.62
1174.515	858.62
1179.48	872.62
1184.44	856.62
1189.395	855.62
1194.345	869.62
1199.29	854.62
1204.23	857.62
1209.165	857.62
1214.095	853.62
1219.021	852.62
1223.941	868.62
1228.856	871.62
1233.766	865.62
1238.672	881.62
1243.572	878.62
1248.467	873.62
1253.358	870.62
1258.244	864.62
1263.124	834.62
1268	827.62
1272.871	814.62
1277.737	817.62
1282.599	807.62
1287.455	817.62
1292.306	810.62
1297.153	813.62
1301.995	814.62
1306.832	821.62
1311.664	844.62
1316.491	835.62
1321.314	845.62
1326.132	838.62
1330.945	824.62
1335.753	822.62
1340.556	804.62
1345.354	789.62
1350.148	780.62
1354.937	766.62
1359.722	764.62
1364.501	766.62
1369.276	753.62
1374.046	769.62
1378.811	768.62
1383.572	758.62
1388.327	758.62
1393.079	757.62
1397.825	744.62
1402.567	753.62
1407.304	735.62
1412.036	748.62
1416.764	722.62
1421.487	721.62
1426.205	746.62
1430.919	734.62
1435.628	740.62
1440.333	754.62
1445.032	760.62
1449.727	761.62
1454.418	765.62
1459.104	758.62
1463.785	760.62
1468.462	762.62
1473.134	749.62
1477.802	751.62
1482.465	741.62
1487.123	742.62
1491.777	746.62
1496.426	744.62
1501.071	744.62
1505.711	752.62
1510.347	760.62
1514.978	774.62
1519.604	781.62
1524.226	781.62
1528.844	790.62
1533.457	784.62
1538.065	781.62
1542.669	790.62
1547.269	786.62
1551.864	776.62
1556.454	794.62
1561.041	790.62
1565.622	788.62
1570.199	816.62
1574.772	814.62
1579.34	839.62
1583.904	862.62
1588.464	873.62
1593.019	868.62
1597.569	884.62
1602.115	891.62
1606.657	910.62
1611.195	901.62
1615.728	926.62
1620.256	932.62
1624.78	937.62
1629.3	953.62
1633.816	962.62
1638.327	974.62
1642.834	991.62
1647.336	986.62
1651.834	992.62
1656.328	999.62
1660.817	986.62
1665.302	968.62
1669.783	963.62
1674.259	935.62
1678.732	909.62
1683.199	897.62
1687.663	859.62
1692.122	821.62
1696.577	801.62
1701.028	756.62
1705.474	731.62
1709.917	723.62
1714.355	694.62
1718.788	683.62
1723.218	669.62
1727.643	662.62
1732.064	654.62
1736.481	633.62
1740.893	619.62
1745.301	603.62
1749.705	588.62
1754.105	584.62
1758.501	570.62
1762.893	537.62
1767.28	544.62
1771.663	544.62
1776.042	533.62
1780.417	527.62
1784.787	535.62
1789.154	526.62
1793.516	535.62
1797.874	538.62
1802.228	543.62
1806.578	523.62
1810.924	513.62
1815.266	510.62
1819.603	505.62
1823.937	493.62
1828.266	494.62
1832.591	493.62
1836.913	479.62
1841.23	476.62
1845.543	488.62
1849.852	487.62
1854.156	482.62
1858.457	484.62
1862.754	480.62
1867.047	486.62
1871.335	493.62
1875.62	495.62
1879.9	493.62
1884.177	494.62
1888.449	498.62
1892.718	492.62
1896.982	495.62
1901.243	490.62
1905.499	489.62
1909.752	487.62
1914	484.62
1918.245	481.62
1922.485	490.62
1926.722	489.62
1930.954	508.62
1935.183	500.62
1939.408	497.62
1943.628	502.62
1947.845	493.62
1952.058	497.62
1956.267	495.62
1960.472	485.62
1964.673	491.62
1968.87	482.62
1973.063	479.62
1977.252	476.62
1981.438	468.62
1985.619	466.62
1989.797	467.62
1993.971	460.62
1998.14	463.62
2002.306	463.62
2006.469	464.62
2010.627	471.62
2014.781	479.62
2018.932	486.62
2023.078	473.62
2027.221	479.62
2031.36	471.62
2035.495	474.62
2039.627	471.62
2043.754	458.62
2047.878	465.62
2051.998	454.62
2056.114	460.62
2060.226	464.62
2064.334	463.62
2068.439	476.62
2072.54	470.62
2076.637	476.62
2080.73	474.62
2084.82	469.62
2088.906	480.62
2092.988	477.62
2097.066	474.62
2101.14	478.62
2105.211	476.62
2109.278	472.62
2113.342	467.62
2117.401	471.62
2121.457	455.62
2125.509	454.62
2129.558	448.62
2133.602	451.62
2137.643	450.62
2141.681	453.62
2145.714	450.62
2149.744	448.62
2153.77	447.62
2157.793	431.62
2161.812	442.62
2165.827	432.62
2169.838	424.62
2173.846	415.62
2177.851	411.62
2181.851	415.62
2185.848	408.62
2189.841	402.62
2193.831	393.62
2197.817	384.62
2201.799	389.62
2205.778	385.62
2209.753	382.62
2213.725	394.62
2217.693	390.62
2221.657	386.62
2225.618	398.62
2229.575	387.62
2233.529	373.62
2237.479	371.62
2241.425	385.62
2245.368	374.62
2249.307	365.62
2253.243	362.62
2257.175	356.62
2261.104	349.62
2265.029	348.62
2268.95	342.62
2272.868	334.62
2276.783	326.62
2280.694	326.62
2284.601	329.62
2288.505	314.62
2292.405	324.62
2296.302	310.62
2300.195	301.62
2304.085	314.62
2307.971	294.62
2311.854	298.62
2315.734	283.62
2319.609	287.62
2323.482	273.62
2327.351	284.62
2331.216	282.62
2335.078	277.62
2338.937	273.62
2342.792	266.62
2346.643	265.62
2350.492	272.62
2354.336	256.62
2358.178	268.62
2362.015	261.62
2365.85	264.62
2369.681	268.62
2373.508	268.62
2377.333	271.62
2381.153	273.62
2384.971	272.62
2388.785	270.62
2392.595	264.62
2396.402	266.62
2400.206	268.62
2404.007	268.62
2407.804	252.62
2411.597	255.62
2415.388	258.62
2419.174	255.62
2422.958	249.62
2426.738	261.62
2430.515	257.62
2434.289	247.62
2438.059	249.62
2441.825	260.62
2445.589	247.62
2449.349	248.62
2453.106	238.62
2456.859	235.62
2460.61	243.62
2464.356	236.62
2468.1	232.62
2471.84	240.62
2475.577	232.62
2479.311	242.62
2483.041	235.62
2486.768	229.62
2490.492	236.62
2494.213	235.62
2497.93	229.62
2501.644	234.62
2505.355	234.62
2509.062	237.62
2512.766	234.62
2516.467	226.62
2520.165	226.62
2523.859	224.62
2527.551	235.62
2531.239	223.62
2534.923	217.62
2538.605	215.62
2542.283	219.62
2545.958	220.62
2549.63	203.62
2553.299	213.62
2556.964	216.62
2560.626	219.62
2564.285	210.62
2567.941	208.62
2571.594	203.62
2575.243	207.62
2578.89	206.62
2582.533	201.62
2586.173	193.62
2589.809	197.62
2593.443	199.62
2597.073	190.62
2600.701	189.62
2604.325	191.62
2607.946	191.62
2611.564	198.62
2615.178	188.62
2618.79	198.62
2622.398	183.62
2626.004	191.62
2629.606	181.62
2633.205	181.62
2636.801	186.62
2640.394	185.62
2643.983	178.62
2647.57	187.62
2651.153	175.62
2654.734	173.62
2658.311	170.62
2661.885	172.62
2665.456	169.62
2669.025	171.62
2672.589	174.62
2676.151	164.62
2679.71	154.62
2683.266	169.62
2686.819	167.62
2690.368	161.62
2693.915	160.62
2697.458	165.62
2700.999	162.62
2704.536	155.62
2708.071	152.62
2711.602	149.62
2715.13	149.62
2718.656	156.62
2722.178	146.62
2725.697	150.62
2729.214	145.62
2732.727	158.62
2736.237	153.62
2739.744	151.62
2743.249	158.62
2746.75	170.62
2750.248	152.62
2753.743	148.62
2757.236	156.62
2760.725	150.62
2764.211	153.62
2767.695	150.62
2771.175	144.62
2774.652	145.62
2778.127	147.62
2781.598	146.62
2785.067	145.62
2788.532	154.62
2791.995	152.62
2795.455	147.62
2798.911	153.62
2802.365	146.62
2805.816	152.62
2809.264	146.62
2812.709	157.62
2816.151	158.62
2819.59	149.62
2823.026	148.62
2826.46	159.62
2829.89	151.62
2833.318	169.62
2836.742	149.62
2840.164	161.62
2843.583	159.62
2846.999	164.62
2850.412	159.62
2853.822	167.62
2857.229	155.62
2860.634	167.62
2864.035	174.62
2867.434	178.62
2870.83	176.62
2874.223	176.62
2877.613	178.62
2881	178.62
2884.385	180.62
2887.766	174.62
2891.145	177.62
2894.521	185.62
2897.894	177.62
2901.264	179.62
2904.631	187.62
2907.996	189.62
2911.358	183.62
2914.717	183.62
2918.073	195.62
2921.426	194.62
2924.777	189.62
2928.124	203.62
2931.469	208.62
2934.811	209.62
2938.15	207.62
2941.487	216.62
2944.821	220.62
2948.152	227.62
2951.48	227.62
2954.805	231.62
2958.128	237.62
2961.447	233.62
2964.765	239.62
2968.079	238.62
2971.39	250.62
2974.699	252.62
2978.005	254.62
2981.308	266.62
2984.609	278.62
2987.907	279.62
2991.202	286.62
2994.494	297.62
2997.784	312.62
3001.07	309.62
3004.355	313.62
3007.636	335.62
3010.915	329.62
3014.191	341.62
3017.464	350.62
3020.734	361.62
3024.002	367.62
3027.267	365.62
3030.53	375.62
3033.789	380.62
3037.046	392.62
3040.301	405.62
3043.552	406.62
3046.801	419.62
3050.048	436.62
3053.291	434.62
3056.532	454.62
3059.771	468.62
3063.006	488.62
3066.239	503.62
3069.469	513.62
3072.697	528.62
3075.922	542.62
3079.144	565.62
3082.364	570.62
3085.581	579.62
3088.795	595.62
3092.007	622.62
3095.216	641.62
3098.423	639.62
3101.627	663.62
3104.828	666.62
3108.026	680.62
3111.222	702.62
3114.416	708.62
3117.607	730.62
3120.795	749.62
3123.98	770.62
3127.163	795.62
3130.344	797.62
3133.521	822.62
3136.696	834.62
3139.869	867.62
3143.039	886.62
3146.206	879.62
3149.371	894.62
3152.533	892.62
3155.693	920.62
3158.85	926.62
3162.005	928.62
3165.157	944.62
3168.306	952.62
3171.453	950.62
3174.597	940.62
3177.739	946.62
3180.878	955.62
3184.014	955.62
3187.149	955.62
3190.28	953.62
3193.409	963.62
3196.536	970.62
3199.659	979.62
3202.781	978.62
3205.9	980.62
3209.016	990.62
3212.13	973.62
3215.241	986.62
3218.35	966.62
3221.456	968.62
3224.56	957.62
3227.661	947.62
3230.76	933.62
3233.856	929.62
3236.95	929.62
3240.041	921.62
3243.13	904.62
3246.216	888.62
3249.3	885.62
3252.382	883.62
3255.46	880.62
3258.537	874.62
3261.611	859.62
3264.682	874.62
3267.751	862.62
3270.818	853.62
3273.882	852.62
3276.943	852.62
3280.002	843.62
3283.059	834.62
3286.113	821.62
3289.165	812.62
3292.214	805.62
3295.261	808.62
3298.306	774.62
3301.348	764.62
3304.387	746.62
3307.425	747.62
3310.459	740.62
3313.492	736.62
3316.521	714.62
3319.549	715.62
3322.574	701.62
3325.597	696.62
3328.617	694.62
3331.635	684.62
3334.65	681.62
3337.663	676.62
3340.674	666.62
3343.682	670.62
3346.688	674.62
3349.691	674.62
3352.692	672.62
3355.691	666.62
3358.687	664.62
3361.681	644.62
3364.673	645.62
3367.662	642.62
3370.649	629.62
3373.633	623.62
3376.615	614.62
3379.595	608.62
3382.572	604.62
3385.547	598.62
3388.52	573.62
3391.49	579.62
3394.458	561.62
3397.424	562.62
3400.387	544.62
3403.348	549.62
3406.307	541.62
3409.263	538.62
3412.217	533.62
3415.168	525.62
3418.118	527.62
3421.065	524.62
3424.009	505.62
3426.951	498.62
3429.891	482.62
3432.829	477.62
3435.764	474.62
3438.697	448.62
3441.628	459.62
3444.557	447.62
3447.483	428.62
3450.407	429.62
3453.328	409.62
3456.247	394.62
3459.164	387.62
3462.079	368.62
3464.991	363.62
3467.902	359.62
3470.809	344.62
3473.715	327.62
3476.618	315.62
3479.519	305.62
3482.418	299.62
3485.315	296.62
3488.209	284.62
3491.101	276.62
3493.99	276.62
3496.878	265.62
3499.763	253.62
3502.646	239.62
3505.527	232.62
3508.405	229.62
3511.281	219.62
3514.155	214.62
3517.027	200.62
3519.897	195.62
3522.764	184.62
3525.629	172.62
3528.492	168.62
3531.352	158.62
3534.211	146.62
3537.067	135.62
3539.921	125.62
3542.773	118.62
3545.622	117.62
3548.469	113.62
3551.315	98.62
3554.157	96.62
3556.998	92.62
3559.837	89.62
3562.673	86.62
3565.507	77.62
3568.339	67.62
3571.169	59.62
3573.996	57.62
3576.822	56.62
3579.645	49.62
3582.466	43.62
3585.285	44.62
3588.101	35.62
3590.916	31.62
3593.728	30.62
3596.538	28.62
3599.346	27.62
3602.152	19.62
3604.956	15.62
3607.757	8.62
3610.556	5.62
3613.354	6.62
3616.149	0.62
3618.942	4.62
3621.732	-1.38
3624.521	-6.38
3627.307	-10.38
3630.092	-11.38
3632.874	-9.38
3635.654	-19.38
3638.432	-13.38
3641.208	-17.38
3643.982	-22.38
3646.753	-21.38
3649.523	-25.38
3652.29	-30.38
3655.055	-30.38
3657.818	-31.38
3660.579	-34.38
3663.338	-34.38
3666.095	-40.38
3668.849	-40.38
3671.602	-41.38
3674.352	-50.38
3677.101	-49.38
3679.847	-43.38
3682.591	-49.38
3685.333	-50.38
3688.073	-53.38
3690.811	-48.38
3693.547	-56.38
3696.281	-52.38
3699.013	-53.38
3701.742	-56.38
3704.47	-59.38
3707.195	-53.38
3709.919	-57.38
3712.64	-61.38
3715.359	-61.38
3718.076	-64.38
3720.792	-62.38
3723.505	-63.38
3726.216	-61.38
3728.925	-64.38
3731.632	-65.38
3734.336	-63.38
3737.039	-67.38
3739.74	-70.38
3742.439	-69.38
3745.136	-72.38
3747.83	-68.38
3750.523	-71.38
3753.213	-81.38
3755.902	-71.38
3758.589	-67.38
3761.273	-70.38
3763.956	-66.38
3766.636	-70.38
3769.315	-70.38
3771.991	-72.38
3774.665	-73.38
3777.338	-72.38
3780.008	-77.38
3782.677	-76.38
3785.343	-73.38
3788.007	-72.38
3790.67	-76.38
3793.33	-70.38
3795.989	-72.38
3798.645	-73.38
3801.299	-76.38
3803.952	-81.38
3806.602	-77.38
3809.251	-76.38
3811.897	-81.38
3814.542	-79.38
3817.184	-74.38
3819.825	-71.38
3822.463	-71.38
3825.1	-74.38
3827.735	-77.38
3830.367	-77.38
3832.998	-80.38
3835.627	-81.38
3838.253	-77.38
3840.878	-82.38
3843.501	-77.38
3846.122	-80.38
3848.741	-74.38
3851.358	-82.38
3853.973	-77.38
3856.586	-74.38
3859.197	-76.38
3861.806	-80.38
3864.414	-76.38
3867.019	-84.38
3869.622	-81.38
3872.224	-82.38
3874.823	-77.38
3877.421	-75.38
3880.016	-70.38
3882.61	-71.38
3885.202	-68.38
3887.792	-71.38
3890.38	-74.38
3892.966	-78.38
3895.55	-85.38
3898.132	-83.38
3900.713	-83.38
3903.291	-84.38
3905.868	-77.38
3908.442	-77.38
3911.015	-79.38
3913.586	-85.38
3916.155	-78.38
3918.722	-82.38
3921.287	-84.38
3923.85	-85.38
3926.411	-83.38
3928.971	-81.38
3931.528	-84.38
3934.084	-80.38
3936.638	-79.38
3939.19	-81.38
3941.74	-78.38
3944.288	-84.38
3946.834	-82.38
3949.378	-82.38
3951.921	-83.38
3954.462	-84.38
3957	-79.38
3959.537	-84.38
3962.072	-77.38
3964.606	-82.38
3967.137	-78.38
3969.667	-83.38
3972.194	-83.38
3974.72	-79.38
3977.244	-80.38
3979.766	-83.38
3982.286	-79.38
3984.805	-80.38
3987.321	-81.38
3989.836	-85.38
3992.349	-82.38
3994.86	-83.38
3997.369	-79.38
3999.877	-84.38
4002.382	-80.38
4004.886	-80.38
4007.388	-82.38
4009.888	-82.38
4012.386	-80.38
4014.883	-81.38
4017.377	-83.38
4019.87	-80.38
4022.361	-85.38
4024.85	-82.38
4027.338	-83.38
4029.823	-82.38
4032.307	-82.38
4034.789	-76.38
4037.269	-82.38
4039.747	-80.38
4042.224	-80.38
4044.699	-87.38
4047.172	-85.38
4049.643	-82.38
4052.112	-87.38
4054.58	-87.38
4057.046	-85.38
4059.51	-83.38
4061.972	-82.38
4064.432	-79.38
4066.891	-82.38
4069.348	-77.38
4071.803	-84.38
4074.256	-86.38
4076.708	-82.38
4079.158	-87.38
4081.606	-86.38
4084.052	-80.38
4086.497	-81.38
4088.939	-82.38
4091.38	-80.38
4093.819	-84.38
4096.257	-86.38
4098.693	-82.38
4101.127	-80.38
4103.559	-81.38
4105.989	-58.38
4108.418	-50.38
4110.845	-52.38
4113.27	-48.38
4115.694	-45.38
4118.115	-41.38
4120.535	-79.38
4122.954	-83.38
4125.37	-84.38
4127.785	-84.38
4130.198	-84.38
4132.609	-82.38
4135.019	-86.38
4137.427	-84.38
4139.833	-84.38
4142.237	-84.38
