Data from 100000000CFU3_A_RamanShift_1.txt Node
Date: Tue Jan 31 15:39:24 IST 2017
User: aro
Spectrometer: QEPB0276
Trigger mode: 0
Integration Time (sec): 5.000000E0
Scans to average: 1
Electric dark correction enabled: true
Nonlinearity correction enabled: false
Boxcar width: 0
XAxis mode: Raman Shifts
Number of Pixels in Spectrum: 1044
>>>>>Begin Spectral Data<<<<<
160.701	-27.88
166.742	-0.88
172.777	70.12
178.805	285.12
184.826	772.12
190.841	1577.12
196.849	2423.12
202.85	3005.12
208.845	3137.12
214.833	3039.12
220.815	2935.12
226.789	2820.12
232.758	2781.12
238.719	2683.12
244.674	2605.12
250.623	2477.12
256.565	2360.12
262.5	2271.12
268.429	2159.12
274.351	2082.12
280.267	1974.12
286.176	1930.12
292.079	1875.12
297.975	1801.12
303.865	1761.12
309.748	1705.12
315.625	1661.12
321.495	1633.12
327.359	1623.12
333.217	1607.12
339.068	1588.12
344.912	1584.12
350.751	1565.12
356.583	1567.12
362.408	1572.12
368.227	1567.12
374.04	1586.12
379.847	1593.12
385.647	1609.12
391.44	1616.12
397.228	1614.12
403.009	1617.12
408.784	1649.12
414.553	1642.12
420.315	1642.12
426.071	1642.12
431.821	1644.12
437.565	1642.12
443.302	1650.12
449.033	1631.12
454.758	1631.12
460.477	1616.12
466.189	1609.12
471.896	1596.12
477.596	1599.12
483.29	1582.12
488.978	1566.12
494.66	1561.12
500.335	1549.12
506.005	1514.12
511.668	1496.12
517.325	1459.12
522.977	1438.12
528.622	1403.12
534.261	1389.12
539.894	1372.12
545.521	1364.12
551.141	1357.12
556.756	1335.12
562.365	1334.12
567.968	1322.12
573.565	1310.12
579.155	1316.12
584.74	1307.12
590.319	1290.12
595.892	1300.12
601.459	1274.12
607.02	1264.12
612.575	1250.12
618.124	1267.12
623.667	1222.12
629.204	1212.12
634.735	1217.12
640.261	1199.12
645.781	1198.12
651.294	1198.12
656.802	1185.12
662.304	1167.12
667.8	1163.12
673.29	1161.12
678.775	1155.12
684.254	1175.12
689.726	1164.12
695.193	1149.12
700.655	1142.12
706.11	1135.12
711.56	1120.12
717.004	1123.12
722.442	1110.12
727.874	1098.12
733.301	1104.12
738.722	1087.12
744.137	1087.12
749.547	1085.12
754.951	1085.12
760.349	1086.12
765.741	1082.12
771.128	1066.12
776.509	1081.12
781.885	1095.12
787.254	1089.12
792.618	1079.12
797.977	1075.12
803.33	1063.12
808.677	1057.12
814.019	1052.12
819.355	1042.12
824.686	1028.12
830.011	1022.12
835.33	998.12
840.644	1015.12
845.952	991.12
851.255	1001.12
856.552	987.12
861.844	995.12
867.13	979.12
872.41	977.12
877.686	978.12
882.955	981.12
888.219	962.12
893.478	939.12
898.731	920.12
903.979	909.12
909.221	883.12
914.458	871.12
919.69	871.12
924.916	876.12
930.136	875.12
935.351	875.12
940.561	871.12
945.766	858.12
950.965	864.12
956.158	857.12
961.347	854.12
966.529	838.12
971.707	823.12
976.879	821.12
982.046	809.12
987.208	809.12
992.364	798.12
997.515	797.12
1002.66	799.12
1007.801	812.12
1012.936	827.12
1018.066	822.12
1023.19	815.12
1028.309	823.12
1033.423	829.12
1038.532	822.12
1043.636	831.12
1048.734	810.12
1053.827	816.12
1058.915	804.12
1063.998	802.12
1069.075	793.12
1074.147	805.12
1079.214	807.12
1084.276	818.12
1089.333	819.12
1094.385	819.12
1099.431	814.12
1104.472	823.12
1109.509	824.12
1114.54	800.12
1119.565	796.12
1124.586	783.12
1129.602	794.12
1134.613	779.12
1139.618	771.12
1144.619	772.12
1149.614	779.12
1154.604	773.12
1159.589	775.12
1164.57	790.12
1169.545	780.12
1174.515	792.12
1179.48	785.12
1184.44	793.12
1189.395	778.12
1194.345	774.12
1199.29	791.12
1204.23	775.12
1209.165	774.12
1214.095	778.12
1219.021	776.12
1223.941	789.12
1228.856	788.12
1233.766	792.12
1238.672	804.12
1243.572	796.12
1248.467	794.12
1253.358	776.12
1258.244	774.12
1263.124	770.12
1268	753.12
1272.871	761.12
1277.737	735.12
1282.599	742.12
1287.455	741.12
1292.306	735.12
1297.153	740.12
1301.995	745.12
1306.832	745.12
1311.664	768.12
1316.491	762.12
1321.314	759.12
1326.132	749.12
1330.945	753.12
1335.753	720.12
1340.556	724.12
1345.354	710.12
1350.148	709.12
1354.937	695.12
1359.722	693.12
1364.501	700.12
1369.276	682.12
1374.046	692.12
1378.811	678.12
1383.572	689.12
1388.327	682.12
1393.079	689.12
1397.825	677.12
1402.567	666.12
1407.304	672.12
1412.036	663.12
1416.764	651.12
1421.487	658.12
1426.205	675.12
1430.919	652.12
1435.628	677.12
1440.333	676.12
1445.032	693.12
1449.727	706.12
1454.418	700.12
1459.104	707.12
1463.785	691.12
1468.462	700.12
1473.134	685.12
1477.802	667.12
1482.465	679.12
1487.123	675.12
1491.777	667.12
1496.426	666.12
1501.071	681.12
1505.711	694.12
1510.347	687.12
1514.978	701.12
1519.604	699.12
1524.226	712.12
1528.844	701.12
1533.457	706.12
1538.065	709.12
1542.669	708.12
1547.269	714.12
1551.864	704.12
1556.454	715.12
1561.041	713.12
1565.622	724.12
1570.199	729.12
1574.772	748.12
1579.34	767.12
1583.904	768.12
1588.464	777.12
1593.019	805.12
1597.569	806.12
1602.115	817.12
1606.657	828.12
1611.195	827.12
1615.728	825.12
1620.256	859.12
1624.78	868.12
1629.3	869.12
1633.816	895.12
1638.327	910.12
1642.834	907.12
1647.336	910.12
1651.834	922.12
1656.328	916.12
1660.817	907.12
1665.302	900.12
1669.783	872.12
1674.259	857.12
1678.732	846.12
1683.199	808.12
1687.663	791.12
1692.122	746.12
1696.577	734.12
1701.028	693.12
1705.474	657.12
1709.917	637.12
1714.355	621.12
1718.788	601.12
1723.218	592.12
1727.643	587.12
1732.064	586.12
1736.481	563.12
1740.893	558.12
1745.301	534.12
1749.705	521.12
1754.105	501.12
1758.501	498.12
1762.893	483.12
1767.28	474.12
1771.663	473.12
1776.042	471.12
1780.417	475.12
1784.787	475.12
1789.154	473.12
1793.516	472.12
1797.874	473.12
1802.228	470.12
1806.578	453.12
1810.924	451.12
1815.266	440.12
1819.603	455.12
1823.937	438.12
1828.266	435.12
1832.591	428.12
1836.913	426.12
1841.23	427.12
1845.543	420.12
1849.852	418.12
1854.156	424.12
1858.457	422.12
1862.754	420.12
1867.047	424.12
1871.335	432.12
1875.62	435.12
1879.9	438.12
1884.177	430.12
1888.449	434.12
1892.718	433.12
1896.982	423.12
1901.243	444.12
1905.499	416.12
1909.752	431.12
1914	424.12
1918.245	415.12
1922.485	438.12
1926.722	422.12
1930.954	436.12
1935.183	441.12
1939.408	438.12
1943.628	437.12
1947.845	434.12
1952.058	438.12
1956.267	428.12
1960.472	422.12
1964.673	418.12
1968.87	411.12
1973.063	414.12
1977.252	407.12
1981.438	412.12
1985.619	410.12
1989.797	410.12
1993.971	406.12
1998.14	404.12
2002.306	413.12
2006.469	409.12
2010.627	412.12
2014.781	423.12
2018.932	419.12
2023.078	420.12
2027.221	427.12
2031.36	419.12
2035.495	407.12
2039.627	408.12
2043.754	401.12
2047.878	402.12
2051.998	391.12
2056.114	402.12
2060.226	412.12
2064.334	413.12
2068.439	428.12
2072.54	424.12
2076.637	414.12
2080.73	418.12
2084.82	417.12
2088.906	420.12
2092.988	417.12
2097.066	419.12
2101.14	417.12
2105.211	420.12
2109.278	417.12
2113.342	419.12
2117.401	418.12
2121.457	416.12
2125.509	399.12
2129.558	397.12
2133.602	394.12
2137.643	397.12
2141.681	397.12
2145.714	393.12
2149.744	391.12
2153.77	393.12
2157.793	390.12
2161.812	392.12
2165.827	385.12
2169.838	374.12
2173.846	364.12
2177.851	361.12
2181.851	351.12
2185.848	355.12
2189.841	344.12
2193.831	346.12
2197.817	351.12
2201.799	348.12
2205.778	337.12
2209.753	343.12
2213.725	339.12
2217.693	344.12
2221.657	334.12
2225.618	331.12
2229.575	337.12
2233.529	337.12
2237.479	336.12
2241.425	335.12
2245.368	326.12
2249.307	319.12
2253.243	309.12
2257.175	314.12
2261.104	302.12
2265.029	302.12
2268.95	295.12
2272.868	298.12
2276.783	288.12
2280.694	282.12
2284.601	284.12
2288.505	284.12
2292.405	273.12
2296.302	277.12
2300.195	267.12
2304.085	273.12
2307.971	267.12
2311.854	261.12
2315.734	250.12
2319.609	247.12
2323.482	238.12
2327.351	245.12
2331.216	239.12
2335.078	248.12
2338.937	234.12
2342.792	233.12
2346.643	237.12
2350.492	236.12
2354.336	234.12
2358.178	235.12
2362.015	228.12
2365.85	240.12
2369.681	238.12
2373.508	240.12
2377.333	234.12
2381.153	235.12
2384.971	230.12
2388.785	235.12
2392.595	234.12
2396.402	231.12
2400.206	236.12
2404.007	226.12
2407.804	224.12
2411.597	224.12
2415.388	217.12
2419.174	212.12
2422.958	212.12
2426.738	224.12
2430.515	217.12
2434.289	219.12
2438.059	219.12
2441.825	218.12
2445.589	214.12
2449.349	217.12
2453.106	212.12
2456.859	209.12
2460.61	209.12
2464.356	207.12
2468.1	197.12
2471.84	211.12
2475.577	201.12
2479.311	210.12
2483.041	198.12
2486.768	205.12
2490.492	198.12
2494.213	199.12
2497.93	198.12
2501.644	201.12
2505.355	191.12
2509.062	200.12
2512.766	211.12
2516.467	196.12
2520.165	198.12
2523.859	191.12
2527.551	192.12
2531.239	197.12
2534.923	192.12
2538.605	189.12
2542.283	184.12
2545.958	182.12
2549.63	183.12
2553.299	192.12
2556.964	186.12
2560.626	188.12
2564.285	182.12
2567.941	180.12
2571.594	177.12
2575.243	181.12
2578.89	173.12
2582.533	173.12
2586.173	177.12
2589.809	173.12
2593.443	171.12
2597.073	164.12
2600.701	165.12
2604.325	175.12
2607.946	170.12
2611.564	165.12
2615.178	163.12
2618.79	163.12
2622.398	157.12
2626.004	155.12
2629.606	159.12
2633.205	158.12
2636.801	159.12
2640.394	148.12
2643.983	161.12
2647.57	153.12
2651.153	149.12
2654.734	149.12
2658.311	149.12
2661.885	149.12
2665.456	138.12
2669.025	156.12
2672.589	145.12
2676.151	137.12
2679.71	137.12
2683.266	143.12
2686.819	137.12
2690.368	136.12
2693.915	133.12
2697.458	142.12
2700.999	136.12
2704.536	132.12
2708.071	130.12
2711.602	136.12
2715.13	127.12
2718.656	125.12
2722.178	130.12
2725.697	130.12
2729.214	132.12
2732.727	143.12
2736.237	133.12
2739.744	132.12
2743.249	139.12
2746.75	136.12
2750.248	137.12
2753.743	128.12
2757.236	131.12
2760.725	122.12
2764.211	127.12
2767.695	130.12
2771.175	126.12
2774.652	130.12
2778.127	130.12
2781.598	130.12
2785.067	125.12
2788.532	130.12
2791.995	128.12
2795.455	124.12
2798.911	122.12
2802.365	131.12
2805.816	130.12
2809.264	135.12
2812.709	131.12
2816.151	135.12
2819.59	145.12
2823.026	132.12
2826.46	135.12
2829.89	136.12
2833.318	132.12
2836.742	142.12
2840.164	143.12
2843.583	143.12
2846.999	140.12
2850.412	145.12
2853.822	141.12
2857.229	143.12
2860.634	152.12
2864.035	151.12
2867.434	161.12
2870.83	155.12
2874.223	155.12
2877.613	167.12
2881	163.12
2884.385	172.12
2887.766	167.12
2891.145	171.12
2894.521	167.12
2897.894	173.12
2901.264	165.12
2904.631	171.12
2907.996	176.12
2911.358	178.12
2914.717	176.12
2918.073	180.12
2921.426	180.12
2924.777	184.12
2928.124	193.12
2931.469	200.12
2934.811	197.12
2938.15	208.12
2941.487	205.12
2944.821	211.12
2948.152	217.12
2951.48	229.12
2954.805	219.12
2958.128	224.12
2961.447	232.12
2964.765	236.12
2968.079	233.12
2971.39	239.12
2974.699	244.12
2978.005	247.12
2981.308	254.12
2984.609	266.12
2987.907	261.12
2991.202	274.12
2994.494	285.12
2997.784	289.12
3001.07	299.12
3004.355	304.12
3007.636	319.12
3010.915	324.12
3014.191	330.12
3017.464	340.12
3020.734	347.12
3024.002	344.12
3027.267	363.12
3030.53	353.12
3033.789	377.12
3037.046	381.12
3040.301	385.12
3043.552	391.12
3046.801	393.12
3050.048	421.12
3053.291	421.12
3056.532	437.12
3059.771	455.12
3063.006	470.12
3066.239	494.12
3069.469	505.12
3072.697	513.12
3075.922	527.12
3079.144	540.12
3082.364	560.12
3085.581	567.12
3088.795	584.12
3092.007	595.12
3095.216	619.12
3098.423	626.12
3101.627	633.12
3104.828	664.12
3108.026	662.12
3111.222	678.12
3114.416	693.12
3117.607	723.12
3120.795	727.12
3123.98	750.12
3127.163	761.12
3130.344	784.12
3133.521	799.12
3136.696	811.12
3139.869	835.12
3143.039	855.12
3146.206	852.12
3149.371	872.12
3152.533	890.12
3155.693	892.12
3158.85	904.12
3162.005	907.12
3165.157	926.12
3168.306	933.12
3171.453	920.12
3174.597	923.12
3177.739	925.12
3180.878	923.12
3184.014	926.12
3187.149	936.12
3190.28	919.12
3193.409	951.12
3196.536	938.12
3199.659	946.12
3202.781	950.12
3205.9	949.12
3209.016	964.12
3212.13	958.12
3215.241	933.12
3218.35	955.12
3221.456	949.12
3224.56	933.12
3227.661	926.12
3230.76	924.12
3233.856	911.12
3236.95	926.12
3240.041	889.12
3243.13	893.12
3246.216	880.12
3249.3	863.12
3252.382	855.12
3255.46	856.12
3258.537	852.12
3261.611	840.12
3264.682	839.12
3267.751	842.12
3270.818	831.12
3273.882	825.12
3276.943	828.12
3280.002	815.12
3283.059	812.12
3286.113	810.12
3289.165	799.12
3292.214	791.12
3295.261	790.12
3298.306	765.12
3301.348	756.12
3304.387	747.12
3307.425	729.12
3310.459	721.12
3313.492	709.12
3316.521	707.12
3319.549	696.12
3322.574	687.12
3325.597	672.12
3328.617	681.12
3331.635	671.12
3334.65	671.12
3337.663	658.12
3340.674	659.12
3343.682	663.12
3346.688	666.12
3349.691	656.12
3352.692	644.12
3355.691	655.12
3358.687	640.12
3361.681	638.12
3364.673	627.12
3367.662	630.12
3370.649	618.12
3373.633	618.12
3376.615	598.12
3379.595	591.12
3382.572	591.12
3385.547	582.12
3388.52	568.12
3391.49	561.12
3394.458	558.12
3397.424	548.12
3400.387	539.12
3403.348	532.12
3406.307	537.12
3409.263	526.12
3412.217	522.12
3415.168	502.12
3418.118	507.12
3421.065	513.12
3424.009	494.12
3426.951	483.12
3429.891	482.12
3432.829	478.12
3435.764	471.12
3438.697	466.12
3441.628	446.12
3444.557	436.12
3447.483	416.12
3450.407	414.12
3453.328	410.12
3456.247	398.12
3459.164	372.12
3462.079	366.12
3464.991	355.12
3467.902	349.12
3470.809	334.12
3473.715	325.12
3476.618	312.12
3479.519	300.12
3482.418	297.12
3485.315	291.12
3488.209	278.12
3491.101	268.12
3493.99	260.12
3496.878	252.12
3499.763	255.12
3502.646	239.12
3505.527	240.12
3508.405	231.12
3511.281	209.12
3514.155	201.12
3517.027	198.12
3519.897	184.12
3522.764	187.12
3525.629	174.12
3528.492	171.12
3531.352	157.12
3534.211	148.12
3537.067	141.12
3539.921	123.12
3542.773	116.12
3545.622	112.12
3548.469	105.12
3551.315	99.12
3554.157	93.12
3556.998	93.12
3559.837	93.12
3562.673	80.12
3565.507	77.12
3568.339	66.12
3571.169	63.12
3573.996	58.12
3576.822	60.12
3579.645	44.12
3582.466	46.12
3585.285	46.12
3588.101	44.12
3590.916	41.12
3593.728	31.12
3596.538	32.12
3599.346	26.12
3602.152	21.12
3604.956	12.12
3607.757	8.12
3610.556	12.12
3613.354	5.12
3616.149	13.12
3618.942	5.12
3621.732	-0.88
3624.521	-2.88
3627.307	-4.88
3630.092	-9.88
3632.874	-7.88
3635.654	-18.88
3638.432	-15.88
3641.208	-15.88
3643.982	-24.88
3646.753	-20.88
3649.523	-18.88
3652.29	-22.88
3655.055	-25.88
3657.818	-30.88
3660.579	-33.88
3663.338	-34.88
3666.095	-35.88
3668.849	-36.88
3671.602	-37.88
3674.352	-38.88
3677.101	-39.88
3679.847	-45.88
3682.591	-45.88
3685.333	-46.88
3688.073	-48.88
3690.811	-47.88
3693.547	-51.88
3696.281	-47.88
3699.013	-49.88
3701.742	-56.88
3704.47	-55.88
3707.195	-55.88
3709.919	-54.88
3712.64	-58.88
3715.359	-58.88
3718.076	-60.88
3720.792	-61.88
3723.505	-63.88
3726.216	-57.88
3728.925	-64.88
3731.632	-61.88
3734.336	-58.88
3737.039	-69.88
3739.74	-68.88
3742.439	-66.88
3745.136	-68.88
3747.83	-69.88
3750.523	-69.88
3753.213	-76.88
3755.902	-67.88
3758.589	-65.88
3761.273	-63.88
3763.956	-65.88
3766.636	-73.88
3769.315	-68.88
3771.991	-69.88
3774.665	-69.88
3777.338	-75.88
3780.008	-73.88
3782.677	-71.88
3785.343	-74.88
3788.007	-65.88
3790.67	-72.88
3793.33	-68.88
3795.989	-69.88
3798.645	-72.88
3801.299	-70.88
3803.952	-78.88
3806.602	-71.88
3809.251	-75.88
3811.897	-73.88
3814.542	-74.88
3817.184	-69.88
3819.825	-70.88
3822.463	-73.88
3825.1	-74.88
3827.735	-75.88
3830.367	-73.88
3832.998	-75.88
3835.627	-71.88
3838.253	-74.88
3840.878	-73.88
3843.501	-74.88
3846.122	-73.88
3848.741	-71.88
3851.358	-78.88
3853.973	-75.88
3856.586	-73.88
3859.197	-74.88
3861.806	-79.88
3864.414	-71.88
3867.019	-73.88
3869.622	-74.88
3872.224	-81.88
3874.823	-76.88
3877.421	-73.88
3880.016	-72.88
3882.61	-68.88
3885.202	-66.88
3887.792	-65.88
3890.38	-71.88
3892.966	-72.88
3895.55	-76.88
3898.132	-82.88
3900.713	-73.88
3903.291	-80.88
3905.868	-78.88
3908.442	-79.88
3911.015	-78.88
3913.586	-76.88
3916.155	-73.88
3918.722	-77.88
3921.287	-75.88
3923.85	-77.88
3926.411	-80.88
3928.971	-76.88
3931.528	-81.88
3934.084	-80.88
3936.638	-76.88
3939.19	-76.88
3941.74	-74.88
3944.288	-74.88
3946.834	-75.88
3949.378	-74.88
3951.921	-78.88
3954.462	-79.88
3957	-80.88
3959.537	-83.88
3962.072	-79.88
3964.606	-83.88
3967.137	-76.88
3969.667	-75.88
3972.194	-77.88
3974.72	-72.88
3977.244	-74.88
3979.766	-80.88
3982.286	-78.88
3984.805	-77.88
3987.321	-80.88
3989.836	-80.88
3992.349	-75.88
3994.86	-77.88
3997.369	-74.88
3999.877	-79.88
4002.382	-73.88
4004.886	-74.88
4007.388	-79.88
4009.888	-77.88
4012.386	-80.88
4014.883	-77.88
4017.377	-80.88
4019.87	-77.88
4022.361	-77.88
4024.85	-76.88
4027.338	-77.88
4029.823	-76.88
4032.307	-75.88
4034.789	-74.88
4037.269	-73.88
4039.747	-77.88
4042.224	-78.88
4044.699	-80.88
4047.172	-79.88
4049.643	-75.88
4052.112	-78.88
4054.58	-77.88
4057.046	-77.88
4059.51	-79.88
4061.972	-77.88
4064.432	-77.88
4066.891	-78.88
4069.348	-75.88
4071.803	-76.88
4074.256	-80.88
4076.708	-75.88
4079.158	-80.88
4081.606	-81.88
4084.052	-78.88
4086.497	-79.88
4088.939	-79.88
4091.38	-79.88
4093.819	-81.88
4096.257	-81.88
4098.693	-78.88
4101.127	-73.88
4103.559	-80.88
4105.989	-49.88
4108.418	-48.88
4110.845	-48.88
4113.27	-45.88
4115.694	-45.88
4118.115	-35.88
4120.535	-77.88
4122.954	-81.88
4125.37	-76.88
4127.785	-76.88
4130.198	-77.88
4132.609	-83.88
4135.019	-79.88
4137.427	-81.88
4139.833	-81.88
4142.237	-82.88
