Data from 10000000CFU3_B_RamanShift_1.txt Node
Date: Tue Jan 31 14:46:42 IST 2017
User: aro
Spectrometer: QEPB0276
Trigger mode: 0
Integration Time (sec): 5.000000E0
Scans to average: 1
Electric dark correction enabled: true
Nonlinearity correction enabled: false
Boxcar width: 0
XAxis mode: Raman Shifts
Number of Pixels in Spectrum: 1044
>>>>>Begin Spectral Data<<<<<
160.701	-35.62
166.742	1.38
172.777	89.38
178.805	376.38
184.826	1053.38
190.841	2132.38
196.849	3330.38
202.85	4086.38
208.845	4270.38
214.833	4113.38
220.815	3978.38
226.789	3826.38
232.758	3766.38
238.719	3651.38
244.674	3497.38
250.623	3349.38
256.565	3191.38
262.5	3044.38
268.429	2915.38
274.351	2790.38
280.267	2685.38
286.176	2573.38
292.079	2490.38
297.975	2415.38
303.865	2361.38
309.748	2288.38
315.625	2220.38
321.495	2188.38
327.359	2150.38
333.217	2126.38
339.068	2109.38
344.912	2101.38
350.751	2086.38
356.583	2084.38
362.408	2085.38
368.227	2094.38
374.04	2091.38
379.847	2108.38
385.647	2117.38
391.44	2138.38
397.228	2129.38
403.009	2142.38
408.784	2160.38
414.553	2159.38
420.315	2161.38
426.071	2158.38
431.821	2150.38
437.565	2149.38
443.302	2148.38
449.033	2145.38
454.758	2143.38
460.477	2136.38
466.189	2120.38
471.896	2097.38
477.596	2080.38
483.29	2087.38
488.978	2102.38
494.66	2058.38
500.335	2066.38
506.005	2003.38
511.668	2008.38
517.325	1934.38
522.977	1918.38
528.622	1889.38
534.261	1870.38
539.894	1849.38
545.521	1804.38
551.141	1814.38
556.756	1803.38
562.365	1810.38
567.968	1773.38
573.565	1756.38
579.155	1765.38
584.74	1755.38
590.319	1738.38
595.892	1733.38
601.459	1750.38
607.02	1691.38
612.575	1707.38
618.124	1690.38
623.667	1670.38
629.204	1650.38
634.735	1635.38
640.261	1616.38
645.781	1614.38
651.294	1617.38
656.802	1591.38
662.304	1596.38
667.8	1567.38
673.29	1573.38
678.775	1568.38
684.254	1566.38
689.726	1570.38
695.193	1562.38
700.655	1543.38
706.11	1529.38
711.56	1526.38
717.004	1513.38
722.442	1520.38
727.874	1496.38
733.301	1489.38
738.722	1462.38
744.137	1477.38
749.547	1487.38
754.951	1468.38
760.349	1471.38
765.741	1469.38
771.128	1448.38
776.509	1457.38
781.885	1465.38
787.254	1473.38
792.618	1460.38
797.977	1440.38
803.33	1439.38
808.677	1429.38
814.019	1401.38
819.355	1391.38
824.686	1396.38
830.011	1369.38
835.33	1350.38
840.644	1350.38
845.952	1356.38
851.255	1335.38
856.552	1332.38
861.844	1318.38
867.13	1323.38
872.41	1306.38
877.686	1306.38
882.955	1286.38
888.219	1268.38
893.478	1263.38
898.731	1242.38
903.979	1223.38
909.221	1209.38
914.458	1194.38
919.69	1173.38
924.916	1189.38
930.136	1167.38
935.351	1161.38
940.561	1177.38
945.766	1177.38
950.965	1161.38
956.158	1173.38
961.347	1151.38
966.529	1146.38
971.707	1131.38
976.879	1114.38
982.046	1111.38
987.208	1074.38
992.364	1093.38
997.515	1089.38
1002.66	1095.38
1007.801	1106.38
1012.936	1108.38
1018.066	1118.38
1023.19	1127.38
1028.309	1127.38
1033.423	1138.38
1038.532	1120.38
1043.636	1114.38
1048.734	1112.38
1053.827	1099.38
1058.915	1089.38
1063.998	1080.38
1069.075	1089.38
1074.147	1091.38
1079.214	1097.38
1084.276	1087.38
1089.333	1099.38
1094.385	1102.38
1099.431	1122.38
1104.472	1115.38
1109.509	1109.38
1114.54	1081.38
1119.565	1090.38
1124.586	1089.38
1129.602	1069.38
1134.613	1059.38
1139.618	1063.38
1144.619	1049.38
1149.614	1058.38
1154.604	1053.38
1159.589	1060.38
1164.57	1056.38
1169.545	1081.38
1174.515	1084.38
1179.48	1096.38
1184.44	1081.38
1189.395	1063.38
1194.345	1084.38
1199.29	1062.38
1204.23	1068.38
1209.165	1066.38
1214.095	1050.38
1219.021	1064.38
1223.941	1096.38
1228.856	1073.38
1233.766	1088.38
1238.672	1084.38
1243.572	1088.38
1248.467	1084.38
1253.358	1067.38
1258.244	1074.38
1263.124	1049.38
1268	1046.38
1272.871	1025.38
1277.737	1010.38
1282.599	1019.38
1287.455	1019.38
1292.306	1010.38
1297.153	1017.38
1301.995	1022.38
1306.832	1031.38
1311.664	1047.38
1316.491	1040.38
1321.314	1045.38
1326.132	1043.38
1330.945	1022.38
1335.753	1036.38
1340.556	1004.38
1345.354	994.38
1350.148	990.38
1354.937	969.38
1359.722	946.38
1364.501	954.38
1369.276	948.38
1374.046	945.38
1378.811	941.38
1383.572	931.38
1388.327	939.38
1393.079	930.38
1397.825	938.38
1402.567	928.38
1407.304	919.38
1412.036	910.38
1416.764	909.38
1421.487	912.38
1426.205	909.38
1430.919	929.38
1435.628	922.38
1440.333	935.38
1445.032	948.38
1449.727	957.38
1454.418	962.38
1459.104	957.38
1463.785	966.38
1468.462	948.38
1473.134	941.38
1477.802	932.38
1482.465	926.38
1487.123	925.38
1491.777	931.38
1496.426	919.38
1501.071	942.38
1505.711	955.38
1510.347	954.38
1514.978	962.38
1519.604	975.38
1524.226	983.38
1528.844	982.38
1533.457	986.38
1538.065	978.38
1542.669	982.38
1547.269	971.38
1551.864	974.38
1556.454	989.38
1561.041	996.38
1565.622	1000.38
1570.199	1013.38
1574.772	1028.38
1579.34	1038.38
1583.904	1077.38
1588.464	1077.38
1593.019	1112.38
1597.569	1119.38
1602.115	1137.38
1606.657	1146.38
1611.195	1159.38
1615.728	1176.38
1620.256	1176.38
1624.78	1202.38
1629.3	1213.38
1633.816	1222.38
1638.327	1230.38
1642.834	1250.38
1647.336	1270.38
1651.834	1277.38
1656.328	1266.38
1660.817	1258.38
1665.302	1252.38
1669.783	1216.38
1674.259	1185.38
1678.732	1172.38
1683.199	1120.38
1687.663	1091.38
1692.122	1047.38
1696.577	1011.38
1701.028	960.38
1705.474	908.38
1709.917	887.38
1714.355	868.38
1718.788	854.38
1723.218	849.38
1727.643	826.38
1732.064	819.38
1736.481	796.38
1740.893	778.38
1745.301	757.38
1749.705	724.38
1754.105	710.38
1758.501	691.38
1762.893	682.38
1767.28	670.38
1771.663	661.38
1776.042	662.38
1780.417	675.38
1784.787	668.38
1789.154	670.38
1793.516	669.38
1797.874	672.38
1802.228	669.38
1806.578	646.38
1810.924	633.38
1815.266	630.38
1819.603	620.38
1823.937	609.38
1828.266	615.38
1832.591	600.38
1836.913	602.38
1841.23	600.38
1845.543	594.38
1849.852	606.38
1854.156	599.38
1858.457	587.38
1862.754	603.38
1867.047	609.38
1871.335	604.38
1875.62	618.38
1879.9	638.38
1884.177	619.38
1888.449	620.38
1892.718	622.38
1896.982	614.38
1901.243	630.38
1905.499	605.38
1909.752	603.38
1914	601.38
1918.245	619.38
1922.485	604.38
1926.722	617.38
1930.954	617.38
1935.183	607.38
1939.408	620.38
1943.628	613.38
1947.845	626.38
1952.058	613.38
1956.267	624.38
1960.472	606.38
1964.673	612.38
1968.87	596.38
1973.063	596.38
1977.252	582.38
1981.438	579.38
1985.619	578.38
1989.797	575.38
1993.971	568.38
1998.14	579.38
2002.306	578.38
2006.469	583.38
2010.627	592.38
2014.781	609.38
2018.932	592.38
2023.078	608.38
2027.221	590.38
2031.36	590.38
2035.495	593.38
2039.627	571.38
2043.754	582.38
2047.878	586.38
2051.998	579.38
2056.114	580.38
2060.226	569.38
2064.334	582.38
2068.439	588.38
2072.54	596.38
2076.637	586.38
2080.73	594.38
2084.82	601.38
2088.906	595.38
2092.988	592.38
2097.066	602.38
2101.14	591.38
2105.211	602.38
2109.278	587.38
2113.342	589.38
2117.401	580.38
2121.457	578.38
2125.509	572.38
2129.558	574.38
2133.602	567.38
2137.643	559.38
2141.681	563.38
2145.714	563.38
2149.744	557.38
2153.77	558.38
2157.793	544.38
2161.812	550.38
2165.827	538.38
2169.838	533.38
2173.846	518.38
2177.851	517.38
2181.851	500.38
2185.848	501.38
2189.841	503.38
2193.831	490.38
2197.817	494.38
2201.799	488.38
2205.778	483.38
2209.753	490.38
2213.725	481.38
2217.693	477.38
2221.657	480.38
2225.618	484.38
2229.575	473.38
2233.529	472.38
2237.479	475.38
2241.425	478.38
2245.368	462.38
2249.307	458.38
2253.243	452.38
2257.175	440.38
2261.104	426.38
2265.029	425.38
2268.95	424.38
2272.868	417.38
2276.783	411.38
2280.694	404.38
2284.601	399.38
2288.505	402.38
2292.405	391.38
2296.302	400.38
2300.195	385.38
2304.085	372.38
2307.971	365.38
2311.854	371.38
2315.734	356.38
2319.609	352.38
2323.482	360.38
2327.351	343.38
2331.216	348.38
2335.078	343.38
2338.937	347.38
2342.792	335.38
2346.643	330.38
2350.492	324.38
2354.336	325.38
2358.178	322.38
2362.015	329.38
2365.85	332.38
2369.681	325.38
2373.508	330.38
2377.333	326.38
2381.153	336.38
2384.971	341.38
2388.785	335.38
2392.595	332.38
2396.402	318.38
2400.206	327.38
2404.007	323.38
2407.804	311.38
2411.597	318.38
2415.388	318.38
2419.174	324.38
2422.958	317.38
2426.738	313.38
2430.515	320.38
2434.289	302.38
2438.059	316.38
2441.825	314.38
2445.589	314.38
2449.349	309.38
2453.106	294.38
2456.859	300.38
2460.61	294.38
2464.356	293.38
2468.1	285.38
2471.84	295.38
2475.577	289.38
2479.311	297.38
2483.041	280.38
2486.768	294.38
2490.492	285.38
2494.213	292.38
2497.93	282.38
2501.644	289.38
2505.355	291.38
2509.062	282.38
2512.766	280.38
2516.467	277.38
2520.165	281.38
2523.859	287.38
2527.551	284.38
2531.239	276.38
2534.923	279.38
2538.605	272.38
2542.283	267.38
2545.958	265.38
2549.63	270.38
2553.299	261.38
2556.964	259.38
2560.626	257.38
2564.285	259.38
2567.941	259.38
2571.594	258.38
2575.243	254.38
2578.89	254.38
2582.533	249.38
2586.173	246.38
2589.809	245.38
2593.443	248.38
2597.073	242.38
2600.701	242.38
2604.325	244.38
2607.946	236.38
2611.564	242.38
2615.178	239.38
2618.79	232.38
2622.398	236.38
2626.004	232.38
2629.606	232.38
2633.205	228.38
2636.801	230.38
2640.394	228.38
2643.983	226.38
2647.57	230.38
2651.153	215.38
2654.734	221.38
2658.311	220.38
2661.885	214.38
2665.456	204.38
2669.025	208.38
2672.589	210.38
2676.151	200.38
2679.71	200.38
2683.266	205.38
2686.819	194.38
2690.368	200.38
2693.915	199.38
2697.458	204.38
2700.999	196.38
2704.536	190.38
2708.071	190.38
2711.602	184.38
2715.13	192.38
2718.656	196.38
2722.178	183.38
2725.697	182.38
2729.214	192.38
2732.727	197.38
2736.237	190.38
2739.744	191.38
2743.249	194.38
2746.75	196.38
2750.248	196.38
2753.743	194.38
2757.236	186.38
2760.725	193.38
2764.211	191.38
2767.695	192.38
2771.175	179.38
2774.652	181.38
2778.127	184.38
2781.598	179.38
2785.067	176.38
2788.532	189.38
2791.995	183.38
2795.455	184.38
2798.911	184.38
2802.365	182.38
2805.816	189.38
2809.264	186.38
2812.709	191.38
2816.151	186.38
2819.59	187.38
2823.026	186.38
2826.46	188.38
2829.89	190.38
2833.318	194.38
2836.742	194.38
2840.164	192.38
2843.583	196.38
2846.999	203.38
2850.412	206.38
2853.822	204.38
2857.229	203.38
2860.634	206.38
2864.035	211.38
2867.434	222.38
2870.83	216.38
2874.223	224.38
2877.613	221.38
2881	220.38
2884.385	232.38
2887.766	228.38
2891.145	233.38
2894.521	224.38
2897.894	225.38
2901.264	221.38
2904.631	232.38
2907.996	235.38
2911.358	236.38
2914.717	239.38
2918.073	243.38
2921.426	238.38
2924.777	239.38
2928.124	257.38
2931.469	259.38
2934.811	267.38
2938.15	265.38
2941.487	274.38
2944.821	281.38
2948.152	281.38
2951.48	291.38
2954.805	301.38
2958.128	299.38
2961.447	282.38
2964.765	312.38
2968.079	308.38
2971.39	314.38
2974.699	326.38
2978.005	327.38
2981.308	346.38
2984.609	357.38
2987.907	353.38
2991.202	370.38
2994.494	380.38
2997.784	381.38
3001.07	410.38
3004.355	411.38
3007.636	422.38
3010.915	432.38
3014.191	447.38
3017.464	457.38
3020.734	472.38
3024.002	468.38
3027.267	483.38
3030.53	500.38
3033.789	493.38
3037.046	512.38
3040.301	520.38
3043.552	536.38
3046.801	532.38
3050.048	557.38
3053.291	581.38
3056.532	601.38
3059.771	606.38
3063.006	632.38
3066.239	650.38
3069.469	670.38
3072.697	684.38
3075.922	700.38
3079.144	725.38
3082.364	752.38
3085.581	759.38
3088.795	789.38
3092.007	805.38
3095.216	820.38
3098.423	842.38
3101.627	849.38
3104.828	867.38
3108.026	897.38
3111.222	913.38
3114.416	934.38
3117.607	951.38
3120.795	982.38
3123.98	994.38
3127.163	1030.38
3130.344	1056.38
3133.521	1089.38
3136.696	1102.38
3139.869	1118.38
3143.039	1132.38
3146.206	1155.38
3149.371	1162.38
3152.533	1191.38
3155.693	1212.38
3158.85	1206.38
3162.005	1227.38
3165.157	1210.38
3168.306	1221.38
3171.453	1229.38
3174.597	1228.38
3177.739	1237.38
3180.878	1247.38
3184.014	1241.38
3187.149	1243.38
3190.28	1255.38
3193.409	1261.38
3196.536	1266.38
3199.659	1262.38
3202.781	1273.38
3205.9	1277.38
3209.016	1284.38
3212.13	1288.38
3215.241	1283.38
3218.35	1275.38
3221.456	1256.38
3224.56	1259.38
3227.661	1248.38
3230.76	1223.38
3233.856	1225.38
3236.95	1216.38
3240.041	1202.38
3243.13	1197.38
3246.216	1173.38
3249.3	1155.38
3252.382	1152.38
3255.46	1135.38
3258.537	1143.38
3261.611	1123.38
3264.682	1128.38
3267.751	1129.38
3270.818	1112.38
3273.882	1122.38
3276.943	1112.38
3280.002	1098.38
3283.059	1096.38
3286.113	1089.38
3289.165	1068.38
3292.214	1063.38
3295.261	1034.38
3298.306	1028.38
3301.348	1003.38
3304.387	1001.38
3307.425	978.38
3310.459	962.38
3313.492	958.38
3316.521	952.38
3319.549	937.38
3322.574	914.38
3325.597	908.38
3328.617	907.38
3331.635	896.38
3334.65	906.38
3337.663	888.38
3340.674	869.38
3343.682	897.38
3346.688	893.38
3349.691	875.38
3352.692	878.38
3355.691	873.38
3358.687	870.38
3361.681	851.38
3364.673	851.38
3367.662	837.38
3370.649	830.38
3373.633	823.38
3376.615	807.38
3379.595	798.38
3382.572	786.38
3385.547	785.38
3388.52	764.38
3391.49	756.38
3394.458	751.38
3397.424	731.38
3400.387	738.38
3403.348	719.38
3406.307	698.38
3409.263	702.38
3412.217	697.38
3415.168	688.38
3418.118	682.38
3421.065	671.38
3424.009	665.38
3426.951	658.38
3429.891	646.38
3432.829	640.38
3435.764	625.38
3438.697	598.38
3441.628	598.38
3444.557	578.38
3447.483	562.38
3450.407	556.38
3453.328	536.38
3456.247	523.38
3459.164	515.38
3462.079	494.38
3464.991	477.38
3467.902	467.38
3470.809	453.38
3473.715	443.38
3476.618	417.38
3479.519	416.38
3482.418	398.38
3485.315	393.38
3488.209	374.38
3491.101	367.38
3493.99	358.38
3496.878	352.38
3499.763	328.38
3502.646	331.38
3505.527	306.38
3508.405	305.38
3511.281	292.38
3514.155	282.38
3517.027	267.38
3519.897	252.38
3522.764	248.38
3525.629	234.38
3528.492	226.38
3531.352	203.38
3534.211	199.38
3537.067	189.38
3539.921	173.38
3542.773	163.38
3545.622	158.38
3548.469	151.38
3551.315	143.38
3554.157	133.38
3556.998	125.38
3559.837	117.38
3562.673	113.38
3565.507	103.38
3568.339	94.38
3571.169	86.38
3573.996	79.38
3576.822	76.38
3579.645	71.38
3582.466	65.38
3585.285	64.38
3588.101	54.38
3590.916	49.38
3593.728	45.38
3596.538	40.38
3599.346	37.38
3602.152	29.38
3604.956	20.38
3607.757	24.38
3610.556	11.38
3613.354	9.38
3616.149	10.38
3618.942	10.38
3621.732	-2.62
3624.521	5.38
3627.307	-6.62
3630.092	-10.62
3632.874	-8.62
3635.654	-19.62
3638.432	-18.62
3641.208	-24.62
3643.982	-23.62
3646.753	-28.62
3649.523	-26.62
3652.29	-31.62
3655.055	-30.62
3657.818	-35.62
3660.579	-36.62
3663.338	-39.62
3666.095	-45.62
3668.849	-45.62
3671.602	-54.62
3674.352	-54.62
3677.101	-59.62
3679.847	-57.62
3682.591	-59.62
3685.333	-58.62
3688.073	-57.62
3690.811	-59.62
3693.547	-65.62
3696.281	-67.62
3699.013	-65.62
3701.742	-68.62
3704.47	-74.62
3707.195	-74.62
3709.919	-73.62
3712.64	-71.62
3715.359	-78.62
3718.076	-76.62
3720.792	-74.62
3723.505	-75.62
3726.216	-71.62
3728.925	-85.62
3731.632	-82.62
3734.336	-84.62
3737.039	-89.62
3739.74	-86.62
3742.439	-86.62
3745.136	-84.62
3747.83	-85.62
3750.523	-87.62
3753.213	-87.62
3755.902	-87.62
3758.589	-83.62
3761.273	-85.62
3763.956	-83.62
3766.636	-89.62
3769.315	-90.62
3771.991	-90.62
3774.665	-91.62
3777.338	-89.62
3780.008	-94.62
3782.677	-87.62
3785.343	-92.62
3788.007	-84.62
3790.67	-90.62
3793.33	-90.62
3795.989	-95.62
3798.645	-91.62
3801.299	-90.62
3803.952	-96.62
3806.602	-95.62
3809.251	-95.62
3811.897	-96.62
3814.542	-95.62
3817.184	-93.62
3819.825	-92.62
3822.463	-97.62
3825.1	-93.62
3827.735	-99.62
3830.367	-97.62
3832.998	-96.62
3835.627	-98.62
3838.253	-98.62
3840.878	-97.62
3843.501	-95.62
3846.122	-94.62
3848.741	-93.62
3851.358	-95.62
3853.973	-97.62
3856.586	-95.62
3859.197	-97.62
3861.806	-100.62
3864.414	-102.62
3867.019	-100.62
3869.622	-96.62
3872.224	-101.62
3874.823	-96.62
3877.421	-95.62
3880.016	-93.62
3882.61	-84.62
3885.202	-92.62
3887.792	-88.62
3890.38	-94.62
3892.966	-98.62
3895.55	-102.62
3898.132	-100.62
3900.713	-95.62
3903.291	-101.62
3905.868	-99.62
3908.442	-98.62
3911.015	-97.62
3913.586	-100.62
3916.155	-99.62
3918.722	-108.62
3921.287	-100.62
3923.85	-105.62
3926.411	-103.62
3928.971	-97.62
3931.528	-105.62
3934.084	-99.62
3936.638	-99.62
3939.19	-100.62
3941.74	-97.62
3944.288	-102.62
3946.834	-103.62
3949.378	-102.62
3951.921	-101.62
3954.462	-101.62
3957	-103.62
3959.537	-102.62
3962.072	-96.62
3964.606	-102.62
3967.137	-101.62
3969.667	-99.62
3972.194	-100.62
3974.72	-100.62
3977.244	-100.62
3979.766	-101.62
3982.286	-101.62
3984.805	-99.62
3987.321	-100.62
3989.836	-103.62
3992.349	-102.62
3994.86	-97.62
3997.369	-100.62
3999.877	-106.62
4002.382	-99.62
4004.886	-100.62
4007.388	-100.62
4009.888	-100.62
4012.386	-100.62
4014.883	-99.62
4017.377	-97.62
4019.87	-100.62
4022.361	-102.62
4024.85	-101.62
4027.338	-101.62
4029.823	-98.62
4032.307	-102.62
4034.789	-100.62
4037.269	-100.62
4039.747	-101.62
4042.224	-97.62
4044.699	-103.62
4047.172	-104.62
4049.643	-104.62
4052.112	-104.62
4054.58	-106.62
4057.046	-105.62
4059.51	-104.62
4061.972	-108.62
4064.432	-104.62
4066.891	-102.62
4069.348	-96.62
4071.803	-100.62
4074.256	-103.62
4076.708	-101.62
4079.158	-108.62
4081.606	-104.62
4084.052	-98.62
4086.497	-104.62
4088.939	-103.62
4091.38	-105.62
4093.819	-101.62
4096.257	-106.62
4098.693	-104.62
4101.127	-103.62
4103.559	-104.62
4105.989	-68.62
4108.418	-63.62
4110.845	-60.62
4113.27	-58.62
4115.694	-58.62
4118.115	-44.62
4120.535	-99.62
4122.954	-106.62
4125.37	-102.62
4127.785	-103.62
4130.198	-101.62
4132.609	-100.62
4135.019	-109.62
4137.427	-108.62
4139.833	-105.62
4142.237	-107.62
