Data from 100CFU3_A_RamanShift_1.txt Node
Date: Tue Jan 31 15:18:04 IST 2017
User: aro
Spectrometer: QEPB0276
Trigger mode: 0
Integration Time (sec): 5.000000E0
Scans to average: 1
Electric dark correction enabled: true
Nonlinearity correction enabled: false
Boxcar width: 0
XAxis mode: Raman Shifts
Number of Pixels in Spectrum: 1044
>>>>>Begin Spectral Data<<<<<
160.701	-34.75
166.742	1.25
172.777	91.25
178.805	400.25
184.826	1100.25
190.841	2230.25
196.849	3511.25
202.85	4307.25
208.845	4461.25
214.833	4325.25
220.815	4155.25
226.789	4031.25
232.758	3946.25
238.719	3803.25
244.674	3690.25
250.623	3534.25
256.565	3351.25
262.5	3183.25
268.429	3043.25
274.351	2938.25
280.267	2796.25
286.176	2729.25
292.079	2606.25
297.975	2510.25
303.865	2450.25
309.748	2379.25
315.625	2328.25
321.495	2250.25
327.359	2242.25
333.217	2217.25
339.068	2191.25
344.912	2193.25
350.751	2158.25
356.583	2148.25
362.408	2148.25
368.227	2161.25
374.04	2184.25
379.847	2187.25
385.647	2198.25
391.44	2215.25
397.228	2222.25
403.009	2227.25
408.784	2240.25
414.553	2240.25
420.315	2241.25
426.071	2249.25
431.821	2250.25
437.565	2249.25
443.302	2241.25
449.033	2239.25
454.758	2224.25
460.477	2225.25
466.189	2211.25
471.896	2189.25
477.596	2188.25
483.29	2171.25
488.978	2160.25
494.66	2148.25
500.335	2143.25
506.005	2101.25
511.668	2063.25
517.325	2032.25
522.977	2005.25
528.622	1978.25
534.261	1930.25
539.894	1920.25
545.521	1902.25
551.141	1876.25
556.756	1875.25
562.365	1883.25
567.968	1865.25
573.565	1855.25
579.155	1847.25
584.74	1825.25
590.319	1820.25
595.892	1794.25
601.459	1791.25
607.02	1781.25
612.575	1777.25
618.124	1751.25
623.667	1754.25
629.204	1719.25
634.735	1700.25
640.261	1692.25
645.781	1674.25
651.294	1680.25
656.802	1666.25
662.304	1644.25
667.8	1633.25
673.29	1640.25
678.775	1638.25
684.254	1621.25
689.726	1629.25
695.193	1616.25
700.655	1600.25
706.11	1603.25
711.56	1593.25
717.004	1586.25
722.442	1582.25
727.874	1558.25
733.301	1553.25
738.722	1534.25
744.137	1524.25
749.547	1525.25
754.951	1495.25
760.349	1518.25
765.741	1516.25
771.128	1512.25
776.509	1514.25
781.885	1523.25
787.254	1530.25
792.618	1528.25
797.977	1509.25
803.33	1498.25
808.677	1497.25
814.019	1465.25
819.355	1459.25
824.686	1441.25
830.011	1442.25
835.33	1429.25
840.644	1405.25
845.952	1420.25
851.255	1382.25
856.552	1393.25
861.844	1382.25
867.13	1382.25
872.41	1363.25
877.686	1357.25
882.955	1356.25
888.219	1334.25
893.478	1312.25
898.731	1298.25
903.979	1276.25
909.221	1244.25
914.458	1227.25
919.69	1233.25
924.916	1226.25
930.136	1227.25
935.351	1231.25
940.561	1221.25
945.766	1219.25
950.965	1218.25
956.158	1211.25
961.347	1204.25
966.529	1181.25
971.707	1166.25
976.879	1149.25
982.046	1147.25
987.208	1146.25
992.364	1140.25
997.515	1132.25
1002.66	1130.25
1007.801	1151.25
1012.936	1151.25
1018.066	1161.25
1023.19	1164.25
1028.309	1177.25
1033.423	1171.25
1038.532	1193.25
1043.636	1167.25
1048.734	1175.25
1053.827	1152.25
1058.915	1140.25
1063.998	1131.25
1069.075	1117.25
1074.147	1118.25
1079.214	1139.25
1084.276	1131.25
1089.333	1131.25
1094.385	1142.25
1099.431	1169.25
1104.472	1169.25
1109.509	1145.25
1114.54	1155.25
1119.565	1146.25
1124.586	1125.25
1129.602	1105.25
1134.613	1087.25
1139.618	1104.25
1144.619	1084.25
1149.614	1085.25
1154.604	1111.25
1159.589	1105.25
1164.57	1127.25
1169.545	1106.25
1174.515	1115.25
1179.48	1137.25
1184.44	1110.25
1189.395	1099.25
1194.345	1100.25
1199.29	1105.25
1204.23	1098.25
1209.165	1098.25
1214.095	1092.25
1219.021	1116.25
1223.941	1116.25
1228.856	1113.25
1233.766	1124.25
1238.672	1138.25
1243.572	1131.25
1248.467	1135.25
1253.358	1125.25
1258.244	1103.25
1263.124	1101.25
1268	1083.25
1272.871	1078.25
1277.737	1052.25
1282.599	1047.25
1287.455	1056.25
1292.306	1051.25
1297.153	1070.25
1301.995	1063.25
1306.832	1083.25
1311.664	1086.25
1316.491	1077.25
1321.314	1096.25
1326.132	1091.25
1330.945	1074.25
1335.753	1054.25
1340.556	1054.25
1345.354	1043.25
1350.148	1031.25
1354.937	1025.25
1359.722	1009.25
1364.501	1015.25
1369.276	980.25
1374.046	976.25
1378.811	970.25
1383.572	964.25
1388.327	971.25
1393.079	963.25
1397.825	959.25
1402.567	980.25
1407.304	948.25
1412.036	949.25
1416.764	943.25
1421.487	949.25
1426.205	957.25
1430.919	963.25
1435.628	965.25
1440.333	966.25
1445.032	982.25
1449.727	992.25
1454.418	994.25
1459.104	997.25
1463.785	1009.25
1468.462	1004.25
1473.134	992.25
1477.802	972.25
1482.465	973.25
1487.123	967.25
1491.777	975.25
1496.426	971.25
1501.071	990.25
1505.711	985.25
1510.347	998.25
1514.978	998.25
1519.604	1026.25
1524.226	1038.25
1528.844	1019.25
1533.457	1021.25
1538.065	1023.25
1542.669	1018.25
1547.269	1025.25
1551.864	1018.25
1556.454	1021.25
1561.041	1036.25
1565.622	1044.25
1570.199	1058.25
1574.772	1067.25
1579.34	1085.25
1583.904	1106.25
1588.464	1129.25
1593.019	1137.25
1597.569	1167.25
1602.115	1187.25
1606.657	1188.25
1611.195	1202.25
1615.728	1213.25
1620.256	1227.25
1624.78	1240.25
1629.3	1268.25
1633.816	1286.25
1638.327	1294.25
1642.834	1319.25
1647.336	1311.25
1651.834	1327.25
1656.328	1334.25
1660.817	1330.25
1665.302	1306.25
1669.783	1267.25
1674.259	1251.25
1678.732	1210.25
1683.199	1186.25
1687.663	1136.25
1692.122	1089.25
1696.577	1048.25
1701.028	1012.25
1705.474	963.25
1709.917	930.25
1714.355	902.25
1718.788	887.25
1723.218	868.25
1727.643	857.25
1732.064	852.25
1736.481	816.25
1740.893	806.25
1745.301	788.25
1749.705	751.25
1754.105	737.25
1758.501	719.25
1762.893	691.25
1767.28	705.25
1771.663	697.25
1776.042	687.25
1780.417	702.25
1784.787	698.25
1789.154	702.25
1793.516	691.25
1797.874	680.25
1802.228	683.25
1806.578	675.25
1810.924	657.25
1815.266	647.25
1819.603	654.25
1823.937	635.25
1828.266	630.25
1832.591	622.25
1836.913	613.25
1841.23	625.25
1845.543	615.25
1849.852	625.25
1854.156	624.25
1858.457	618.25
1862.754	618.25
1867.047	619.25
1871.335	624.25
1875.62	637.25
1879.9	628.25
1884.177	646.25
1888.449	646.25
1892.718	636.25
1896.982	635.25
1901.243	637.25
1905.499	631.25
1909.752	634.25
1914	631.25
1918.245	631.25
1922.485	621.25
1926.722	646.25
1930.954	635.25
1935.183	630.25
1939.408	632.25
1943.628	627.25
1947.845	636.25
1952.058	623.25
1956.267	628.25
1960.472	620.25
1964.673	617.25
1968.87	617.25
1973.063	604.25
1977.252	607.25
1981.438	598.25
1985.619	597.25
1989.797	587.25
1993.971	592.25
1998.14	590.25
2002.306	593.25
2006.469	599.25
2010.627	596.25
2014.781	613.25
2018.932	605.25
2023.078	615.25
2027.221	617.25
2031.36	609.25
2035.495	610.25
2039.627	596.25
2043.754	601.25
2047.878	600.25
2051.998	581.25
2056.114	595.25
2060.226	592.25
2064.334	603.25
2068.439	599.25
2072.54	615.25
2076.637	609.25
2080.73	612.25
2084.82	617.25
2088.906	622.25
2092.988	610.25
2097.066	611.25
2101.14	614.25
2105.211	622.25
2109.278	598.25
2113.342	609.25
2117.401	607.25
2121.457	599.25
2125.509	590.25
2129.558	584.25
2133.602	571.25
2137.643	573.25
2141.681	575.25
2145.714	574.25
2149.744	567.25
2153.77	570.25
2157.793	574.25
2161.812	571.25
2165.827	550.25
2169.838	553.25
2173.846	540.25
2177.851	533.25
2181.851	521.25
2185.848	517.25
2189.841	511.25
2193.831	505.25
2197.817	503.25
2201.799	505.25
2205.778	508.25
2209.753	492.25
2213.725	505.25
2217.693	503.25
2221.657	499.25
2225.618	507.25
2229.575	499.25
2233.529	486.25
2237.479	479.25
2241.425	482.25
2245.368	475.25
2249.307	473.25
2253.243	463.25
2257.175	462.25
2261.104	445.25
2265.029	449.25
2268.95	435.25
2272.868	427.25
2276.783	416.25
2280.694	412.25
2284.601	404.25
2288.505	409.25
2292.405	409.25
2296.302	401.25
2300.195	396.25
2304.085	398.25
2307.971	390.25
2311.854	380.25
2315.734	370.25
2319.609	350.25
2323.482	356.25
2327.351	355.25
2331.216	354.25
2335.078	345.25
2338.937	348.25
2342.792	346.25
2346.643	337.25
2350.492	341.25
2354.336	329.25
2358.178	337.25
2362.015	335.25
2365.85	336.25
2369.681	341.25
2373.508	346.25
2377.333	347.25
2381.153	338.25
2384.971	339.25
2388.785	335.25
2392.595	338.25
2396.402	342.25
2400.206	320.25
2404.007	337.25
2407.804	324.25
2411.597	324.25
2415.388	323.25
2419.174	319.25
2422.958	326.25
2426.738	321.25
2430.515	322.25
2434.289	319.25
2438.059	312.25
2441.825	325.25
2445.589	315.25
2449.349	322.25
2453.106	295.25
2456.859	304.25
2460.61	294.25
2464.356	303.25
2468.1	289.25
2471.84	297.25
2475.577	295.25
2479.311	297.25
2483.041	292.25
2486.768	296.25
2490.492	291.25
2494.213	302.25
2497.93	292.25
2501.644	300.25
2505.355	294.25
2509.062	302.25
2512.766	293.25
2516.467	291.25
2520.165	283.25
2523.859	287.25
2527.551	280.25
2531.239	281.25
2534.923	284.25
2538.605	285.25
2542.283	273.25
2545.958	267.25
2549.63	273.25
2553.299	269.25
2556.964	266.25
2560.626	266.25
2564.285	269.25
2567.941	259.25
2571.594	270.25
2575.243	250.25
2578.89	262.25
2582.533	257.25
2586.173	252.25
2589.809	254.25
2593.443	244.25
2597.073	247.25
2600.701	246.25
2604.325	254.25
2607.946	250.25
2611.564	240.25
2615.178	238.25
2618.79	229.25
2622.398	237.25
2626.004	239.25
2629.606	240.25
2633.205	231.25
2636.801	228.25
2640.394	222.25
2643.983	230.25
2647.57	221.25
2651.153	216.25
2654.734	223.25
2658.311	219.25
2661.885	214.25
2665.456	212.25
2669.025	208.25
2672.589	205.25
2676.151	205.25
2679.71	203.25
2683.266	205.25
2686.819	207.25
2690.368	209.25
2693.915	203.25
2697.458	205.25
2700.999	198.25
2704.536	194.25
2708.071	186.25
2711.602	199.25
2715.13	193.25
2718.656	190.25
2722.178	192.25
2725.697	195.25
2729.214	188.25
2732.727	201.25
2736.237	198.25
2739.744	193.25
2743.249	200.25
2746.75	199.25
2750.248	200.25
2753.743	195.25
2757.236	189.25
2760.725	200.25
2764.211	186.25
2767.695	186.25
2771.175	184.25
2774.652	186.25
2778.127	183.25
2781.598	181.25
2785.067	184.25
2788.532	187.25
2791.995	187.25
2795.455	189.25
2798.911	187.25
2802.365	188.25
2805.816	187.25
2809.264	192.25
2812.709	190.25
2816.151	190.25
2819.59	196.25
2823.026	195.25
2826.46	198.25
2829.89	194.25
2833.318	199.25
2836.742	192.25
2840.164	191.25
2843.583	200.25
2846.999	200.25
2850.412	204.25
2853.822	201.25
2857.229	205.25
2860.634	213.25
2864.035	219.25
2867.434	224.25
2870.83	226.25
2874.223	224.25
2877.613	226.25
2881	223.25
2884.385	233.25
2887.766	238.25
2891.145	230.25
2894.521	229.25
2897.894	230.25
2901.264	236.25
2904.631	238.25
2907.996	239.25
2911.358	243.25
2914.717	242.25
2918.073	248.25
2921.426	255.25
2924.777	257.25
2928.124	260.25
2931.469	277.25
2934.811	272.25
2938.15	281.25
2941.487	290.25
2944.821	287.25
2948.152	293.25
2951.48	300.25
2954.805	302.25
2958.128	306.25
2961.447	305.25
2964.765	327.25
2968.079	320.25
2971.39	341.25
2974.699	357.25
2978.005	359.25
2981.308	357.25
2984.609	372.25
2987.907	373.25
2991.202	388.25
2994.494	408.25
2997.784	410.25
3001.07	428.25
3004.355	432.25
3007.636	452.25
3010.915	464.25
3014.191	467.25
3017.464	468.25
3020.734	487.25
3024.002	500.25
3027.267	493.25
3030.53	500.25
3033.789	522.25
3037.046	543.25
3040.301	554.25
3043.552	553.25
3046.801	574.25
3050.048	596.25
3053.291	608.25
3056.532	622.25
3059.771	633.25
3063.006	669.25
3066.239	699.25
3069.469	719.25
3072.697	715.25
3075.922	751.25
3079.144	771.25
3082.364	787.25
3085.581	805.25
3088.795	826.25
3092.007	853.25
3095.216	882.25
3098.423	887.25
3101.627	916.25
3104.828	922.25
3108.026	942.25
3111.222	965.25
3114.416	1011.25
3117.607	1008.25
3120.795	1044.25
3123.98	1065.25
3127.163	1091.25
3130.344	1118.25
3133.521	1142.25
3136.696	1149.25
3139.869	1182.25
3143.039	1205.25
3146.206	1235.25
3149.371	1246.25
3152.533	1267.25
3155.693	1272.25
3158.85	1275.25
3162.005	1299.25
3165.157	1303.25
3168.306	1305.25
3171.453	1292.25
3174.597	1315.25
3177.739	1317.25
3180.878	1306.25
3184.014	1322.25
3187.149	1336.25
3190.28	1330.25
3193.409	1335.25
3196.536	1338.25
3199.659	1342.25
3202.781	1348.25
3205.9	1353.25
3209.016	1342.25
3212.13	1364.25
3215.241	1355.25
3218.35	1348.25
3221.456	1319.25
3224.56	1333.25
3227.661	1322.25
3230.76	1305.25
3233.856	1285.25
3236.95	1261.25
3240.041	1271.25
3243.13	1256.25
3246.216	1246.25
3249.3	1239.25
3252.382	1224.25
3255.46	1220.25
3258.537	1201.25
3261.611	1195.25
3264.682	1200.25
3267.751	1202.25
3270.818	1192.25
3273.882	1177.25
3276.943	1174.25
3280.002	1152.25
3283.059	1137.25
3286.113	1136.25
3289.165	1134.25
3292.214	1118.25
3295.261	1100.25
3298.306	1087.25
3301.348	1064.25
3304.387	1037.25
3307.425	1027.25
3310.459	1006.25
3313.492	1007.25
3316.521	991.25
3319.549	973.25
3322.574	955.25
3325.597	960.25
3328.617	964.25
3331.635	955.25
3334.65	942.25
3337.663	934.25
3340.674	926.25
3343.682	923.25
3346.688	941.25
3349.691	928.25
3352.692	923.25
3355.691	898.25
3358.687	910.25
3361.681	906.25
3364.673	900.25
3367.662	881.25
3370.649	871.25
3373.633	849.25
3376.615	848.25
3379.595	837.25
3382.572	814.25
3385.547	799.25
3388.52	790.25
3391.49	785.25
3394.458	772.25
3397.424	781.25
3400.387	775.25
3403.348	743.25
3406.307	745.25
3409.263	736.25
3412.217	722.25
3415.168	712.25
3418.118	698.25
3421.065	713.25
3424.009	703.25
3426.951	687.25
3429.891	681.25
3432.829	672.25
3435.764	658.25
3438.697	637.25
3441.628	622.25
3444.557	603.25
3447.483	594.25
3450.407	573.25
3453.328	562.25
3456.247	542.25
3459.164	530.25
3462.079	518.25
3464.991	506.25
3467.902	481.25
3470.809	476.25
3473.715	444.25
3476.618	448.25
3479.519	423.25
3482.418	421.25
3485.315	404.25
3488.209	390.25
3491.101	381.25
3493.99	371.25
3496.878	360.25
3499.763	354.25
3502.646	340.25
3505.527	332.25
3508.405	313.25
3511.281	290.25
3514.155	289.25
3517.027	274.25
3519.897	262.25
3522.764	257.25
3525.629	242.25
3528.492	231.25
3531.352	210.25
3534.211	207.25
3537.067	199.25
3539.921	176.25
3542.773	177.25
3545.622	158.25
3548.469	142.25
3551.315	142.25
3554.157	130.25
3556.998	122.25
3559.837	120.25
3562.673	108.25
3565.507	110.25
3568.339	101.25
3571.169	84.25
3573.996	84.25
3576.822	85.25
3579.645	67.25
3582.466	61.25
3585.285	56.25
3588.101	49.25
3590.916	49.25
3593.728	40.25
3596.538	39.25
3599.346	30.25
3602.152	36.25
3604.956	24.25
3607.757	17.25
3610.556	8.25
3613.354	1.25
3616.149	14.25
3618.942	3.25
3621.732	-1.75
3624.521	-4.75
3627.307	-5.75
3630.092	-12.75
3632.874	-13.75
3635.654	-25.75
3638.432	-20.75
3641.208	-24.75
3643.982	-29.75
3646.753	-35.75
3649.523	-33.75
3652.29	-33.75
3655.055	-36.75
3657.818	-42.75
3660.579	-41.75
3663.338	-45.75
3666.095	-50.75
3668.849	-52.75
3671.602	-62.75
3674.352	-65.75
3677.101	-61.75
3679.847	-64.75
3682.591	-66.75
3685.333	-65.75
3688.073	-66.75
3690.811	-66.75
3693.547	-73.75
3696.281	-71.75
3699.013	-75.75
3701.742	-78.75
3704.47	-82.75
3707.195	-80.75
3709.919	-78.75
3712.64	-83.75
3715.359	-83.75
3718.076	-84.75
3720.792	-82.75
3723.505	-82.75
3726.216	-86.75
3728.925	-91.75
3731.632	-87.75
3734.336	-86.75
3737.039	-98.75
3739.74	-94.75
3742.439	-92.75
3745.136	-89.75
3747.83	-94.75
3750.523	-97.75
3753.213	-91.75
3755.902	-97.75
3758.589	-92.75
3761.273	-90.75
3763.956	-91.75
3766.636	-100.75
3769.315	-95.75
3771.991	-97.75
3774.665	-97.75
3777.338	-98.75
3780.008	-98.75
3782.677	-96.75
3785.343	-98.75
3788.007	-97.75
3790.67	-100.75
3793.33	-102.75
3795.989	-101.75
3798.645	-104.75
3801.299	-99.75
3803.952	-104.75
3806.602	-104.75
3809.251	-102.75
3811.897	-103.75
3814.542	-103.75
3817.184	-100.75
3819.825	-102.75
3822.463	-101.75
3825.1	-104.75
3827.735	-103.75
3830.367	-106.75
3832.998	-103.75
3835.627	-104.75
3838.253	-106.75
3840.878	-104.75
3843.501	-103.75
3846.122	-108.75
3848.741	-104.75
3851.358	-107.75
3853.973	-106.75
3856.586	-105.75
3859.197	-105.75
3861.806	-104.75
3864.414	-107.75
3867.019	-108.75
3869.622	-107.75
3872.224	-108.75
3874.823	-107.75
3877.421	-103.75
3880.016	-100.75
3882.61	-97.75
3885.202	-98.75
3887.792	-97.75
3890.38	-104.75
3892.966	-105.75
3895.55	-112.75
3898.132	-109.75
3900.713	-106.75
3903.291	-112.75
3905.868	-107.75
3908.442	-108.75
3911.015	-110.75
3913.586	-114.75
3916.155	-108.75
3918.722	-113.75
3921.287	-108.75
3923.85	-112.75
3926.411	-113.75
3928.971	-105.75
3931.528	-110.75
3934.084	-110.75
3936.638	-107.75
3939.19	-110.75
3941.74	-109.75
3944.288	-113.75
3946.834	-107.75
3949.378	-109.75
3951.921	-110.75
3954.462	-114.75
3957	-112.75
3959.537	-114.75
3962.072	-112.75
3964.606	-114.75
3967.137	-111.75
3969.667	-113.75
3972.194	-112.75
3974.72	-106.75
3977.244	-107.75
3979.766	-111.75
3982.286	-108.75
3984.805	-109.75
3987.321	-111.75
3989.836	-113.75
3992.349	-110.75
3994.86	-112.75
3997.369	-109.75
3999.877	-111.75
4002.382	-107.75
4004.886	-105.75
4007.388	-106.75
4009.888	-110.75
4012.386	-109.75
4014.883	-110.75
4017.377	-113.75
4019.87	-108.75
4022.361	-113.75
4024.85	-109.75
4027.338	-112.75
4029.823	-109.75
4032.307	-106.75
4034.789	-106.75
4037.269	-108.75
4039.747	-113.75
4042.224	-111.75
4044.699	-116.75
4047.172	-112.75
4049.643	-114.75
4052.112	-115.75
4054.58	-112.75
4057.046	-114.75
4059.51	-112.75
4061.972	-110.75
4064.432	-114.75
4066.891	-112.75
4069.348	-111.75
4071.803	-114.75
4074.256	-115.75
4076.708	-112.75
4079.158	-114.75
4081.606	-113.75
4084.052	-108.75
4086.497	-114.75
4088.939	-108.75
4091.38	-111.75
4093.819	-114.75
4096.257	-113.75
4098.693	-110.75
4101.127	-113.75
4103.559	-118.75
4105.989	-76.75
4108.418	-75.75
4110.845	-70.75
4113.27	-65.75
4115.694	-63.75
4118.115	-52.75
4120.535	-107.75
4122.954	-116.75
4125.37	-111.75
4127.785	-109.75
4130.198	-113.75
4132.609	-111.75
4135.019	-114.75
4137.427	-112.75
4139.833	-113.75
4142.237	-116.75
