Data from 100CFU2_A_RamanShift_1.txt Node
Date: Tue Jan 31 15:17:04 IST 2017
User: aro
Spectrometer: QEPB0276
Trigger mode: 0
Integration Time (sec): 5.000000E0
Scans to average: 1
Electric dark correction enabled: true
Nonlinearity correction enabled: false
Boxcar width: 0
XAxis mode: Raman Shifts
Number of Pixels in Spectrum: 1044
>>>>>Begin Spectral Data<<<<<
160.701	-40.75
166.742	-4.75
172.777	105.25
178.805	404.25
184.826	1123.25
190.841	2310.25
196.849	3609.25
202.85	4423.25
208.845	4609.25
214.833	4474.25
220.815	4284.25
226.789	4156.25
232.758	4086.25
238.719	3951.25
244.674	3800.25
250.623	3637.25
256.565	3471.25
262.5	3301.25
268.429	3169.25
274.351	3037.25
280.267	2928.25
286.176	2828.25
292.079	2711.25
297.975	2627.25
303.865	2562.25
309.748	2505.25
315.625	2429.25
321.495	2373.25
327.359	2323.25
333.217	2313.25
339.068	2297.25
344.912	2271.25
350.751	2287.25
356.583	2265.25
362.408	2263.25
368.227	2276.25
374.04	2259.25
379.847	2286.25
385.647	2293.25
391.44	2293.25
397.228	2304.25
403.009	2336.25
408.784	2351.25
414.553	2344.25
420.315	2359.25
426.071	2370.25
431.821	2364.25
437.565	2352.25
443.302	2320.25
449.033	2356.25
454.758	2333.25
460.477	2330.25
466.189	2324.25
471.896	2298.25
477.596	2296.25
483.29	2271.25
488.978	2293.25
494.66	2269.25
500.335	2236.25
506.005	2210.25
511.668	2167.25
517.325	2119.25
522.977	2104.25
528.622	2066.25
534.261	2053.25
539.894	2024.25
545.521	2021.25
551.141	1989.25
556.756	2000.25
562.365	1976.25
567.968	1953.25
573.565	1943.25
579.155	1970.25
584.74	1930.25
590.319	1938.25
595.892	1924.25
601.459	1913.25
607.02	1898.25
612.575	1886.25
618.124	1856.25
623.667	1861.25
629.204	1833.25
634.735	1805.25
640.261	1816.25
645.781	1819.25
651.294	1772.25
656.802	1779.25
662.304	1782.25
667.8	1751.25
673.29	1746.25
678.775	1762.25
684.254	1737.25
689.726	1727.25
695.193	1726.25
700.655	1735.25
706.11	1722.25
711.56	1721.25
717.004	1698.25
722.442	1705.25
727.874	1670.25
733.301	1666.25
738.722	1663.25
744.137	1646.25
749.547	1653.25
754.951	1633.25
760.349	1646.25
765.741	1643.25
771.128	1649.25
776.509	1643.25
781.885	1668.25
787.254	1654.25
792.618	1626.25
797.977	1635.25
803.33	1609.25
808.677	1610.25
814.019	1576.25
819.355	1581.25
824.686	1550.25
830.011	1553.25
835.33	1549.25
840.644	1543.25
845.952	1529.25
851.255	1512.25
856.552	1520.25
861.844	1526.25
867.13	1501.25
872.41	1501.25
877.686	1495.25
882.955	1472.25
888.219	1459.25
893.478	1458.25
898.731	1421.25
903.979	1394.25
909.221	1380.25
914.458	1364.25
919.69	1360.25
924.916	1356.25
930.136	1356.25
935.351	1347.25
940.561	1366.25
945.766	1351.25
950.965	1345.25
956.158	1352.25
961.347	1331.25
966.529	1317.25
971.707	1295.25
976.879	1299.25
982.046	1289.25
987.208	1261.25
992.364	1265.25
997.515	1250.25
1002.66	1267.25
1007.801	1273.25
1012.936	1283.25
1018.066	1311.25
1023.19	1313.25
1028.309	1320.25
1033.423	1330.25
1038.532	1320.25
1043.636	1305.25
1048.734	1292.25
1053.827	1274.25
1058.915	1270.25
1063.998	1263.25
1069.075	1261.25
1074.147	1246.25
1079.214	1251.25
1084.276	1269.25
1089.333	1280.25
1094.385	1278.25
1099.431	1298.25
1104.472	1297.25
1109.509	1305.25
1114.54	1295.25
1119.565	1272.25
1124.586	1265.25
1129.602	1239.25
1134.613	1239.25
1139.618	1234.25
1144.619	1231.25
1149.614	1231.25
1154.604	1240.25
1159.589	1249.25
1164.57	1245.25
1169.545	1249.25
1174.515	1264.25
1179.48	1255.25
1184.44	1247.25
1189.395	1244.25
1194.345	1246.25
1199.29	1242.25
1204.23	1235.25
1209.165	1236.25
1214.095	1239.25
1219.021	1253.25
1223.941	1260.25
1228.856	1266.25
1233.766	1277.25
1238.672	1277.25
1243.572	1277.25
1248.467	1271.25
1253.358	1248.25
1258.244	1253.25
1263.124	1225.25
1268	1225.25
1272.871	1200.25
1277.737	1191.25
1282.599	1183.25
1287.455	1172.25
1292.306	1195.25
1297.153	1182.25
1301.995	1216.25
1306.832	1219.25
1311.664	1234.25
1316.491	1225.25
1321.314	1239.25
1326.132	1231.25
1330.945	1213.25
1335.753	1183.25
1340.556	1184.25
1345.354	1175.25
1350.148	1168.25
1354.937	1159.25
1359.722	1137.25
1364.501	1132.25
1369.276	1105.25
1374.046	1093.25
1378.811	1100.25
1383.572	1098.25
1388.327	1101.25
1393.079	1116.25
1397.825	1077.25
1402.567	1103.25
1407.304	1088.25
1412.036	1078.25
1416.764	1080.25
1421.487	1071.25
1426.205	1091.25
1430.919	1090.25
1435.628	1078.25
1440.333	1103.25
1445.032	1121.25
1449.727	1129.25
1454.418	1131.25
1459.104	1126.25
1463.785	1122.25
1468.462	1132.25
1473.134	1109.25
1477.802	1107.25
1482.465	1108.25
1487.123	1097.25
1491.777	1086.25
1496.426	1101.25
1501.071	1108.25
1505.711	1108.25
1510.347	1120.25
1514.978	1131.25
1519.604	1152.25
1524.226	1144.25
1528.844	1159.25
1533.457	1154.25
1538.065	1149.25
1542.669	1144.25
1547.269	1153.25
1551.864	1164.25
1556.454	1149.25
1561.041	1168.25
1565.622	1180.25
1570.199	1185.25
1574.772	1208.25
1579.34	1228.25
1583.904	1247.25
1588.464	1269.25
1593.019	1290.25
1597.569	1300.25
1602.115	1287.25
1606.657	1323.25
1611.195	1342.25
1615.728	1328.25
1620.256	1371.25
1624.78	1373.25
1629.3	1402.25
1633.816	1410.25
1638.327	1411.25
1642.834	1444.25
1647.336	1456.25
1651.834	1450.25
1656.328	1459.25
1660.817	1450.25
1665.302	1442.25
1669.783	1413.25
1674.259	1365.25
1678.732	1327.25
1683.199	1312.25
1687.663	1249.25
1692.122	1224.25
1696.577	1164.25
1701.028	1116.25
1705.474	1059.25
1709.917	1030.25
1714.355	1015.25
1718.788	1007.25
1723.218	1000.25
1727.643	986.25
1732.064	965.25
1736.481	962.25
1740.893	927.25
1745.301	892.25
1749.705	879.25
1754.105	861.25
1758.501	849.25
1762.893	813.25
1767.28	813.25
1771.663	815.25
1776.042	805.25
1780.417	813.25
1784.787	813.25
1789.154	817.25
1793.516	811.25
1797.874	807.25
1802.228	805.25
1806.578	784.25
1810.924	756.25
1815.266	762.25
1819.603	759.25
1823.937	743.25
1828.266	742.25
1832.591	743.25
1836.913	745.25
1841.23	738.25
1845.543	734.25
1849.852	736.25
1854.156	726.25
1858.457	737.25
1862.754	737.25
1867.047	750.25
1871.335	745.25
1875.62	749.25
1879.9	762.25
1884.177	757.25
1888.449	746.25
1892.718	748.25
1896.982	740.25
1901.243	746.25
1905.499	738.25
1909.752	742.25
1914	728.25
1918.245	744.25
1922.485	736.25
1926.722	742.25
1930.954	741.25
1935.183	746.25
1939.408	748.25
1943.628	748.25
1947.845	750.25
1952.058	750.25
1956.267	747.25
1960.472	739.25
1964.673	735.25
1968.87	725.25
1973.063	716.25
1977.252	710.25
1981.438	706.25
1985.619	700.25
1989.797	697.25
1993.971	692.25
1998.14	710.25
2002.306	703.25
2006.469	697.25
2010.627	713.25
2014.781	718.25
2018.932	712.25
2023.078	718.25
2027.221	714.25
2031.36	708.25
2035.495	708.25
2039.627	690.25
2043.754	695.25
2047.878	698.25
2051.998	697.25
2056.114	696.25
2060.226	694.25
2064.334	694.25
2068.439	703.25
2072.54	700.25
2076.637	716.25
2080.73	702.25
2084.82	723.25
2088.906	708.25
2092.988	715.25
2097.066	708.25
2101.14	717.25
2105.211	708.25
2109.278	711.25
2113.342	699.25
2117.401	701.25
2121.457	698.25
2125.509	677.25
2129.558	676.25
2133.602	674.25
2137.643	675.25
2141.681	670.25
2145.714	669.25
2149.744	672.25
2153.77	665.25
2157.793	670.25
2161.812	657.25
2165.827	651.25
2169.838	643.25
2173.846	631.25
2177.851	625.25
2181.851	608.25
2185.848	602.25
2189.841	594.25
2193.831	591.25
2197.817	588.25
2201.799	595.25
2205.778	585.25
2209.753	587.25
2213.725	594.25
2217.693	591.25
2221.657	588.25
2225.618	580.25
2229.575	583.25
2233.529	581.25
2237.479	578.25
2241.425	566.25
2245.368	570.25
2249.307	557.25
2253.243	547.25
2257.175	529.25
2261.104	532.25
2265.029	524.25
2268.95	516.25
2272.868	511.25
2276.783	492.25
2280.694	491.25
2284.601	499.25
2288.505	487.25
2292.405	486.25
2296.302	485.25
2300.195	470.25
2304.085	480.25
2307.971	462.25
2311.854	464.25
2315.734	443.25
2319.609	435.25
2323.482	432.25
2327.351	431.25
2331.216	432.25
2335.078	433.25
2338.937	418.25
2342.792	414.25
2346.643	415.25
2350.492	414.25
2354.336	405.25
2358.178	404.25
2362.015	413.25
2365.85	407.25
2369.681	420.25
2373.508	417.25
2377.333	415.25
2381.153	418.25
2384.971	417.25
2388.785	415.25
2392.595	411.25
2396.402	401.25
2400.206	395.25
2404.007	399.25
2407.804	406.25
2411.597	401.25
2415.388	399.25
2419.174	391.25
2422.958	394.25
2426.738	400.25
2430.515	397.25
2434.289	387.25
2438.059	378.25
2441.825	403.25
2445.589	389.25
2449.349	384.25
2453.106	380.25
2456.859	378.25
2460.61	367.25
2464.356	364.25
2468.1	356.25
2471.84	368.25
2475.577	362.25
2479.311	363.25
2483.041	366.25
2486.768	364.25
2490.492	368.25
2494.213	368.25
2497.93	365.25
2501.644	378.25
2505.355	347.25
2509.062	357.25
2512.766	364.25
2516.467	351.25
2520.165	362.25
2523.859	357.25
2527.551	357.25
2531.239	345.25
2534.923	349.25
2538.605	341.25
2542.283	338.25
2545.958	336.25
2549.63	328.25
2553.299	336.25
2556.964	333.25
2560.626	338.25
2564.285	332.25
2567.941	337.25
2571.594	327.25
2575.243	323.25
2578.89	325.25
2582.533	316.25
2586.173	311.25
2589.809	320.25
2593.443	312.25
2597.073	309.25
2600.701	314.25
2604.325	314.25
2607.946	304.25
2611.564	304.25
2615.178	301.25
2618.79	304.25
2622.398	295.25
2626.004	292.25
2629.606	300.25
2633.205	285.25
2636.801	286.25
2640.394	287.25
2643.983	285.25
2647.57	276.25
2651.153	285.25
2654.734	276.25
2658.311	288.25
2661.885	267.25
2665.456	269.25
2669.025	274.25
2672.589	271.25
2676.151	261.25
2679.71	249.25
2683.266	268.25
2686.819	258.25
2690.368	254.25
2693.915	258.25
2697.458	255.25
2700.999	247.25
2704.536	245.25
2708.071	242.25
2711.602	246.25
2715.13	254.25
2718.656	246.25
2722.178	238.25
2725.697	242.25
2729.214	243.25
2732.727	243.25
2736.237	244.25
2739.744	254.25
2743.249	249.25
2746.75	246.25
2750.248	252.25
2753.743	245.25
2757.236	249.25
2760.725	248.25
2764.211	234.25
2767.695	236.25
2771.175	236.25
2774.652	230.25
2778.127	230.25
2781.598	230.25
2785.067	228.25
2788.532	230.25
2791.995	234.25
2795.455	235.25
2798.911	236.25
2802.365	229.25
2805.816	237.25
2809.264	237.25
2812.709	238.25
2816.151	238.25
2819.59	254.25
2823.026	231.25
2826.46	237.25
2829.89	238.25
2833.318	242.25
2836.742	243.25
2840.164	242.25
2843.583	238.25
2846.999	246.25
2850.412	247.25
2853.822	257.25
2857.229	251.25
2860.634	260.25
2864.035	261.25
2867.434	262.25
2870.83	266.25
2874.223	265.25
2877.613	272.25
2881	267.25
2884.385	274.25
2887.766	269.25
2891.145	266.25
2894.521	271.25
2897.894	277.25
2901.264	276.25
2904.631	272.25
2907.996	279.25
2911.358	292.25
2914.717	278.25
2918.073	285.25
2921.426	277.25
2924.777	274.25
2928.124	298.25
2931.469	303.25
2934.811	309.25
2938.15	326.25
2941.487	326.25
2944.821	323.25
2948.152	327.25
2951.48	335.25
2954.805	344.25
2958.128	338.25
2961.447	341.25
2964.765	357.25
2968.079	357.25
2971.39	364.25
2974.699	377.25
2978.005	380.25
2981.308	383.25
2984.609	401.25
2987.907	406.25
2991.202	418.25
2994.494	437.25
2997.784	429.25
3001.07	445.25
3004.355	457.25
3007.636	475.25
3010.915	475.25
3014.191	484.25
3017.464	502.25
3020.734	510.25
3024.002	531.25
3027.267	533.25
3030.53	535.25
3033.789	534.25
3037.046	557.25
3040.301	563.25
3043.552	577.25
3046.801	591.25
3050.048	626.25
3053.291	639.25
3056.532	644.25
3059.771	671.25
3063.006	677.25
3066.239	721.25
3069.469	727.25
3072.697	745.25
3075.922	752.25
3079.144	780.25
3082.364	806.25
3085.581	822.25
3088.795	843.25
3092.007	869.25
3095.216	883.25
3098.423	897.25
3101.627	936.25
3104.828	923.25
3108.026	960.25
3111.222	978.25
3114.416	997.25
3117.607	1038.25
3120.795	1037.25
3123.98	1084.25
3127.163	1086.25
3130.344	1126.25
3133.521	1132.25
3136.696	1178.25
3139.869	1191.25
3143.039	1212.25
3146.206	1224.25
3149.371	1243.25
3152.533	1280.25
3155.693	1255.25
3158.85	1288.25
3162.005	1290.25
3165.157	1306.25
3168.306	1315.25
3171.453	1309.25
3174.597	1314.25
3177.739	1312.25
3180.878	1314.25
3184.014	1318.25
3187.149	1330.25
3190.28	1339.25
3193.409	1325.25
3196.536	1363.25
3199.659	1347.25
3202.781	1359.25
3205.9	1358.25
3209.016	1363.25
3212.13	1361.25
3215.241	1347.25
3218.35	1335.25
3221.456	1334.25
3224.56	1327.25
3227.661	1326.25
3230.76	1305.25
3233.856	1292.25
3236.95	1287.25
3240.041	1267.25
3243.13	1253.25
3246.216	1228.25
3249.3	1228.25
3252.382	1221.25
3255.46	1209.25
3258.537	1201.25
3261.611	1199.25
3264.682	1191.25
3267.751	1189.25
3270.818	1165.25
3273.882	1166.25
3276.943	1177.25
3280.002	1151.25
3283.059	1148.25
3286.113	1127.25
3289.165	1117.25
3292.214	1111.25
3295.261	1089.25
3298.306	1080.25
3301.348	1063.25
3304.387	1053.25
3307.425	1017.25
3310.459	1019.25
3313.492	1009.25
3316.521	984.25
3319.549	993.25
3322.574	961.25
3325.597	967.25
3328.617	954.25
3331.635	949.25
3334.65	950.25
3337.663	937.25
3340.674	930.25
3343.682	942.25
3346.688	921.25
3349.691	924.25
3352.692	927.25
3355.691	902.25
3358.687	900.25
3361.681	899.25
3364.673	900.25
3367.662	884.25
3370.649	878.25
3373.633	859.25
3376.615	841.25
3379.595	827.25
3382.572	826.25
3385.547	814.25
3388.52	789.25
3391.49	802.25
3394.458	783.25
3397.424	771.25
3400.387	753.25
3403.348	768.25
3406.307	743.25
3409.263	730.25
3412.217	742.25
3415.168	711.25
3418.118	703.25
3421.065	702.25
3424.009	690.25
3426.951	688.25
3429.891	670.25
3432.829	656.25
3435.764	660.25
3438.697	640.25
3441.628	613.25
3444.557	604.25
3447.483	600.25
3450.407	578.25
3453.328	558.25
3456.247	549.25
3459.164	525.25
3462.079	511.25
3464.991	503.25
3467.902	485.25
3470.809	479.25
3473.715	453.25
3476.618	434.25
3479.519	422.25
3482.418	416.25
3485.315	405.25
3488.209	387.25
3491.101	372.25
3493.99	372.25
3496.878	361.25
3499.763	340.25
3502.646	333.25
3505.527	318.25
3508.405	310.25
3511.281	295.25
3514.155	292.25
3517.027	270.25
3519.897	263.25
3522.764	252.25
3525.629	241.25
3528.492	237.25
3531.352	218.25
3534.211	199.25
3537.067	193.25
3539.921	181.25
3542.773	162.25
3545.622	152.25
3548.469	144.25
3551.315	135.25
3554.157	139.25
3556.998	119.25
3559.837	118.25
3562.673	112.25
3565.507	105.25
3568.339	99.25
3571.169	79.25
3573.996	81.25
3576.822	76.25
3579.645	70.25
3582.466	62.25
3585.285	62.25
3588.101	51.25
3590.916	48.25
3593.728	46.25
3596.538	35.25
3599.346	35.25
3602.152	30.25
3604.956	19.25
3607.757	12.25
3610.556	8.25
3613.354	4.25
3616.149	9.25
3618.942	3.25
3621.732	-1.75
3624.521	-3.75
3627.307	-14.75
3630.092	-15.75
3632.874	-14.75
3635.654	-26.75
3638.432	-23.75
3641.208	-29.75
3643.982	-29.75
3646.753	-32.75
3649.523	-29.75
3652.29	-34.75
3655.055	-41.75
3657.818	-43.75
3660.579	-45.75
3663.338	-49.75
3666.095	-50.75
3668.849	-55.75
3671.602	-61.75
3674.352	-61.75
3677.101	-61.75
3679.847	-64.75
3682.591	-62.75
3685.333	-67.75
3688.073	-66.75
3690.811	-62.75
3693.547	-81.75
3696.281	-70.75
3699.013	-72.75
3701.742	-78.75
3704.47	-76.75
3707.195	-82.75
3709.919	-80.75
3712.64	-83.75
3715.359	-84.75
3718.076	-81.75
3720.792	-86.75
3723.505	-88.75
3726.216	-83.75
3728.925	-90.75
3731.632	-87.75
3734.336	-93.75
3737.039	-94.75
3739.74	-94.75
3742.439	-92.75
3745.136	-92.75
3747.83	-94.75
3750.523	-98.75
3753.213	-99.75
3755.902	-96.75
3758.589	-95.75
3761.273	-95.75
3763.956	-88.75
3766.636	-95.75
3769.315	-95.75
3771.991	-98.75
3774.665	-99.75
3777.338	-98.75
3780.008	-102.75
3782.677	-101.75
3785.343	-103.75
3788.007	-101.75
3790.67	-100.75
3793.33	-98.75
3795.989	-102.75
3798.645	-101.75
3801.299	-101.75
3803.952	-107.75
3806.602	-105.75
3809.251	-102.75
3811.897	-105.75
3814.542	-108.75
3817.184	-101.75
3819.825	-101.75
3822.463	-100.75
3825.1	-100.75
3827.735	-103.75
3830.367	-105.75
3832.998	-105.75
3835.627	-107.75
3838.253	-107.75
3840.878	-107.75
3843.501	-107.75
3846.122	-107.75
3848.741	-102.75
3851.358	-110.75
3853.973	-107.75
3856.586	-104.75
3859.197	-106.75
3861.806	-112.75
3864.414	-109.75
3867.019	-116.75
3869.622	-109.75
3872.224	-109.75
3874.823	-105.75
3877.421	-105.75
3880.016	-99.75
3882.61	-98.75
3885.202	-99.75
3887.792	-98.75
3890.38	-106.75
3892.966	-105.75
3895.55	-111.75
3898.132	-112.75
3900.713	-107.75
3903.291	-113.75
3905.868	-107.75
3908.442	-111.75
3911.015	-110.75
3913.586	-114.75
3916.155	-111.75
3918.722	-116.75
3921.287	-113.75
3923.85	-112.75
3926.411	-114.75
3928.971	-110.75
3931.528	-113.75
3934.084	-110.75
3936.638	-110.75
3939.19	-112.75
3941.74	-110.75
3944.288	-116.75
3946.834	-113.75
3949.378	-111.75
3951.921	-110.75
3954.462	-110.75
3957	-114.75
3959.537	-116.75
3962.072	-110.75
3964.606	-114.75
3967.137	-110.75
3969.667	-113.75
3972.194	-113.75
3974.72	-111.75
3977.244	-110.75
3979.766	-110.75
3982.286	-106.75
3984.805	-110.75
3987.321	-109.75
3989.836	-117.75
3992.349	-115.75
3994.86	-115.75
3997.369	-110.75
3999.877	-114.75
4002.382	-110.75
4004.886	-112.75
4007.388	-106.75
4009.888	-109.75
4012.386	-110.75
4014.883	-112.75
4017.377	-112.75
4019.87	-111.75
4022.361	-114.75
4024.85	-114.75
4027.338	-114.75
4029.823	-110.75
4032.307	-107.75
4034.789	-108.75
4037.269	-109.75
4039.747	-111.75
4042.224	-109.75
4044.699	-115.75
4047.172	-113.75
4049.643	-114.75
4052.112	-119.75
4054.58	-115.75
4057.046	-114.75
4059.51	-114.75
4061.972	-112.75
4064.432	-111.75
4066.891	-112.75
4069.348	-110.75
4071.803	-114.75
4074.256	-115.75
4076.708	-115.75
4079.158	-119.75
4081.606	-114.75
4084.052	-109.75
4086.497	-111.75
4088.939	-112.75
4091.38	-113.75
4093.819	-111.75
4096.257	-117.75
4098.693	-115.75
4101.127	-113.75
4103.559	-116.75
4105.989	-76.75
4108.418	-70.75
4110.845	-71.75
4113.27	-67.75
4115.694	-58.75
4118.115	-52.75
4120.535	-111.75
4122.954	-116.75
4125.37	-113.75
4127.785	-114.75
4130.198	-114.75
4132.609	-113.75
4135.019	-116.75
4137.427	-116.75
4139.833	-113.75
4142.237	-116.75
