Data from 10CFU1_A_RamanShift_1.txt Node
Date: Tue Jan 31 15:12:49 IST 2017
User: aro
Spectrometer: QEPB0276
Trigger mode: 0
Integration Time (sec): 5.000000E0
Scans to average: 1
Electric dark correction enabled: true
Nonlinearity correction enabled: false
Boxcar width: 0
XAxis mode: Raman Shifts
Number of Pixels in Spectrum: 1044
>>>>>Begin Spectral Data<<<<<
160.701	-36.38
166.742	-2.38
172.777	98.62
178.805	400.62
184.826	1117.62
190.841	2266.62
196.849	3529.62
202.85	4337.62
208.845	4519.62
214.833	4381.62
220.815	4200.62
226.789	4071.62
232.758	3995.62
238.719	3858.62
244.674	3723.62
250.623	3556.62
256.565	3393.62
262.5	3234.62
268.429	3095.62
274.351	2955.62
280.267	2843.62
286.176	2719.62
292.079	2637.62
297.975	2535.62
303.865	2455.62
309.748	2405.62
315.625	2343.62
321.495	2295.62
327.359	2243.62
333.217	2228.62
339.068	2208.62
344.912	2180.62
350.751	2185.62
356.583	2193.62
362.408	2187.62
368.227	2172.62
374.04	2203.62
379.847	2213.62
385.647	2223.62
391.44	2218.62
397.228	2239.62
403.009	2264.62
408.784	2259.62
414.553	2282.62
420.315	2264.62
426.071	2281.62
431.821	2263.62
437.565	2261.62
443.302	2271.62
449.033	2259.62
454.758	2256.62
460.477	2256.62
466.189	2226.62
471.896	2222.62
477.596	2222.62
483.29	2204.62
488.978	2193.62
494.66	2192.62
500.335	2173.62
506.005	2113.62
511.668	2096.62
517.325	2069.62
522.977	2001.62
528.622	1999.62
534.261	1961.62
539.894	1931.62
545.521	1948.62
551.141	1927.62
556.756	1909.62
562.365	1919.62
567.968	1895.62
573.565	1875.62
579.155	1869.62
584.74	1875.62
590.319	1841.62
595.892	1832.62
601.459	1808.62
607.02	1826.62
612.575	1781.62
618.124	1778.62
623.667	1764.62
629.204	1740.62
634.735	1723.62
640.261	1728.62
645.781	1719.62
651.294	1718.62
656.802	1686.62
662.304	1699.62
667.8	1680.62
673.29	1681.62
678.775	1672.62
684.254	1652.62
689.726	1644.62
695.193	1662.62
700.655	1642.62
706.11	1620.62
711.56	1625.62
717.004	1613.62
722.442	1605.62
727.874	1583.62
733.301	1576.62
738.722	1577.62
744.137	1563.62
749.547	1570.62
754.951	1551.62
760.349	1552.62
765.741	1559.62
771.128	1557.62
776.509	1560.62
781.885	1550.62
787.254	1561.62
792.618	1558.62
797.977	1552.62
803.33	1532.62
808.677	1535.62
814.019	1510.62
819.355	1492.62
824.686	1478.62
830.011	1479.62
835.33	1469.62
840.644	1444.62
845.952	1446.62
851.255	1411.62
856.552	1415.62
861.844	1405.62
867.13	1411.62
872.41	1397.62
877.686	1392.62
882.955	1379.62
888.219	1364.62
893.478	1348.62
898.731	1336.62
903.979	1293.62
909.221	1293.62
914.458	1266.62
919.69	1270.62
924.916	1256.62
930.136	1259.62
935.351	1259.62
940.561	1253.62
945.766	1256.62
950.965	1253.62
956.158	1252.62
961.347	1248.62
966.529	1215.62
971.707	1207.62
976.879	1187.62
982.046	1175.62
987.208	1167.62
992.364	1166.62
997.515	1171.62
1002.66	1169.62
1007.801	1171.62
1012.936	1187.62
1018.066	1195.62
1023.19	1228.62
1028.309	1218.62
1033.423	1218.62
1038.532	1208.62
1043.636	1200.62
1048.734	1207.62
1053.827	1185.62
1058.915	1169.62
1063.998	1164.62
1069.075	1153.62
1074.147	1159.62
1079.214	1154.62
1084.276	1171.62
1089.333	1184.62
1094.385	1174.62
1099.431	1203.62
1104.472	1197.62
1109.509	1198.62
1114.54	1185.62
1119.565	1180.62
1124.586	1160.62
1129.602	1156.62
1134.613	1139.62
1139.618	1129.62
1144.619	1131.62
1149.614	1139.62
1154.604	1123.62
1159.589	1143.62
1164.57	1145.62
1169.545	1150.62
1174.515	1165.62
1179.48	1151.62
1184.44	1148.62
1189.395	1162.62
1194.345	1144.62
1199.29	1138.62
1204.23	1135.62
1209.165	1144.62
1214.095	1145.62
1219.021	1147.62
1223.941	1166.62
1228.856	1179.62
1233.766	1176.62
1238.672	1165.62
1243.572	1183.62
1248.467	1172.62
1253.358	1150.62
1258.244	1151.62
1263.124	1136.62
1268	1123.62
1272.871	1115.62
1277.737	1085.62
1282.599	1090.62
1287.455	1118.62
1292.306	1086.62
1297.153	1103.62
1301.995	1122.62
1306.832	1116.62
1311.664	1130.62
1316.491	1141.62
1321.314	1140.62
1326.132	1116.62
1330.945	1102.62
1335.753	1112.62
1340.556	1096.62
1345.354	1073.62
1350.148	1080.62
1354.937	1063.62
1359.722	1048.62
1364.501	1028.62
1369.276	1029.62
1374.046	1014.62
1378.811	1016.62
1383.572	1007.62
1388.327	1018.62
1393.079	1029.62
1397.825	998.62
1402.567	996.62
1407.304	1008.62
1412.036	981.62
1416.764	991.62
1421.487	984.62
1426.205	992.62
1430.919	1004.62
1435.628	1007.62
1440.333	1036.62
1445.032	1018.62
1449.727	1038.62
1454.418	1030.62
1459.104	1053.62
1463.785	1044.62
1468.462	1025.62
1473.134	1020.62
1477.802	1014.62
1482.465	1014.62
1487.123	999.62
1491.777	1014.62
1496.426	1000.62
1501.071	1027.62
1505.711	1019.62
1510.347	1028.62
1514.978	1051.62
1519.604	1060.62
1524.226	1057.62
1528.844	1076.62
1533.457	1073.62
1538.065	1053.62
1542.669	1066.62
1547.269	1065.62
1551.864	1078.62
1556.454	1072.62
1561.041	1065.62
1565.622	1084.62
1570.199	1087.62
1574.772	1108.62
1579.34	1124.62
1583.904	1157.62
1588.464	1174.62
1593.019	1208.62
1597.569	1218.62
1602.115	1223.62
1606.657	1231.62
1611.195	1244.62
1615.728	1275.62
1620.256	1272.62
1624.78	1279.62
1629.3	1298.62
1633.816	1320.62
1638.327	1328.62
1642.834	1362.62
1647.336	1361.62
1651.834	1366.62
1656.328	1372.62
1660.817	1358.62
1665.302	1354.62
1669.783	1313.62
1674.259	1298.62
1678.732	1264.62
1683.199	1209.62
1687.663	1176.62
1692.122	1134.62
1696.577	1096.62
1701.028	1043.62
1705.474	990.62
1709.917	972.62
1714.355	943.62
1718.788	922.62
1723.218	920.62
1727.643	884.62
1732.064	881.62
1736.481	861.62
1740.893	839.62
1745.301	809.62
1749.705	795.62
1754.105	784.62
1758.501	757.62
1762.893	737.62
1767.28	729.62
1771.663	726.62
1776.042	719.62
1780.417	731.62
1784.787	731.62
1789.154	726.62
1793.516	730.62
1797.874	728.62
1802.228	724.62
1806.578	713.62
1810.924	695.62
1815.266	673.62
1819.603	674.62
1823.937	673.62
1828.266	668.62
1832.591	663.62
1836.913	666.62
1841.23	659.62
1845.543	654.62
1849.852	664.62
1854.156	656.62
1858.457	657.62
1862.754	649.62
1867.047	645.62
1871.335	660.62
1875.62	675.62
1879.9	680.62
1884.177	674.62
1888.449	676.62
1892.718	678.62
1896.982	676.62
1901.243	675.62
1905.499	670.62
1909.752	657.62
1914	660.62
1918.245	666.62
1922.485	660.62
1926.722	673.62
1930.954	676.62
1935.183	669.62
1939.408	662.62
1943.628	679.62
1947.845	688.62
1952.058	680.62
1956.267	677.62
1960.472	657.62
1964.673	662.62
1968.87	656.62
1973.063	649.62
1977.252	635.62
1981.438	638.62
1985.619	628.62
1989.797	630.62
1993.971	636.62
1998.14	633.62
2002.306	638.62
2006.469	639.62
2010.627	642.62
2014.781	649.62
2018.932	648.62
2023.078	656.62
2027.221	660.62
2031.36	643.62
2035.495	634.62
2039.627	638.62
2043.754	631.62
2047.878	641.62
2051.998	627.62
2056.114	626.62
2060.226	635.62
2064.334	635.62
2068.439	650.62
2072.54	636.62
2076.637	639.62
2080.73	650.62
2084.82	658.62
2088.906	655.62
2092.988	646.62
2097.066	658.62
2101.14	655.62
2105.211	635.62
2109.278	637.62
2113.342	630.62
2117.401	638.62
2121.457	633.62
2125.509	617.62
2129.558	623.62
2133.602	617.62
2137.643	613.62
2141.681	621.62
2145.714	613.62
2149.744	601.62
2153.77	601.62
2157.793	588.62
2161.812	584.62
2165.827	593.62
2169.838	586.62
2173.846	557.62
2177.851	565.62
2181.851	557.62
2185.848	543.62
2189.841	538.62
2193.831	528.62
2197.817	534.62
2201.799	528.62
2205.778	528.62
2209.753	523.62
2213.725	526.62
2217.693	530.62
2221.657	525.62
2225.618	524.62
2229.575	524.62
2233.529	524.62
2237.479	525.62
2241.425	509.62
2245.368	501.62
2249.307	503.62
2253.243	478.62
2257.175	491.62
2261.104	470.62
2265.029	462.62
2268.95	467.62
2272.868	462.62
2276.783	457.62
2280.694	435.62
2284.601	440.62
2288.505	445.62
2292.405	432.62
2296.302	417.62
2300.195	422.62
2304.085	413.62
2307.971	408.62
2311.854	404.62
2315.734	397.62
2319.609	385.62
2323.482	377.62
2327.351	370.62
2331.216	373.62
2335.078	373.62
2338.937	370.62
2342.792	366.62
2346.643	352.62
2350.492	362.62
2354.336	359.62
2358.178	363.62
2362.015	363.62
2365.85	363.62
2369.681	369.62
2373.508	364.62
2377.333	367.62
2381.153	361.62
2384.971	358.62
2388.785	364.62
2392.595	357.62
2396.402	361.62
2400.206	370.62
2404.007	356.62
2407.804	346.62
2411.597	350.62
2415.388	350.62
2419.174	348.62
2422.958	334.62
2426.738	342.62
2430.515	348.62
2434.289	338.62
2438.059	343.62
2441.825	341.62
2445.589	330.62
2449.349	340.62
2453.106	328.62
2456.859	329.62
2460.61	321.62
2464.356	327.62
2468.1	314.62
2471.84	323.62
2475.577	322.62
2479.311	325.62
2483.041	316.62
2486.768	328.62
2490.492	311.62
2494.213	316.62
2497.93	309.62
2501.644	310.62
2505.355	312.62
2509.062	305.62
2512.766	314.62
2516.467	315.62
2520.165	313.62
2523.859	308.62
2527.551	304.62
2531.239	304.62
2534.923	308.62
2538.605	299.62
2542.283	291.62
2545.958	286.62
2549.63	285.62
2553.299	293.62
2556.964	276.62
2560.626	291.62
2564.285	290.62
2567.941	285.62
2571.594	282.62
2575.243	282.62
2578.89	279.62
2582.533	274.62
2586.173	275.62
2589.809	270.62
2593.443	268.62
2597.073	276.62
2600.701	271.62
2604.325	263.62
2607.946	266.62
2611.564	259.62
2615.178	265.62
2618.79	265.62
2622.398	263.62
2626.004	255.62
2629.606	258.62
2633.205	244.62
2636.801	244.62
2640.394	244.62
2643.983	243.62
2647.57	243.62
2651.153	245.62
2654.734	233.62
2658.311	237.62
2661.885	237.62
2665.456	233.62
2669.025	230.62
2672.589	229.62
2676.151	222.62
2679.71	223.62
2683.266	229.62
2686.819	220.62
2690.368	223.62
2693.915	216.62
2697.458	221.62
2700.999	209.62
2704.536	214.62
2708.071	205.62
2711.602	208.62
2715.13	205.62
2718.656	204.62
2722.178	207.62
2725.697	200.62
2729.214	211.62
2732.727	211.62
2736.237	210.62
2739.744	212.62
2743.249	214.62
2746.75	212.62
2750.248	217.62
2753.743	195.62
2757.236	211.62
2760.725	209.62
2764.211	202.62
2767.695	197.62
2771.175	198.62
2774.652	195.62
2778.127	195.62
2781.598	198.62
2785.067	204.62
2788.532	206.62
2791.995	206.62
2795.455	202.62
2798.911	195.62
2802.365	200.62
2805.816	208.62
2809.264	209.62
2812.709	205.62
2816.151	207.62
2819.59	208.62
2823.026	207.62
2826.46	210.62
2829.89	207.62
2833.318	215.62
2836.742	200.62
2840.164	213.62
2843.583	214.62
2846.999	220.62
2850.412	215.62
2853.822	219.62
2857.229	227.62
2860.634	222.62
2864.035	236.62
2867.434	242.62
2870.83	231.62
2874.223	243.62
2877.613	237.62
2881	249.62
2884.385	232.62
2887.766	236.62
2891.145	242.62
2894.521	244.62
2897.894	246.62
2901.264	247.62
2904.631	248.62
2907.996	255.62
2911.358	252.62
2914.717	257.62
2918.073	258.62
2921.426	252.62
2924.777	271.62
2928.124	278.62
2931.469	281.62
2934.811	279.62
2938.15	289.62
2941.487	295.62
2944.821	300.62
2948.152	296.62
2951.48	309.62
2954.805	306.62
2958.128	318.62
2961.447	320.62
2964.765	335.62
2968.079	343.62
2971.39	348.62
2974.699	351.62
2978.005	364.62
2981.308	371.62
2984.609	371.62
2987.907	389.62
2991.202	397.62
2994.494	421.62
2997.784	419.62
3001.07	427.62
3004.355	440.62
3007.636	455.62
3010.915	466.62
3014.191	477.62
3017.464	479.62
3020.734	497.62
3024.002	504.62
3027.267	510.62
3030.53	523.62
3033.789	523.62
3037.046	544.62
3040.301	551.62
3043.552	562.62
3046.801	566.62
3050.048	609.62
3053.291	607.62
3056.532	632.62
3059.771	664.62
3063.006	664.62
3066.239	698.62
3069.469	712.62
3072.697	723.62
3075.922	757.62
3079.144	780.62
3082.364	795.62
3085.581	813.62
3088.795	843.62
3092.007	857.62
3095.216	877.62
3098.423	897.62
3101.627	919.62
3104.828	925.62
3108.026	969.62
3111.222	973.62
3114.416	1005.62
3117.607	1016.62
3120.795	1041.62
3123.98	1063.62
3127.163	1104.62
3130.344	1129.62
3133.521	1143.62
3136.696	1166.62
3139.869	1186.62
3143.039	1220.62
3146.206	1230.62
3149.371	1245.62
3152.533	1269.62
3155.693	1273.62
3158.85	1299.62
3162.005	1288.62
3165.157	1306.62
3168.306	1313.62
3171.453	1310.62
3174.597	1308.62
3177.739	1325.62
3180.878	1299.62
3184.014	1325.62
3187.149	1324.62
3190.28	1346.62
3193.409	1325.62
3196.536	1346.62
3199.659	1352.62
3202.781	1357.62
3205.9	1350.62
3209.016	1356.62
3212.13	1366.62
3215.241	1320.62
3218.35	1339.62
3221.456	1342.62
3224.56	1322.62
3227.661	1323.62
3230.76	1299.62
3233.856	1288.62
3236.95	1271.62
3240.041	1269.62
3243.13	1251.62
3246.216	1242.62
3249.3	1231.62
3252.382	1218.62
3255.46	1215.62
3258.537	1190.62
3261.611	1184.62
3264.682	1194.62
3267.751	1186.62
3270.818	1180.62
3273.882	1172.62
3276.943	1176.62
3280.002	1161.62
3283.059	1150.62
3286.113	1135.62
3289.165	1127.62
3292.214	1096.62
3295.261	1091.62
3298.306	1094.62
3301.348	1073.62
3304.387	1046.62
3307.425	1045.62
3310.459	1015.62
3313.492	1008.62
3316.521	994.62
3319.549	975.62
3322.574	960.62
3325.597	950.62
3328.617	958.62
3331.635	947.62
3334.65	944.62
3337.663	940.62
3340.674	927.62
3343.682	942.62
3346.688	915.62
3349.691	918.62
3352.692	919.62
3355.691	910.62
3358.687	924.62
3361.681	889.62
3364.673	898.62
3367.662	888.62
3370.649	862.62
3373.633	867.62
3376.615	851.62
3379.595	829.62
3382.572	815.62
3385.547	807.62
3388.52	803.62
3391.49	809.62
3394.458	790.62
3397.424	775.62
3400.387	766.62
3403.348	741.62
3406.307	726.62
3409.263	734.62
3412.217	711.62
3415.168	720.62
3418.118	720.62
3421.065	702.62
3424.009	695.62
3426.951	686.62
3429.891	677.62
3432.829	665.62
3435.764	656.62
3438.697	640.62
3441.628	624.62
3444.557	597.62
3447.483	598.62
3450.407	572.62
3453.328	559.62
3456.247	541.62
3459.164	546.62
3462.079	518.62
3464.991	486.62
3467.902	490.62
3470.809	469.62
3473.715	457.62
3476.618	435.62
3479.519	427.62
3482.418	416.62
3485.315	409.62
3488.209	395.62
3491.101	375.62
3493.99	368.62
3496.878	359.62
3499.763	345.62
3502.646	333.62
3505.527	322.62
3508.405	318.62
3511.281	302.62
3514.155	294.62
3517.027	269.62
3519.897	261.62
3522.764	245.62
3525.629	241.62
3528.492	228.62
3531.352	219.62
3534.211	199.62
3537.067	190.62
3539.921	183.62
3542.773	163.62
3545.622	159.62
3548.469	150.62
3551.315	137.62
3554.157	134.62
3556.998	119.62
3559.837	113.62
3562.673	111.62
3565.507	105.62
3568.339	94.62
3571.169	87.62
3573.996	80.62
3576.822	77.62
3579.645	66.62
3582.466	64.62
3585.285	60.62
3588.101	43.62
3590.916	45.62
3593.728	38.62
3596.538	30.62
3599.346	27.62
3602.152	26.62
3604.956	16.62
3607.757	15.62
3610.556	8.62
3613.354	3.62
3616.149	4.62
3618.942	0.62
3621.732	-4.38
3624.521	-9.38
3627.307	-14.38
3630.092	-17.38
3632.874	-16.38
3635.654	-22.38
3638.432	-21.38
3641.208	-25.38
3643.982	-32.38
3646.753	-33.38
3649.523	-28.38
3652.29	-37.38
3655.055	-35.38
3657.818	-43.38
3660.579	-46.38
3663.338	-50.38
3666.095	-54.38
3668.849	-54.38
3671.602	-57.38
3674.352	-62.38
3677.101	-68.38
3679.847	-65.38
3682.591	-69.38
3685.333	-67.38
3688.073	-71.38
3690.811	-73.38
3693.547	-76.38
3696.281	-74.38
3699.013	-76.38
3701.742	-73.38
3704.47	-82.38
3707.195	-79.38
3709.919	-81.38
3712.64	-87.38
3715.359	-85.38
3718.076	-89.38
3720.792	-84.38
3723.505	-88.38
3726.216	-86.38
3728.925	-89.38
3731.632	-87.38
3734.336	-85.38
3737.039	-98.38
3739.74	-93.38
3742.439	-96.38
3745.136	-96.38
3747.83	-98.38
3750.523	-93.38
3753.213	-95.38
3755.902	-98.38
3758.589	-95.38
3761.273	-93.38
3763.956	-95.38
3766.636	-99.38
3769.315	-101.38
3771.991	-96.38
3774.665	-101.38
3777.338	-101.38
3780.008	-105.38
3782.677	-103.38
3785.343	-102.38
3788.007	-95.38
3790.67	-98.38
3793.33	-101.38
3795.989	-105.38
3798.645	-101.38
3801.299	-105.38
3803.952	-111.38
3806.602	-108.38
3809.251	-107.38
3811.897	-109.38
3814.542	-108.38
3817.184	-104.38
3819.825	-100.38
3822.463	-105.38
3825.1	-102.38
3827.735	-105.38
3830.367	-107.38
3832.998	-106.38
3835.627	-109.38
3838.253	-109.38
3840.878	-107.38
3843.501	-107.38
3846.122	-109.38
3848.741	-103.38
3851.358	-108.38
3853.973	-107.38
3856.586	-102.38
3859.197	-106.38
3861.806	-111.38
3864.414	-107.38
3867.019	-113.38
3869.622	-110.38
3872.224	-111.38
3874.823	-107.38
3877.421	-103.38
3880.016	-97.38
3882.61	-97.38
3885.202	-98.38
3887.792	-97.38
3890.38	-108.38
3892.966	-108.38
3895.55	-113.38
3898.132	-109.38
3900.713	-108.38
3903.291	-114.38
3905.868	-112.38
3908.442	-109.38
3911.015	-111.38
3913.586	-112.38
3916.155	-110.38
3918.722	-111.38
3921.287	-113.38
3923.85	-115.38
3926.411	-117.38
3928.971	-109.38
3931.528	-117.38
3934.084	-113.38
3936.638	-108.38
3939.19	-112.38
3941.74	-112.38
3944.288	-116.38
3946.834	-113.38
3949.378	-112.38
3951.921	-112.38
3954.462	-112.38
3957	-111.38
3959.537	-116.38
3962.072	-114.38
3964.606	-114.38
3967.137	-111.38
3969.667	-109.38
3972.194	-115.38
3974.72	-109.38
3977.244	-108.38
3979.766	-112.38
3982.286	-112.38
3984.805	-110.38
3987.321	-109.38
3989.836	-113.38
3992.349	-114.38
3994.86	-113.38
3997.369	-110.38
3999.877	-113.38
4002.382	-111.38
4004.886	-110.38
4007.388	-110.38
4009.888	-109.38
4012.386	-114.38
4014.883	-109.38
4017.377	-112.38
4019.87	-115.38
4022.361	-115.38
4024.85	-116.38
4027.338	-115.38
4029.823	-110.38
4032.307	-108.38
4034.789	-108.38
4037.269	-111.38
4039.747	-110.38
4042.224	-109.38
4044.699	-116.38
4047.172	-112.38
4049.643	-113.38
4052.112	-115.38
4054.58	-116.38
4057.046	-119.38
4059.51	-112.38
4061.972	-113.38
4064.432	-112.38
4066.891	-113.38
4069.348	-113.38
4071.803	-114.38
4074.256	-116.38
4076.708	-111.38
4079.158	-117.38
4081.606	-115.38
4084.052	-111.38
4086.497	-115.38
4088.939	-112.38
4091.38	-111.38
4093.819	-114.38
4096.257	-116.38
4098.693	-115.38
4101.127	-113.38
4103.559	-120.38
4105.989	-82.38
4108.418	-77.38
4110.845	-74.38
4113.27	-67.38
4115.694	-63.38
4118.115	-54.38
4120.535	-110.38
4122.954	-115.38
4125.37	-114.38
4127.785	-114.38
4130.198	-116.38
4132.609	-115.38
4135.019	-114.38
4137.427	-114.38
4139.833	-116.38
4142.237	-115.38
