Data from 10CFU2_A_RamanShift_1.txt Node
Date: Tue Jan 31 15:13:54 IST 2017
User: aro
Spectrometer: QEPB0276
Trigger mode: 0
Integration Time (sec): 5.000000E0
Scans to average: 1
Electric dark correction enabled: true
Nonlinearity correction enabled: false
Boxcar width: 0
XAxis mode: Raman Shifts
Number of Pixels in Spectrum: 1044
>>>>>Begin Spectral Data<<<<<
160.701	-25.88
166.742	-7.88
172.777	90.12
178.805	388.12
184.826	1110.12
190.841	2253.12
196.849	3514.12
202.85	4320.12
208.845	4504.12
214.833	4374.12
220.815	4184.12
226.789	4072.12
232.758	3974.12
238.719	3858.12
244.674	3701.12
250.623	3557.12
256.565	3382.12
262.5	3227.12
268.429	3080.12
274.351	2969.12
280.267	2856.12
286.176	2725.12
292.079	2641.12
297.975	2550.12
303.865	2470.12
309.748	2407.12
315.625	2347.12
321.495	2297.12
327.359	2258.12
333.217	2244.12
339.068	2221.12
344.912	2206.12
350.751	2208.12
356.583	2198.12
362.408	2180.12
368.227	2198.12
374.04	2204.12
379.847	2234.12
385.647	2225.12
391.44	2233.12
397.228	2262.12
403.009	2267.12
408.784	2291.12
414.553	2278.12
420.315	2289.12
426.071	2291.12
431.821	2264.12
437.565	2283.12
443.302	2280.12
449.033	2252.12
454.758	2272.12
460.477	2251.12
466.189	2244.12
471.896	2215.12
477.596	2209.12
483.29	2224.12
488.978	2205.12
494.66	2200.12
500.335	2190.12
506.005	2128.12
511.668	2108.12
517.325	2078.12
522.977	2035.12
528.622	2023.12
534.261	1982.12
539.894	1966.12
545.521	1971.12
551.141	1937.12
556.756	1936.12
562.365	1933.12
567.968	1912.12
573.565	1897.12
579.155	1903.12
584.74	1892.12
590.319	1865.12
595.892	1852.12
601.459	1867.12
607.02	1821.12
612.575	1804.12
618.124	1808.12
623.667	1783.12
629.204	1768.12
634.735	1773.12
640.261	1739.12
645.781	1732.12
651.294	1742.12
656.802	1718.12
662.304	1715.12
667.8	1706.12
673.29	1687.12
678.775	1702.12
684.254	1700.12
689.726	1693.12
695.193	1676.12
700.655	1650.12
706.11	1647.12
711.56	1642.12
717.004	1647.12
722.442	1631.12
727.874	1611.12
733.301	1607.12
738.722	1601.12
744.137	1594.12
749.547	1600.12
754.951	1584.12
760.349	1583.12
765.741	1578.12
771.128	1578.12
776.509	1581.12
781.885	1595.12
787.254	1585.12
792.618	1584.12
797.977	1586.12
803.33	1551.12
808.677	1548.12
814.019	1557.12
819.355	1528.12
824.686	1521.12
830.011	1506.12
835.33	1491.12
840.644	1489.12
845.952	1477.12
851.255	1456.12
856.552	1464.12
861.844	1461.12
867.13	1440.12
872.41	1436.12
877.686	1432.12
882.955	1430.12
888.219	1400.12
893.478	1387.12
898.731	1362.12
903.979	1355.12
909.221	1328.12
914.458	1306.12
919.69	1314.12
924.916	1310.12
930.136	1300.12
935.351	1310.12
940.561	1308.12
945.766	1302.12
950.965	1297.12
956.158	1299.12
961.347	1293.12
966.529	1261.12
971.707	1254.12
976.879	1243.12
982.046	1234.12
987.208	1216.12
992.364	1218.12
997.515	1223.12
1002.66	1231.12
1007.801	1232.12
1012.936	1229.12
1018.066	1240.12
1023.19	1242.12
1028.309	1270.12
1033.423	1263.12
1038.532	1269.12
1043.636	1262.12
1048.734	1240.12
1053.827	1226.12
1058.915	1232.12
1063.998	1210.12
1069.075	1211.12
1074.147	1211.12
1079.214	1225.12
1084.276	1223.12
1089.333	1230.12
1094.385	1228.12
1099.431	1248.12
1104.472	1248.12
1109.509	1246.12
1114.54	1227.12
1119.565	1233.12
1124.586	1213.12
1129.602	1194.12
1134.613	1184.12
1139.618	1169.12
1144.619	1199.12
1149.614	1183.12
1154.604	1186.12
1159.589	1193.12
1164.57	1195.12
1169.545	1215.12
1174.515	1197.12
1179.48	1223.12
1184.44	1206.12
1189.395	1214.12
1194.345	1214.12
1199.29	1203.12
1204.23	1202.12
1209.165	1205.12
1214.095	1202.12
1219.021	1201.12
1223.941	1221.12
1228.856	1228.12
1233.766	1230.12
1238.672	1229.12
1243.572	1228.12
1248.467	1226.12
1253.358	1217.12
1258.244	1207.12
1263.124	1193.12
1268	1176.12
1272.871	1154.12
1277.737	1153.12
1282.599	1149.12
1287.455	1144.12
1292.306	1160.12
1297.153	1157.12
1301.995	1163.12
1306.832	1159.12
1311.664	1175.12
1316.491	1176.12
1321.314	1191.12
1326.132	1165.12
1330.945	1180.12
1335.753	1171.12
1340.556	1141.12
1345.354	1156.12
1350.148	1127.12
1354.937	1133.12
1359.722	1095.12
1364.501	1088.12
1369.276	1096.12
1374.046	1091.12
1378.811	1061.12
1383.572	1065.12
1388.327	1063.12
1393.079	1055.12
1397.825	1045.12
1402.567	1068.12
1407.304	1050.12
1412.036	1051.12
1416.764	1039.12
1421.487	1046.12
1426.205	1057.12
1430.919	1045.12
1435.628	1054.12
1440.333	1064.12
1445.032	1084.12
1449.727	1085.12
1454.418	1092.12
1459.104	1103.12
1463.785	1100.12
1468.462	1105.12
1473.134	1076.12
1477.802	1059.12
1482.465	1067.12
1487.123	1061.12
1491.777	1071.12
1496.426	1071.12
1501.071	1073.12
1505.711	1086.12
1510.347	1083.12
1514.978	1092.12
1519.604	1099.12
1524.226	1112.12
1528.844	1115.12
1533.457	1107.12
1538.065	1119.12
1542.669	1115.12
1547.269	1117.12
1551.864	1124.12
1556.454	1118.12
1561.041	1108.12
1565.622	1138.12
1570.199	1160.12
1574.772	1173.12
1579.34	1181.12
1583.904	1196.12
1588.464	1220.12
1593.019	1251.12
1597.569	1260.12
1602.115	1277.12
1606.657	1305.12
1611.195	1285.12
1615.728	1305.12
1620.256	1324.12
1624.78	1340.12
1629.3	1352.12
1633.816	1376.12
1638.327	1383.12
1642.834	1401.12
1647.336	1406.12
1651.834	1406.12
1656.328	1415.12
1660.817	1412.12
1665.302	1405.12
1669.783	1378.12
1674.259	1339.12
1678.732	1316.12
1683.199	1280.12
1687.663	1247.12
1692.122	1184.12
1696.577	1144.12
1701.028	1093.12
1705.474	1054.12
1709.917	1021.12
1714.355	986.12
1718.788	972.12
1723.218	976.12
1727.643	942.12
1732.064	933.12
1736.481	903.12
1740.893	896.12
1745.301	867.12
1749.705	851.12
1754.105	843.12
1758.501	809.12
1762.893	800.12
1767.28	792.12
1771.663	787.12
1776.042	783.12
1780.417	781.12
1784.787	782.12
1789.154	784.12
1793.516	778.12
1797.874	790.12
1802.228	774.12
1806.578	762.12
1810.924	767.12
1815.266	738.12
1819.603	735.12
1823.937	730.12
1828.266	721.12
1832.591	715.12
1836.913	722.12
1841.23	712.12
1845.543	715.12
1849.852	712.12
1854.156	698.12
1858.457	702.12
1862.754	719.12
1867.047	730.12
1871.335	726.12
1875.62	725.12
1879.9	731.12
1884.177	721.12
1888.449	727.12
1892.718	728.12
1896.982	724.12
1901.243	725.12
1905.499	716.12
1909.752	713.12
1914	722.12
1918.245	718.12
1922.485	722.12
1926.722	726.12
1930.954	737.12
1935.183	727.12
1939.408	725.12
1943.628	718.12
1947.845	745.12
1952.058	739.12
1956.267	731.12
1960.472	718.12
1964.673	705.12
1968.87	695.12
1973.063	690.12
1977.252	679.12
1981.438	678.12
1985.619	694.12
1989.797	677.12
1993.971	693.12
1998.14	693.12
2002.306	685.12
2006.469	691.12
2010.627	693.12
2014.781	703.12
2018.932	689.12
2023.078	696.12
2027.221	697.12
2031.36	699.12
2035.495	684.12
2039.627	691.12
2043.754	672.12
2047.878	687.12
2051.998	675.12
2056.114	680.12
2060.226	673.12
2064.334	689.12
2068.439	696.12
2072.54	687.12
2076.637	696.12
2080.73	692.12
2084.82	701.12
2088.906	711.12
2092.988	692.12
2097.066	708.12
2101.14	705.12
2105.211	686.12
2109.278	695.12
2113.342	675.12
2117.401	686.12
2121.457	679.12
2125.509	669.12
2129.558	669.12
2133.602	662.12
2137.643	663.12
2141.681	660.12
2145.714	662.12
2149.744	658.12
2153.77	654.12
2157.793	649.12
2161.812	642.12
2165.827	639.12
2169.838	622.12
2173.846	611.12
2177.851	609.12
2181.851	594.12
2185.848	595.12
2189.841	587.12
2193.831	578.12
2197.817	574.12
2201.799	571.12
2205.778	576.12
2209.753	557.12
2213.725	581.12
2217.693	580.12
2221.657	577.12
2225.618	576.12
2229.575	565.12
2233.529	567.12
2237.479	572.12
2241.425	566.12
2245.368	549.12
2249.307	548.12
2253.243	534.12
2257.175	537.12
2261.104	517.12
2265.029	511.12
2268.95	499.12
2272.868	511.12
2276.783	498.12
2280.694	488.12
2284.601	488.12
2288.505	486.12
2292.405	464.12
2296.302	474.12
2300.195	457.12
2304.085	461.12
2307.971	443.12
2311.854	445.12
2315.734	433.12
2319.609	430.12
2323.482	418.12
2327.351	414.12
2331.216	421.12
2335.078	411.12
2338.937	418.12
2342.792	409.12
2346.643	398.12
2350.492	405.12
2354.336	404.12
2358.178	406.12
2362.015	404.12
2365.85	409.12
2369.681	397.12
2373.508	409.12
2377.333	407.12
2381.153	409.12
2384.971	416.12
2388.785	404.12
2392.595	392.12
2396.402	402.12
2400.206	393.12
2404.007	405.12
2407.804	394.12
2411.597	395.12
2415.388	399.12
2419.174	390.12
2422.958	380.12
2426.738	390.12
2430.515	383.12
2434.289	384.12
2438.059	375.12
2441.825	381.12
2445.589	388.12
2449.349	370.12
2453.106	371.12
2456.859	371.12
2460.61	370.12
2464.356	362.12
2468.1	363.12
2471.84	353.12
2475.577	348.12
2479.311	361.12
2483.041	355.12
2486.768	356.12
2490.492	359.12
2494.213	363.12
2497.93	359.12
2501.644	356.12
2505.355	350.12
2509.062	359.12
2512.766	355.12
2516.467	347.12
2520.165	354.12
2523.859	346.12
2527.551	347.12
2531.239	357.12
2534.923	339.12
2538.605	335.12
2542.283	331.12
2545.958	337.12
2549.63	335.12
2553.299	330.12
2556.964	324.12
2560.626	329.12
2564.285	317.12
2567.941	331.12
2571.594	322.12
2575.243	317.12
2578.89	314.12
2582.533	309.12
2586.173	307.12
2589.809	313.12
2593.443	309.12
2597.073	301.12
2600.701	304.12
2604.325	304.12
2607.946	299.12
2611.564	308.12
2615.178	301.12
2618.79	296.12
2622.398	290.12
2626.004	294.12
2629.606	296.12
2633.205	288.12
2636.801	281.12
2640.394	286.12
2643.983	286.12
2647.57	283.12
2651.153	279.12
2654.734	278.12
2658.311	261.12
2661.885	269.12
2665.456	264.12
2669.025	260.12
2672.589	259.12
2676.151	257.12
2679.71	256.12
2683.266	257.12
2686.819	268.12
2690.368	260.12
2693.915	248.12
2697.458	255.12
2700.999	249.12
2704.536	242.12
2708.071	231.12
2711.602	237.12
2715.13	229.12
2718.656	239.12
2722.178	235.12
2725.697	239.12
2729.214	246.12
2732.727	240.12
2736.237	238.12
2739.744	246.12
2743.249	248.12
2746.75	252.12
2750.248	243.12
2753.743	237.12
2757.236	243.12
2760.725	238.12
2764.211	242.12
2767.695	236.12
2771.175	226.12
2774.652	234.12
2778.127	224.12
2781.598	235.12
2785.067	217.12
2788.532	233.12
2791.995	223.12
2795.455	231.12
2798.911	230.12
2802.365	232.12
2805.816	238.12
2809.264	231.12
2812.709	231.12
2816.151	236.12
2819.59	240.12
2823.026	234.12
2826.46	237.12
2829.89	238.12
2833.318	248.12
2836.742	235.12
2840.164	245.12
2843.583	229.12
2846.999	244.12
2850.412	238.12
2853.822	242.12
2857.229	250.12
2860.634	255.12
2864.035	264.12
2867.434	266.12
2870.83	271.12
2874.223	271.12
2877.613	270.12
2881	270.12
2884.385	278.12
2887.766	265.12
2891.145	266.12
2894.521	268.12
2897.894	264.12
2901.264	269.12
2904.631	273.12
2907.996	278.12
2911.358	280.12
2914.717	290.12
2918.073	279.12
2921.426	287.12
2924.777	290.12
2928.124	288.12
2931.469	296.12
2934.811	303.12
2938.15	310.12
2941.487	319.12
2944.821	330.12
2948.152	321.12
2951.48	343.12
2954.805	339.12
2958.128	341.12
2961.447	342.12
2964.765	355.12
2968.079	354.12
2971.39	365.12
2974.699	370.12
2978.005	382.12
2981.308	392.12
2984.609	404.12
2987.907	407.12
2991.202	426.12
2994.494	433.12
2997.784	438.12
3001.07	446.12
3004.355	467.12
3007.636	478.12
3010.915	501.12
3014.191	493.12
3017.464	517.12
3020.734	514.12
3024.002	526.12
3027.267	532.12
3030.53	540.12
3033.789	557.12
3037.046	560.12
3040.301	575.12
3043.552	587.12
3046.801	607.12
3050.048	616.12
3053.291	631.12
3056.532	658.12
3059.771	660.12
3063.006	688.12
3066.239	705.12
3069.469	733.12
3072.697	755.12
3075.922	780.12
3079.144	799.12
3082.364	823.12
3085.581	846.12
3088.795	853.12
3092.007	880.12
3095.216	903.12
3098.423	919.12
3101.627	940.12
3104.828	952.12
3108.026	986.12
3111.222	996.12
3114.416	1019.12
3117.607	1039.12
3120.795	1090.12
3123.98	1105.12
3127.163	1111.12
3130.344	1143.12
3133.521	1164.12
3136.696	1202.12
3139.869	1213.12
3143.039	1236.12
3146.206	1248.12
3149.371	1278.12
3152.533	1313.12
3155.693	1307.12
3158.85	1307.12
3162.005	1313.12
3165.157	1317.12
3168.306	1343.12
3171.453	1337.12
3174.597	1326.12
3177.739	1342.12
3180.878	1335.12
3184.014	1349.12
3187.149	1341.12
3190.28	1362.12
3193.409	1368.12
3196.536	1371.12
3199.659	1366.12
3202.781	1385.12
3205.9	1378.12
3209.016	1374.12
3212.13	1373.12
3215.241	1375.12
3218.35	1380.12
3221.456	1367.12
3224.56	1350.12
3227.661	1353.12
3230.76	1330.12
3233.856	1312.12
3236.95	1316.12
3240.041	1294.12
3243.13	1287.12
3246.216	1259.12
3249.3	1256.12
3252.382	1244.12
3255.46	1236.12
3258.537	1220.12
3261.611	1226.12
3264.682	1218.12
3267.751	1205.12
3270.818	1194.12
3273.882	1208.12
3276.943	1190.12
3280.002	1173.12
3283.059	1178.12
3286.113	1149.12
3289.165	1115.12
3292.214	1135.12
3295.261	1101.12
3298.306	1081.12
3301.348	1081.12
3304.387	1038.12
3307.425	1051.12
3310.459	1020.12
3313.492	1025.12
3316.521	1001.12
3319.549	986.12
3322.574	973.12
3325.597	975.12
3328.617	972.12
3331.635	950.12
3334.65	945.12
3337.663	948.12
3340.674	950.12
3343.682	948.12
3346.688	939.12
3349.691	941.12
3352.692	926.12
3355.691	928.12
3358.687	925.12
3361.681	899.12
3364.673	910.12
3367.662	890.12
3370.649	883.12
3373.633	864.12
3376.615	861.12
3379.595	842.12
3382.572	822.12
3385.547	815.12
3388.52	809.12
3391.49	798.12
3394.458	794.12
3397.424	783.12
3400.387	765.12
3403.348	763.12
3406.307	744.12
3409.263	750.12
3412.217	736.12
3415.168	722.12
3418.118	718.12
3421.065	719.12
3424.009	701.12
3426.951	682.12
3429.891	685.12
3432.829	680.12
3435.764	666.12
3438.697	633.12
3441.628	636.12
3444.557	619.12
3447.483	594.12
3450.407	585.12
3453.328	573.12
3456.247	551.12
3459.164	545.12
3462.079	533.12
3464.991	509.12
3467.902	492.12
3470.809	471.12
3473.715	452.12
3476.618	434.12
3479.519	444.12
3482.418	423.12
3485.315	410.12
3488.209	398.12
3491.101	385.12
3493.99	375.12
3496.878	369.12
3499.763	350.12
3502.646	351.12
3505.527	332.12
3508.405	322.12
3511.281	304.12
3514.155	295.12
3517.027	276.12
3519.897	270.12
3522.764	260.12
3525.629	250.12
3528.492	242.12
3531.352	220.12
3534.211	209.12
3537.067	194.12
3539.921	182.12
3542.773	175.12
3545.622	169.12
3548.469	149.12
3551.315	153.12
3554.157	135.12
3556.998	126.12
3559.837	122.12
3562.673	111.12
3565.507	114.12
3568.339	95.12
3571.169	98.12
3573.996	83.12
3576.822	87.12
3579.645	76.12
3582.466	75.12
3585.285	67.12
3588.101	52.12
3590.916	49.12
3593.728	55.12
3596.538	46.12
3599.346	44.12
3602.152	36.12
3604.956	28.12
3607.757	20.12
3610.556	10.12
3613.354	12.12
3616.149	10.12
3618.942	1.12
3621.732	2.12
3624.521	-1.88
3627.307	-2.88
3630.092	-8.88
3632.874	-5.88
3635.654	-16.88
3638.432	-20.88
3641.208	-13.88
3643.982	-25.88
3646.753	-27.88
3649.523	-30.88
3652.29	-35.88
3655.055	-31.88
3657.818	-36.88
3660.579	-32.88
3663.338	-37.88
3666.095	-48.88
3668.849	-46.88
3671.602	-53.88
3674.352	-55.88
3677.101	-57.88
3679.847	-56.88
3682.591	-65.88
3685.333	-58.88
3688.073	-62.88
3690.811	-62.88
3693.547	-64.88
3696.281	-67.88
3699.013	-68.88
3701.742	-71.88
3704.47	-74.88
3707.195	-77.88
3709.919	-75.88
3712.64	-81.88
3715.359	-81.88
3718.076	-76.88
3720.792	-79.88
3723.505	-78.88
3726.216	-77.88
3728.925	-84.88
3731.632	-79.88
3734.336	-83.88
3737.039	-93.88
3739.74	-87.88
3742.439	-89.88
3745.136	-86.88
3747.83	-88.88
3750.523	-90.88
3753.213	-91.88
3755.902	-87.88
3758.589	-83.88
3761.273	-87.88
3763.956	-86.88
3766.636	-91.88
3769.315	-96.88
3771.991	-91.88
3774.665	-89.88
3777.338	-96.88
3780.008	-95.88
3782.677	-91.88
3785.343	-94.88
3788.007	-92.88
3790.67	-97.88
3793.33	-95.88
3795.989	-98.88
3798.645	-96.88
3801.299	-93.88
3803.952	-99.88
3806.602	-97.88
3809.251	-97.88
3811.897	-96.88
3814.542	-98.88
3817.184	-95.88
3819.825	-97.88
3822.463	-98.88
3825.1	-99.88
3827.735	-95.88
3830.367	-97.88
3832.998	-99.88
3835.627	-98.88
3838.253	-100.88
3840.878	-101.88
3843.501	-101.88
3846.122	-101.88
3848.741	-98.88
3851.358	-101.88
3853.973	-103.88
3856.586	-100.88
3859.197	-98.88
3861.806	-103.88
3864.414	-101.88
3867.019	-99.88
3869.622	-96.88
3872.224	-108.88
3874.823	-101.88
3877.421	-97.88
3880.016	-95.88
3882.61	-93.88
3885.202	-92.88
3887.792	-87.88
3890.38	-99.88
3892.966	-103.88
3895.55	-107.88
3898.132	-105.88
3900.713	-102.88
3903.291	-108.88
3905.868	-107.88
3908.442	-106.88
3911.015	-102.88
3913.586	-108.88
3916.155	-101.88
3918.722	-108.88
3921.287	-103.88
3923.85	-107.88
3926.411	-109.88
3928.971	-105.88
3931.528	-108.88
3934.084	-107.88
3936.638	-105.88
3939.19	-110.88
3941.74	-104.88
3944.288	-105.88
3946.834	-102.88
3949.378	-104.88
3951.921	-105.88
3954.462	-109.88
3957	-110.88
3959.537	-110.88
3962.072	-107.88
3964.606	-111.88
3967.137	-101.88
3969.667	-104.88
3972.194	-105.88
3974.72	-101.88
3977.244	-107.88
3979.766	-104.88
3982.286	-101.88
3984.805	-106.88
3987.321	-110.88
3989.836	-109.88
3992.349	-104.88
3994.86	-107.88
3997.369	-104.88
3999.877	-106.88
4002.382	-104.88
4004.886	-106.88
4007.388	-102.88
4009.888	-104.88
4012.386	-106.88
4014.883	-108.88
4017.377	-107.88
4019.87	-105.88
4022.361	-108.88
4024.85	-104.88
4027.338	-104.88
4029.823	-104.88
4032.307	-102.88
4034.789	-102.88
4037.269	-105.88
4039.747	-108.88
4042.224	-108.88
4044.699	-111.88
4047.172	-108.88
4049.643	-104.88
4052.112	-106.88
4054.58	-108.88
4057.046	-108.88
4059.51	-108.88
4061.972	-110.88
4064.432	-107.88
4066.891	-110.88
4069.348	-105.88
4071.803	-107.88
4074.256	-108.88
4076.708	-109.88
4079.158	-109.88
4081.606	-109.88
4084.052	-105.88
4086.497	-108.88
4088.939	-109.88
4091.38	-108.88
4093.819	-109.88
4096.257	-112.88
4098.693	-112.88
4101.127	-108.88
4103.559	-110.88
4105.989	-72.88
4108.418	-67.88
4110.845	-61.88
4113.27	-61.88
4115.694	-59.88
4118.115	-49.88
4120.535	-104.88
4122.954	-110.88
4125.37	-101.88
4127.785	-107.88
4130.198	-106.88
4132.609	-105.88
4135.019	-110.88
4137.427	-111.88
4139.833	-108.88
4142.237	-112.88
