Data from SERSd_clean_I=0.5_T=50s_RamanShift_1.txt Node
Date: Wed Jun 14 15:16:45 IDT 2017
User: aro
Spectrometer: QEPB0276
Trigger mode: 0
Integration Time (sec): 5.000000E1
Scans to average: 1
Electric dark correction enabled: true
Nonlinearity correction enabled: false
Boxcar width: 0
XAxis mode: Raman Shifts
Number of Pixels in Spectrum: 1044
>>>>>Begin Spectral Data<<<<<
160.701	3.62
166.742	4.62
172.777	8.62
178.805	-5.38
184.826	-8.38
190.841	-8.38
196.849	8.62
202.85	-28.38
208.845	0.62
214.833	17.62
220.815	8.62
226.789	59.62
232.758	91.62
238.719	98.62
244.674	176.62
250.623	116.62
256.565	159.62
262.5	174.62
268.429	141.62
274.351	101.62
280.267	250.62
286.176	280.62
292.079	272.62
297.975	302.62
303.865	313.62
309.748	324.62
315.625	342.62
321.495	359.62
327.359	405.62
333.217	407.62
339.068	427.62
344.912	419.62
350.751	428.62
356.583	435.62
362.408	490.62
368.227	486.62
374.04	465.62
379.847	453.62
385.647	481.62
391.44	487.62
397.228	480.62
403.009	479.62
408.784	472.62
414.553	497.62
420.315	486.62
426.071	496.62
431.821	487.62
437.565	482.62
443.302	463.62
449.033	473.62
454.758	472.62
460.477	454.62
466.189	438.62
471.896	413.62
477.596	427.62
483.29	425.62
488.978	402.62
494.66	426.62
500.335	405.62
506.005	392.62
511.668	369.62
517.325	369.62
522.977	387.62
528.622	362.62
534.261	379.62
539.894	330.62
545.521	324.62
551.141	302.62
556.756	282.62
562.365	276.62
567.968	244.62
573.565	248.62
579.155	229.62
584.74	220.62
590.319	205.62
595.892	191.62
601.459	195.62
607.02	176.62
612.575	162.62
618.124	142.62
623.667	156.62
629.204	97.62
634.735	84.62
640.261	67.62
645.781	64.62
651.294	88.62
656.802	61.62
662.304	5.62
667.8	44.62
673.29	13.62
678.775	23.62
684.254	17.62
689.726	-48.38
695.193	3.62
700.655	-20.38
706.11	-40.38
711.56	-29.38
717.004	-20.38
722.442	-38.38
727.874	-29.38
733.301	-18.38
738.722	-2.38
744.137	-15.38
749.547	-44.38
754.951	-23.38
760.349	-6.38
765.741	-18.38
771.128	-8.38
776.509	-47.38
781.885	-35.38
787.254	-22.38
792.618	-3.38
797.977	-6.38
803.33	-6.38
808.677	-15.38
814.019	25.62
819.355	15.62
824.686	36.62
830.011	51.62
835.33	58.62
840.644	56.62
845.952	57.62
851.255	65.62
856.552	104.62
861.844	82.62
867.13	80.62
872.41	109.62
877.686	133.62
882.955	139.62
888.219	136.62
893.478	152.62
898.731	197.62
903.979	186.62
909.221	196.62
914.458	227.62
919.69	220.62
924.916	224.62
930.136	246.62
935.351	232.62
940.561	248.62
945.766	277.62
950.965	310.62
956.158	323.62
961.347	321.62
966.529	314.62
971.707	366.62
976.879	347.62
982.046	382.62
987.208	437.62
992.364	443.62
997.515	440.62
1002.66	461.62
1007.801	454.62
1012.936	530.62
1018.066	520.62
1023.19	530.62
1028.309	541.62
1033.423	577.62
1038.532	585.62
1043.636	599.62
1048.734	588.62
1053.827	626.62
1058.915	612.62
1063.998	647.62
1069.075	627.62
1074.147	649.62
1079.214	654.62
1084.276	673.62
1089.333	701.62
1094.385	706.62
1099.431	701.62
1104.472	730.62
1109.509	739.62
1114.54	744.62
1119.565	733.62
1124.586	753.62
1129.602	754.62
1134.613	737.62
1139.618	758.62
1144.619	750.62
1149.614	752.62
1154.604	762.62
1159.589	776.62
1164.57	795.62
1169.545	782.62
1174.515	801.62
1179.48	802.62
1184.44	789.62
1189.395	769.62
1194.345	778.62
1199.29	781.62
1204.23	784.62
1209.165	785.62
1214.095	778.62
1219.021	806.62
1223.941	804.62
1228.856	783.62
1233.766	790.62
1238.672	781.62
1243.572	752.62
1248.467	770.62
1253.358	749.62
1258.244	717.62
1263.124	727.62
1268	695.62
1272.871	683.62
1277.737	704.62
1282.599	679.62
1287.455	671.62
1292.306	651.62
1297.153	660.62
1301.995	673.62
1306.832	660.62
1311.664	649.62
1316.491	642.62
1321.314	636.62
1326.132	616.62
1330.945	636.62
1335.753	621.62
1340.556	645.62
1345.354	611.62
1350.148	597.62
1354.937	562.62
1359.722	580.62
1364.501	508.62
1369.276	485.62
1374.046	483.62
1378.811	433.62
1383.572	445.62
1388.327	438.62
1393.079	414.62
1397.825	421.62
1402.567	430.62
1407.304	400.62
1412.036	413.62
1416.764	399.62
1421.487	399.62
1426.205	383.62
1430.919	390.62
1435.628	380.62
1440.333	364.62
1445.032	400.62
1449.727	385.62
1454.418	356.62
1459.104	378.62
1463.785	412.62
1468.462	339.62
1473.134	338.62
1477.802	337.62
1482.465	336.62
1487.123	353.62
1491.777	340.62
1496.426	344.62
1501.071	325.62
1505.711	306.62
1510.347	299.62
1514.978	299.62
1519.604	316.62
1524.226	313.62
1528.844	277.62
1533.457	279.62
1538.065	298.62
1542.669	282.62
1547.269	256.62
1551.864	274.62
1556.454	296.62
1561.041	247.62
1565.622	276.62
1570.199	261.62
1574.772	295.62
1579.34	252.62
1583.904	289.62
1588.464	312.62
1593.019	286.62
1597.569	301.62
1602.115	299.62
1606.657	292.62
1611.195	285.62
1615.728	303.62
1620.256	293.62
1624.78	305.62
1629.3	304.62
1633.816	328.62
1638.327	332.62
1642.834	311.62
1647.336	358.62
1651.834	348.62
1656.328	331.62
1660.817	369.62
1665.302	367.62
1669.783	377.62
1674.259	360.62
1678.732	377.62
1683.199	390.62
1687.663	407.62
1692.122	390.62
1696.577	377.62
1701.028	369.62
1705.474	355.62
1709.917	357.62
1714.355	343.62
1718.788	363.62
1723.218	399.62
1727.643	398.62
1732.064	428.62
1736.481	424.62
1740.893	419.62
1745.301	434.62
1749.705	404.62
1754.105	457.62
1758.501	446.62
1762.893	446.62
1767.28	439.62
1771.663	439.62
1776.042	471.62
1780.417	483.62
1784.787	487.62
1789.154	502.62
1793.516	498.62
1797.874	483.62
1802.228	469.62
1806.578	482.62
1810.924	506.62
1815.266	479.62
1819.603	464.62
1823.937	486.62
1828.266	518.62
1832.591	526.62
1836.913	521.62
1841.23	574.62
1845.543	562.62
1849.852	550.62
1854.156	582.62
1858.457	572.62
1862.754	576.62
1867.047	612.62
1871.335	605.62
1875.62	647.62
1879.9	631.62
1884.177	650.62
1888.449	681.62
1892.718	634.62
1896.982	632.62
1901.243	633.62
1905.499	642.62
1909.752	643.62
1914	685.62
1918.245	661.62
1922.485	675.62
1926.722	702.62
1930.954	684.62
1935.183	678.62
1939.408	670.62
1943.628	657.62
1947.845	660.62
1952.058	627.62
1956.267	586.62
1960.472	618.62
1964.673	575.62
1968.87	556.62
1973.063	562.62
1977.252	530.62
1981.438	552.62
1985.619	526.62
1989.797	546.62
1993.971	558.62
1998.14	539.62
2002.306	557.62
2006.469	539.62
2010.627	552.62
2014.781	556.62
2018.932	551.62
2023.078	535.62
2027.221	523.62
2031.36	530.62
2035.495	517.62
2039.627	491.62
2043.754	489.62
2047.878	492.62
2051.998	443.62
2056.114	460.62
2060.226	450.62
2064.334	454.62
2068.439	479.62
2072.54	434.62
2076.637	447.62
2080.73	421.62
2084.82	411.62
2088.906	402.62
2092.988	403.62
2097.066	401.62
2101.14	375.62
2105.211	345.62
2109.278	325.62
2113.342	325.62
2117.401	300.62
2121.457	314.62
2125.509	291.62
2129.558	273.62
2133.602	221.62
2137.643	231.62
2141.681	220.62
2145.714	242.62
2149.744	203.62
2153.77	179.62
2157.793	162.62
2161.812	125.62
2165.827	136.62
2169.838	115.62
2173.846	105.62
2177.851	98.62
2181.851	82.62
2185.848	75.62
2189.841	74.62
2193.831	53.62
2197.817	36.62
2201.799	33.62
2205.778	41.62
2209.753	43.62
2213.725	8.62
2217.693	-12.38
2221.657	3.62
2225.618	-49.38
2229.575	-67.38
2233.529	-85.38
2237.479	-67.38
2241.425	-81.38
2245.368	-73.38
2249.307	-105.38
2253.243	-109.38
2257.175	-103.38
2261.104	-108.38
2265.029	-132.38
2268.95	-120.38
2272.868	-155.38
2276.783	-190.38
2280.694	-204.38
2284.601	-180.38
2288.505	-162.38
2292.405	-167.38
2296.302	-200.38
2300.195	-190.38
2304.085	-194.38
2307.971	-208.38
2311.854	-199.38
2315.734	-218.38
2319.609	-212.38
2323.482	-212.38
2327.351	-218.38
2331.216	-198.38
2335.078	-182.38
2338.937	-197.38
2342.792	-224.38
2346.643	-233.38
2350.492	-227.38
2354.336	-198.38
2358.178	-235.38
2362.015	-220.38
2365.85	-238.38
2369.681	-240.38
2373.508	-207.38
2377.333	-236.38
2381.153	-230.38
2384.971	-257.38
2388.785	-225.38
2392.595	-253.38
2396.402	-224.38
2400.206	-218.38
2404.007	-257.38
2407.804	-228.38
2411.597	-204.38
2415.388	-215.38
2419.174	-240.38
2422.958	-258.38
2426.738	-226.38
2430.515	-164.38
2434.289	-191.38
2438.059	-214.38
2441.825	-225.38
2445.589	-198.38
2449.349	-144.38
2453.106	-177.38
2456.859	-161.38
2460.61	-142.38
2464.356	-165.38
2468.1	-149.38
2471.84	-148.38
2475.577	-114.38
2479.311	-117.38
2483.041	-94.38
2486.768	-118.38
2490.492	-88.38
2494.213	-110.38
2497.93	-88.38
2501.644	-78.38
2505.355	-76.38
2509.062	-81.38
2512.766	-100.38
2516.467	-12.38
2520.165	-51.38
2523.859	-38.38
2527.551	-6.38
2531.239	51.62
2534.923	-17.38
2538.605	-36.38
2542.283	18.62
2545.958	-1.38
2549.63	38.62
2553.299	45.62
2556.964	64.62
2560.626	108.62
2564.285	104.62
2567.941	89.62
2571.594	117.62
2575.243	142.62
2578.89	131.62
2582.533	125.62
2586.173	145.62
2589.809	145.62
2593.443	183.62
2597.073	177.62
2600.701	189.62
2604.325	206.62
2607.946	226.62
2611.564	184.62
2615.178	237.62
2618.79	260.62
2622.398	218.62
2626.004	253.62
2629.606	291.62
2633.205	272.62
2636.801	299.62
2640.394	288.62
2643.983	334.62
2647.57	313.62
2651.153	284.62
2654.734	349.62
2658.311	345.62
2661.885	351.62
2665.456	361.62
2669.025	376.62
2672.589	350.62
2676.151	347.62
2679.71	319.62
2683.266	302.62
2686.819	357.62
2690.368	323.62
2693.915	359.62
2697.458	360.62
2700.999	350.62
2704.536	316.62
2708.071	324.62
2711.602	265.62
2715.13	291.62
2718.656	307.62
2722.178	272.62
2725.697	270.62
2729.214	295.62
2732.727	255.62
2736.237	331.62
2739.744	276.62
2743.249	269.62
2746.75	275.62
2750.248	264.62
2753.743	201.62
2757.236	214.62
2760.725	189.62
2764.211	177.62
2767.695	173.62
2771.175	186.62
2774.652	202.62
2778.127	170.62
2781.598	134.62
2785.067	84.62
2788.532	121.62
2791.995	61.62
2795.455	58.62
2798.911	75.62
2802.365	48.62
2805.816	17.62
2809.264	21.62
2812.709	28.62
2816.151	-3.38
2819.59	-68.38
2823.026	-18.38
2826.46	-45.38
2829.89	-101.38
2833.318	-108.38
2836.742	-135.38
2840.164	-152.38
2843.583	-141.38
2846.999	-159.38
2850.412	-206.38
2853.822	-189.38
2857.229	-236.38
2860.634	-303.38
2864.035	-323.38
2867.434	-312.38
2870.83	-343.38
2874.223	-352.38
2877.613	-396.38
2881	-374.38
2884.385	-380.38
2887.766	-436.38
2891.145	-437.38
2894.521	-431.38
2897.894	-479.38
2901.264	-482.38
2904.631	-507.38
2907.996	-532.38
2911.358	-508.38
2914.717	-541.38
2918.073	-664.38
2921.426	-590.38
2924.777	-600.38
2928.124	-603.38
2931.469	-656.38
2934.811	-646.38
2938.15	-692.38
2941.487	-713.38
2944.821	-785.38
2948.152	-782.38
2951.48	-806.38
2954.805	-780.38
2958.128	-794.38
2961.447	-776.38
2964.765	-833.38
2968.079	-864.38
2971.39	-843.38
2974.699	-877.38
2978.005	-936.38
2981.308	-888.38
2984.609	-942.38
2987.907	-921.38
2991.202	-959.38
2994.494	-935.38
2997.784	-890.38
3001.07	-987.38
3004.355	-967.38
3007.636	-983.38
3010.915	-946.38
3014.191	-865.38
3017.464	-939.38
3020.734	-957.38
3024.002	-962.38
3027.267	-977.38
3030.53	-930.38
3033.789	-953.38
3037.046	-961.38
3040.301	-1011.38
3043.552	-1006.38
3046.801	-1007.38
3050.048	-966.38
3053.291	-1022.38
3056.532	-991.38
3059.771	-1016.38
3063.006	-1054.38
3066.239	-1058.38
3069.469	-1027.38
3072.697	-1039.38
3075.922	-1079.38
3079.144	-1063.38
3082.364	-1051.38
3085.581	-1095.38
3088.795	-1092.38
3092.007	-1082.38
3095.216	-1086.38
3098.423	-1100.38
3101.627	-1071.38
3104.828	-1064.38
3108.026	-1069.38
3111.222	-1061.38
3114.416	-1038.38
3117.607	-1056.38
3120.795	-1052.38
3123.98	-1037.38
3127.163	-1048.38
3130.344	-987.38
3133.521	-1000.38
3136.696	-1012.38
3139.869	-997.38
3143.039	-1046.38
3146.206	-993.38
3149.371	-985.38
3152.533	-958.38
3155.693	-947.38
3158.85	-923.38
3162.005	-900.38
3165.157	-888.38
3168.306	-883.38
3171.453	-842.38
3174.597	-803.38
3177.739	-819.38
3180.878	-803.38
3184.014	-781.38
3187.149	-770.38
3190.28	-754.38
3193.409	-720.38
3196.536	-742.38
3199.659	-699.38
3202.781	-699.38
3205.9	-719.38
3209.016	-683.38
3212.13	-700.38
3215.241	-657.38
3218.35	-663.38
3221.456	-665.38
3224.56	-644.38
3227.661	-607.38
3230.76	-600.38
3233.856	-606.38
3236.95	-587.38
3240.041	-545.38
3243.13	-551.38
3246.216	-564.38
3249.3	-502.38
3252.382	-499.38
3255.46	-521.38
3258.537	-481.38
3261.611	-484.38
3264.682	-463.38
3267.751	-430.38
3270.818	-427.38
3273.882	-406.38
3276.943	-418.38
3280.002	-399.38
3283.059	-392.38
3286.113	-374.38
3289.165	-323.38
3292.214	-328.38
3295.261	-317.38
3298.306	-260.38
3301.348	-262.38
3304.387	-272.38
3307.425	-243.38
3310.459	-279.38
3313.492	-238.38
3316.521	-230.38
3319.549	-222.38
3322.574	-237.38
3325.597	-219.38
3328.617	-152.38
3331.635	-190.38
3334.65	-157.38
3337.663	39.62
3340.674	88.62
3343.682	-128.38
3346.688	-125.38
3349.691	-144.38
3352.692	-110.38
3355.691	-127.38
3358.687	-121.38
3361.681	-99.38
3364.673	-89.38
3367.662	-93.38
3370.649	-82.38
3373.633	-73.38
3376.615	-55.38
3379.595	-99.38
3382.572	-44.38
3385.547	-90.38
3388.52	-80.38
3391.49	-54.38
3394.458	-56.38
3397.424	-24.38
3400.387	-13.38
3403.348	-35.38
3406.307	-40.38
3409.263	-39.38
3412.217	0.62
3415.168	-12.38
3418.118	-27.38
3421.065	-5.38
3424.009	-13.38
3426.951	5.62
3429.891	9.62
3432.829	9.62
3435.764	-13.38
3438.697	-14.38
3441.628	1.62
3444.557	12.62
3447.483	-7.38
3450.407	19.62
3453.328	11.62
3456.247	21.62
3459.164	-4.38
3462.079	-2.38
3464.991	-5.38
3467.902	-4.38
3470.809	4.62
3473.715	-7.38
3476.618	6.62
3479.519	8.62
3482.418	20.62
3485.315	3.62
3488.209	-7.38
3491.101	-9.38
3493.99	45.62
3496.878	-13.38
3499.763	5.62
3502.646	-17.38
3505.527	-15.38
3508.405	0.62
3511.281	-18.38
3514.155	-19.38
3517.027	-41.38
3519.897	8.62
3522.764	-8.38
3525.629	-18.38
3528.492	13.62
3531.352	-8.38
3534.211	-29.38
3537.067	-2.38
3539.921	-10.38
3542.773	-21.38
3545.622	-30.38
3548.469	-48.38
3551.315	-31.38
3554.157	-20.38
3556.998	-32.38
3559.837	-7.38
3562.673	-3.38
3565.507	-40.38
3568.339	-26.38
3571.169	-36.38
3573.996	-31.38
3576.822	-53.38
3579.645	-46.38
3582.466	-35.38
3585.285	-48.38
3588.101	-37.38
3590.916	-31.38
3593.728	-61.38
3596.538	-63.38
3599.346	-44.38
3602.152	-41.38
3604.956	-54.38
3607.757	-43.38
3610.556	-56.38
3613.354	-57.38
3616.149	-52.38
3618.942	-48.38
3621.732	-53.38
3624.521	-58.38
3627.307	-47.38
3630.092	-58.38
3632.874	-56.38
3635.654	-55.38
3638.432	-76.38
3641.208	-61.38
3643.982	-57.38
3646.753	-65.38
3649.523	-77.38
3652.29	-68.38
3655.055	-85.38
3657.818	-73.38
3660.579	-74.38
3663.338	-65.38
3666.095	-70.38
3668.849	-77.38
3671.602	-66.38
3674.352	-66.38
3677.101	-77.38
3679.847	-57.38
3682.591	-82.38
3685.333	-75.38
3688.073	-90.38
3690.811	-93.38
3693.547	-84.38
3696.281	-84.38
3699.013	-83.38
3701.742	-95.38
3704.47	-88.38
3707.195	-89.38
3709.919	-101.38
3712.64	-103.38
3715.359	-99.38
3718.076	-110.38
3720.792	-102.38
3723.505	-111.38
3726.216	-94.38
3728.925	-89.38
3731.632	-87.38
3734.336	-92.38
3737.039	-81.38
3739.74	-112.38
3742.439	-93.38
3745.136	-97.38
3747.83	-91.38
3750.523	-93.38
3753.213	-94.38
3755.902	-86.38
3758.589	-124.38
3761.273	-95.38
3763.956	-119.38
3766.636	-94.38
3769.315	-89.38
3771.991	-110.38
3774.665	-99.38
3777.338	-98.38
3780.008	-98.38
3782.677	-98.38
3785.343	-96.38
3788.007	-96.38
3790.67	-97.38
3793.33	-89.38
3795.989	-83.38
3798.645	-83.38
3801.299	-81.38
3803.952	-84.38
3806.602	-92.38
3809.251	-89.38
3811.897	-83.38
3814.542	-84.38
3817.184	-102.38
3819.825	-82.38
3822.463	-88.38
3825.1	-89.38
3827.735	-82.38
3830.367	-95.38
3832.998	-71.38
3835.627	-86.38
3838.253	-78.38
3840.878	-78.38
3843.501	-81.38
3846.122	-94.38
3848.741	-71.38
3851.358	-82.38
3853.973	-71.38
3856.586	-61.38
3859.197	-59.38
3861.806	-61.38
3864.414	-76.38
3867.019	-55.38
3869.622	-60.38
3872.224	-65.38
3874.823	-61.38
3877.421	-61.38
3880.016	-46.38
3882.61	-48.38
3885.202	-57.38
3887.792	-55.38
3890.38	-50.38
3892.966	-51.38
3895.55	-43.38
3898.132	-38.38
3900.713	-40.38
3903.291	-35.38
3905.868	-45.38
3908.442	-44.38
3911.015	-32.38
3913.586	-40.38
3916.155	-26.38
3918.722	-29.38
3921.287	-35.38
3923.85	-26.38
3926.411	-32.38
3928.971	-22.38
3931.528	-25.38
3934.084	-17.38
3936.638	-18.38
3939.19	-28.38
3941.74	-12.38
3944.288	-13.38
3946.834	-26.38
3949.378	-25.38
3951.921	-25.38
3954.462	-25.38
3957	-28.38
3959.537	-33.38
3962.072	-25.38
3964.606	-22.38
3967.137	-20.38
3969.667	-18.38
3972.194	-21.38
3974.72	-20.38
3977.244	-16.38
3979.766	-16.38
3982.286	-18.38
3984.805	-21.38
3987.321	-18.38
3989.836	-20.38
3992.349	-14.38
3994.86	-17.38
3997.369	-20.38
3999.877	-15.38
4002.382	-20.38
4004.886	-22.38
4007.388	-22.38
4009.888	-24.38
4012.386	-18.38
4014.883	-20.38
4017.377	-13.38
4019.87	-14.38
4022.361	-12.38
4024.85	-12.38
4027.338	-10.38
4029.823	-17.38
4032.307	-22.38
4034.789	-12.38
4037.269	-18.38
4039.747	-9.38
4042.224	-13.38
4044.699	-11.38
4047.172	-11.38
4049.643	-10.38
4052.112	-11.38
4054.58	-5.38
4057.046	-15.38
4059.51	-0.38
4061.972	-4.38
4064.432	-13.38
4066.891	-11.38
4069.348	-8.38
4071.803	-8.38
4074.256	-10.38
4076.708	-13.38
4079.158	-9.38
4081.606	-10.38
4084.052	-9.38
4086.497	-8.38
4088.939	-7.38
4091.38	-7.38
4093.819	-13.38
4096.257	-7.38
4098.693	-7.38
4101.127	-6.38
4103.559	-7.38
4105.989	-3.38
4108.418	3.62
4110.845	3.62
4113.27	3.62
4115.694	-7.38
4118.115	6.62
4120.535	-0.38
4122.954	-14.38
4125.37	-0.38
4127.785	-15.38
4130.198	-12.38
4132.609	-5.38
4135.019	-3.38
4137.427	-4.38
4139.833	-3.38
4142.237	-0.38
