Data from SERSd_Bac2_20uL_I=0.5_T=50s_RamanShift_5.txt Node
Date: Wed Jun 14 15:12:35 IDT 2017
User: aro
Spectrometer: QEPB0276
Trigger mode: 0
Integration Time (sec): 5.000000E1
Scans to average: 1
Electric dark correction enabled: true
Nonlinearity correction enabled: false
Boxcar width: 0
XAxis mode: Raman Shifts
Number of Pixels in Spectrum: 1044
>>>>>Begin Spectral Data<<<<<
160.701	0.38
166.742	-3.62
172.777	0.38
178.805	11.38
184.826	13.38
190.841	73.38
196.849	125.38
202.85	193.38
208.845	202.38
214.833	197.38
220.815	199.38
226.789	186.38
232.758	222.38
238.719	155.38
244.674	227.38
250.623	197.38
256.565	195.38
262.5	124.38
268.429	47.38
274.351	14.38
280.267	113.38
286.176	120.38
292.079	49.38
297.975	109.38
303.865	84.38
309.748	77.38
315.625	113.38
321.495	58.38
327.359	76.38
333.217	12.38
339.068	31.38
344.912	19.38
350.751	6.38
356.583	-24.62
362.408	-26.62
368.227	-33.62
374.04	-60.62
379.847	-69.62
385.647	-78.62
391.44	-140.62
397.228	-60.62
403.009	-125.62
408.784	-131.62
414.553	-129.62
420.315	-147.62
426.071	-123.62
431.821	-133.62
437.565	-163.62
443.302	-181.62
449.033	-153.62
454.758	-159.62
460.477	-212.62
466.189	-207.62
471.896	-223.62
477.596	-216.62
483.29	-216.62
488.978	-223.62
494.66	-210.62
500.335	-240.62
506.005	-242.62
511.668	-278.62
517.325	-304.62
522.977	-360.62
528.622	-410.62
534.261	-363.62
539.894	-369.62
545.521	-345.62
551.141	-380.62
556.756	-336.62
562.365	-344.62
567.968	-364.62
573.565	-310.62
579.155	-316.62
584.74	-339.62
590.319	-359.62
595.892	-329.62
601.459	-319.62
607.02	-310.62
612.575	-355.62
618.124	-368.62
623.667	-319.62
629.204	-345.62
634.735	-357.62
640.261	-370.62
645.781	-341.62
651.294	-326.62
656.802	-341.62
662.304	-325.62
667.8	-365.62
673.29	-307.62
678.775	-316.62
684.254	-340.62
689.726	-365.62
695.193	-321.62
700.655	-314.62
706.11	-323.62
711.56	-285.62
717.004	-295.62
722.442	-302.62
727.874	-315.62
733.301	-293.62
738.722	-260.62
744.137	-255.62
749.547	-289.62
754.951	-304.62
760.349	-243.62
765.741	-259.62
771.128	-252.62
776.509	-267.62
781.885	-250.62
787.254	-235.62
792.618	-242.62
797.977	-220.62
803.33	-225.62
808.677	-229.62
814.019	-202.62
819.355	-210.62
824.686	-199.62
830.011	-188.62
835.33	-174.62
840.644	-158.62
845.952	-182.62
851.255	-176.62
856.552	-156.62
861.844	-138.62
867.13	-147.62
872.41	-177.62
877.686	-148.62
882.955	-155.62
888.219	-148.62
893.478	-131.62
898.731	-133.62
903.979	-113.62
909.221	-110.62
914.458	-115.62
919.69	-105.62
924.916	-111.62
930.136	-110.62
935.351	-99.62
940.561	-87.62
945.766	-92.62
950.965	-44.62
956.158	-10.62
961.347	-68.62
966.529	-43.62
971.707	-66.62
976.879	-28.62
982.046	-55.62
987.208	-61.62
992.364	-59.62
997.515	-96.62
1002.66	-78.62
1007.801	-106.62
1012.936	-72.62
1018.066	-86.62
1023.19	-112.62
1028.309	-102.62
1033.423	-104.62
1038.532	-112.62
1043.636	-118.62
1048.734	-68.62
1053.827	-70.62
1058.915	-90.62
1063.998	-95.62
1069.075	-95.62
1074.147	-111.62
1079.214	-142.62
1084.276	-111.62
1089.333	-119.62
1094.385	-109.62
1099.431	-144.62
1104.472	-127.62
1109.509	-134.62
1114.54	-135.62
1119.565	-152.62
1124.586	-141.62
1129.602	-140.62
1134.613	-153.62
1139.618	-167.62
1144.619	-168.62
1149.614	-197.62
1154.604	-176.62
1159.589	-191.62
1164.57	-170.62
1169.545	-199.62
1174.515	-182.62
1179.48	-190.62
1184.44	-208.62
1189.395	-223.62
1194.345	-212.62
1199.29	-203.62
1204.23	-212.62
1209.165	-243.62
1214.095	-258.62
1219.021	-242.62
1223.941	-257.62
1228.856	-267.62
1233.766	-284.62
1238.672	-299.62
1243.572	-305.62
1248.467	-307.62
1253.358	-309.62
1258.244	-313.62
1263.124	-305.62
1268	-313.62
1272.871	-289.62
1277.737	-322.62
1282.599	-314.62
1287.455	-334.62
1292.306	-338.62
1297.153	-336.62
1301.995	-363.62
1306.832	-338.62
1311.664	-366.62
1316.491	-390.62
1321.314	-380.62
1326.132	-385.62
1330.945	-379.62
1335.753	-387.62
1340.556	-390.62
1345.354	-407.62
1350.148	-409.62
1354.937	-433.62
1359.722	-395.62
1364.501	-410.62
1369.276	-406.62
1374.046	-389.62
1378.811	-409.62
1383.572	-392.62
1388.327	-389.62
1393.079	-379.62
1397.825	-414.62
1402.567	-407.62
1407.304	-409.62
1412.036	-393.62
1416.764	-437.62
1421.487	-435.62
1426.205	-453.62
1430.919	-434.62
1435.628	-470.62
1440.333	-499.62
1445.032	-447.62
1449.727	-466.62
1454.418	-480.62
1459.104	-493.62
1463.785	-478.62
1468.462	-503.62
1473.134	-485.62
1477.802	-499.62
1482.465	-488.62
1487.123	-473.62
1491.777	-493.62
1496.426	-505.62
1501.071	-503.62
1505.711	-515.62
1510.347	-505.62
1514.978	-507.62
1519.604	-511.62
1524.226	-495.62
1528.844	-474.62
1533.457	-476.62
1538.065	-457.62
1542.669	-471.62
1547.269	-471.62
1551.864	-435.62
1556.454	-440.62
1561.041	-456.62
1565.622	-450.62
1570.199	-431.62
1574.772	-432.62
1579.34	-456.62
1583.904	-452.62
1588.464	-454.62
1593.019	-443.62
1597.569	-446.62
1602.115	-426.62
1606.657	-419.62
1611.195	-435.62
1615.728	-436.62
1620.256	-432.62
1624.78	-405.62
1629.3	-436.62
1633.816	-415.62
1638.327	-402.62
1642.834	-404.62
1647.336	-412.62
1651.834	-431.62
1656.328	-445.62
1660.817	-421.62
1665.302	-433.62
1669.783	-450.62
1674.259	-433.62
1678.732	-438.62
1683.199	-429.62
1687.663	-413.62
1692.122	-426.62
1696.577	-412.62
1701.028	-399.62
1705.474	-395.62
1709.917	-378.62
1714.355	-381.62
1718.788	-382.62
1723.218	-332.62
1727.643	-358.62
1732.064	-328.62
1736.481	-365.62
1740.893	-351.62
1745.301	-331.62
1749.705	-351.62
1754.105	-288.62
1758.501	-305.62
1762.893	-308.62
1767.28	-317.62
1771.663	-318.62
1776.042	-311.62
1780.417	-313.62
1784.787	-323.62
1789.154	-318.62
1793.516	-327.62
1797.874	-309.62
1802.228	-301.62
1806.578	-296.62
1810.924	-247.62
1815.266	-277.62
1819.603	-268.62
1823.937	-263.62
1828.266	-252.62
1832.591	-242.62
1836.913	-267.62
1841.23	-233.62
1845.543	-238.62
1849.852	-248.62
1854.156	-280.62
1858.457	-272.62
1862.754	-272.62
1867.047	-256.62
1871.335	-295.62
1875.62	-252.62
1879.9	-270.62
1884.177	-261.62
1888.449	-242.62
1892.718	-277.62
1896.982	-274.62
1901.243	-269.62
1905.499	-270.62
1909.752	-278.62
1914	-262.62
1918.245	-266.62
1922.485	-255.62
1926.722	-296.62
1930.954	-296.62
1935.183	-271.62
1939.408	-293.62
1943.628	-282.62
1947.845	-261.62
1952.058	-286.62
1956.267	-305.62
1960.472	-244.62
1964.673	-271.62
1968.87	-265.62
1973.063	-261.62
1977.252	-280.62
1981.438	-272.62
1985.619	-278.62
1989.797	-273.62
1993.971	-260.62
1998.14	-292.62
2002.306	-288.62
2006.469	-294.62
2010.627	-289.62
2014.781	-294.62
2018.932	-290.62
2023.078	-323.62
2027.221	-309.62
2031.36	-288.62
2035.495	-308.62
2039.627	-305.62
2043.754	-333.62
2047.878	-315.62
2051.998	-349.62
2056.114	-348.62
2060.226	-365.62
2064.334	-370.62
2068.439	-351.62
2072.54	-365.62
2076.637	-407.62
2080.73	-396.62
2084.82	-391.62
2088.906	-398.62
2092.988	-425.62
2097.066	-425.62
2101.14	-420.62
2105.211	-433.62
2109.278	-426.62
2113.342	-407.62
2117.401	-450.62
2121.457	-406.62
2125.509	-423.62
2129.558	-396.62
2133.602	-473.62
2137.643	-454.62
2141.681	-482.62
2145.714	-455.62
2149.744	-464.62
2153.77	-513.62
2157.793	-490.62
2161.812	-507.62
2165.827	-501.62
2169.838	-498.62
2173.846	-526.62
2177.851	-502.62
2181.851	-512.62
2185.848	-541.62
2189.841	-511.62
2193.831	-522.62
2197.817	-548.62
2201.799	-541.62
2205.778	-523.62
2209.753	-551.62
2213.725	-576.62
2217.693	-579.62
2221.657	-568.62
2225.618	-617.62
2229.575	-595.62
2233.529	-642.62
2237.479	-615.62
2241.425	-611.62
2245.368	-610.62
2249.307	-626.62
2253.243	-642.62
2257.175	-621.62
2261.104	-624.62
2265.029	-642.62
2268.95	-633.62
2272.868	-621.62
2276.783	-666.62
2280.694	-655.62
2284.601	-610.62
2288.505	-597.62
2292.405	-614.62
2296.302	-632.62
2300.195	-617.62
2304.085	-642.62
2307.971	-626.62
2311.854	-604.62
2315.734	-629.62
2319.609	-613.62
2323.482	-610.62
2327.351	-617.62
2331.216	-598.62
2335.078	-600.62
2338.937	-603.62
2342.792	-622.62
2346.643	-621.62
2350.492	-597.62
2354.336	-620.62
2358.178	-640.62
2362.015	-620.62
2365.85	-645.62
2369.681	-638.62
2373.508	-611.62
2377.333	-659.62
2381.153	-640.62
2384.971	-640.62
2388.785	-625.62
2392.595	-638.62
2396.402	-638.62
2400.206	-602.62
2404.007	-652.62
2407.804	-639.62
2411.597	-626.62
2415.388	-635.62
2419.174	-612.62
2422.958	-598.62
2426.738	-631.62
2430.515	-578.62
2434.289	-557.62
2438.059	-619.62
2441.825	-624.62
2445.589	-601.62
2449.349	-552.62
2453.106	-575.62
2456.859	-564.62
2460.61	-524.62
2464.356	-542.62
2468.1	-565.62
2471.84	-550.62
2475.577	-495.62
2479.311	-539.62
2483.041	-485.62
2486.768	-519.62
2490.492	-499.62
2494.213	-513.62
2497.93	-491.62
2501.644	-462.62
2505.355	-451.62
2509.062	-496.62
2512.766	-490.62
2516.467	-429.62
2520.165	-462.62
2523.859	-464.62
2527.551	-418.62
2531.239	-391.62
2534.923	-393.62
2538.605	-417.62
2542.283	-428.62
2545.958	-367.62
2549.63	-346.62
2553.299	-381.62
2556.964	-381.62
2560.626	-319.62
2564.285	-345.62
2567.941	-348.62
2571.594	-273.62
2575.243	-282.62
2578.89	-268.62
2582.533	-296.62
2586.173	-266.62
2589.809	-244.62
2593.443	-229.62
2597.073	-188.62
2600.701	-221.62
2604.325	-192.62
2607.946	-154.62
2611.564	-202.62
2615.178	-161.62
2618.79	-112.62
2622.398	-118.62
2626.004	-134.62
2629.606	-138.62
2633.205	-125.62
2636.801	-121.62
2640.394	-84.62
2643.983	-69.62
2647.57	-56.62
2651.153	-76.62
2654.734	-68.62
2658.311	-34.62
2661.885	-37.62
2665.456	-23.62
2669.025	-41.62
2672.589	-22.62
2676.151	-23.62
2679.71	3.38
2683.266	31.38
2686.819	-21.62
2690.368	13.38
2693.915	13.38
2697.458	21.38
2700.999	39.38
2704.536	3.38
2708.071	4.38
2711.602	3.38
2715.13	-5.62
2718.656	23.38
2722.178	8.38
2725.697	2.38
2729.214	-20.62
2732.727	-40.62
2736.237	79.38
2739.744	26.38
2743.249	23.38
2746.75	35.38
2750.248	29.38
2753.743	32.38
2757.236	3.38
2760.725	-39.62
2764.211	-14.62
2767.695	15.38
2771.175	-10.62
2774.652	-8.62
2778.127	-26.62
2781.598	-24.62
2785.067	-30.62
2788.532	-34.62
2791.995	-61.62
2795.455	-41.62
2798.911	-44.62
2802.365	-100.62
2805.816	-80.62
2809.264	-77.62
2812.709	-76.62
2816.151	-110.62
2819.59	-153.62
2823.026	-106.62
2826.46	-133.62
2829.89	-141.62
2833.318	-142.62
2836.742	-195.62
2840.164	-144.62
2843.583	-134.62
2846.999	-136.62
2850.412	-210.62
2853.822	-201.62
2857.229	-200.62
2860.634	-220.62
2864.035	-265.62
2867.434	-276.62
2870.83	-274.62
2874.223	-299.62
2877.613	-314.62
2881	-314.62
2884.385	-280.62
2887.766	-351.62
2891.145	-286.62
2894.521	-352.62
2897.894	-395.62
2901.264	-341.62
2904.631	-410.62
2907.996	-410.62
2911.358	-391.62
2914.717	-384.62
2918.073	-506.62
2921.426	-458.62
2924.777	-468.62
2928.124	-440.62
2931.469	-490.62
2934.811	-499.62
2938.15	-556.62
2941.487	-497.62
2944.821	-593.62
2948.152	-569.62
2951.48	-596.62
2954.805	-562.62
2958.128	-596.62
2961.447	-606.62
2964.765	-589.62
2968.079	-656.62
2971.39	-654.62
2974.699	-643.62
2978.005	-699.62
2981.308	-668.62
2984.609	-701.62
2987.907	-682.62
2991.202	-729.62
2994.494	-726.62
2997.784	-701.62
3001.07	-759.62
3004.355	-727.62
3007.636	-736.62
3010.915	-708.62
3014.191	-701.62
3017.464	-745.62
3020.734	-736.62
3024.002	-742.62
3027.267	-760.62
3030.53	-765.62
3033.789	-750.62
3037.046	-749.62
3040.301	-794.62
3043.552	-814.62
3046.801	-823.62
3050.048	-769.62
3053.291	-802.62
3056.532	-793.62
3059.771	-798.62
3063.006	-839.62
3066.239	-823.62
3069.469	-857.62
3072.697	-870.62
3075.922	-919.62
3079.144	-865.62
3082.364	-895.62
3085.581	-912.62
3088.795	-906.62
3092.007	-900.62
3095.216	-903.62
3098.423	-902.62
3101.627	-893.62
3104.828	-923.62
3108.026	-904.62
3111.222	-926.62
3114.416	-929.62
3117.607	-904.62
3120.795	-887.62
3123.98	-926.62
3127.163	-966.62
3130.344	-918.62
3133.521	-888.62
3136.696	-910.62
3139.869	-852.62
3143.039	-895.62
3146.206	-915.62
3149.371	-919.62
3152.533	-872.62
3155.693	-859.62
3158.85	-866.62
3162.005	-850.62
3165.157	-832.62
3168.306	-800.62
3171.453	-778.62
3174.597	-788.62
3177.739	-763.62
3180.878	-768.62
3184.014	-762.62
3187.149	-727.62
3190.28	-722.62
3193.409	-720.62
3196.536	-705.62
3199.659	-675.62
3202.781	-692.62
3205.9	-698.62
3209.016	-690.62
3212.13	-679.62
3215.241	-680.62
3218.35	-672.62
3221.456	-642.62
3224.56	-672.62
3227.661	-630.62
3230.76	-645.62
3233.856	-608.62
3236.95	-627.62
3240.041	-589.62
3243.13	-589.62
3246.216	-601.62
3249.3	-561.62
3252.382	-568.62
3255.46	-566.62
3258.537	-550.62
3261.611	-533.62
3264.682	-529.62
3267.751	-503.62
3270.818	-518.62
3273.882	-487.62
3276.943	-487.62
3280.002	-485.62
3283.059	-453.62
3286.113	-438.62
3289.165	-390.62
3292.214	-414.62
3295.261	-398.62
3298.306	-392.62
3301.348	-388.62
3304.387	-369.62
3307.425	-348.62
3310.459	-381.62
3313.492	-324.62
3316.521	-290.62
3319.549	-326.62
3322.574	-327.62
3325.597	-304.62
3328.617	-246.62
3331.635	-283.62
3334.65	-279.62
3337.663	-241.62
3340.674	-252.62
3343.682	-252.62
3346.688	-248.62
3349.691	-241.62
3352.692	-230.62
3355.691	-230.62
3358.687	-242.62
3361.681	-235.62
3364.673	-200.62
3367.662	-207.62
3370.649	-202.62
3373.633	-174.62
3376.615	-170.62
3379.595	-169.62
3382.572	-144.62
3385.547	-161.62
3388.52	-147.62
3391.49	-143.62
3394.458	-128.62
3397.424	-127.62
3400.387	-92.62
3403.348	-120.62
3406.307	-123.62
3409.263	-120.62
3412.217	-91.62
3415.168	-91.62
3418.118	-105.62
3421.065	-89.62
3424.009	-99.62
3426.951	-68.62
3429.891	-99.62
3432.829	-49.62
3435.764	-50.62
3438.697	-64.62
3441.628	-42.62
3444.557	-68.62
3447.483	-60.62
3450.407	-20.62
3453.328	-31.62
3456.247	-45.62
3459.164	-38.62
3462.079	-24.62
3464.991	-32.62
3467.902	-35.62
3470.809	-24.62
3473.715	-20.62
3476.618	-13.62
3479.519	-16.62
3482.418	5.38
3485.315	-33.62
3488.209	-1.62
3491.101	-28.62
3493.99	-4.62
3496.878	-11.62
3499.763	-18.62
3502.646	-14.62
3505.527	1.38
3508.405	-9.62
3511.281	-9.62
3514.155	-25.62
3517.027	3.38
3519.897	16.38
3522.764	12.38
3525.629	-24.62
3528.492	41.38
3531.352	19.38
3534.211	-6.62
3537.067	5.38
3539.921	9.38
3542.773	11.38
3545.622	4.38
3548.469	-17.62
3551.315	-4.62
3554.157	10.38
3556.998	2.38
3559.837	13.38
3562.673	12.38
3565.507	1.38
3568.339	7.38
3571.169	-23.62
3573.996	5.38
3576.822	7.38
3579.645	6.38
3582.466	11.38
3585.285	19.38
3588.101	2.38
3590.916	21.38
3593.728	-15.62
3596.538	-1.62
3599.346	5.38
3602.152	16.38
3604.956	5.38
3607.757	9.38
3610.556	1.38
3613.354	-3.62
3616.149	7.38
3618.942	-0.62
3621.732	-8.62
3624.521	5.38
3627.307	4.38
3630.092	0.38
3632.874	-19.62
3635.654	-12.62
3638.432	-17.62
3641.208	-3.62
3643.982	5.38
3646.753	-6.62
3649.523	-14.62
3652.29	-16.62
3655.055	-21.62
3657.818	3.38
3660.579	-22.62
3663.338	15.38
3666.095	-17.62
3668.849	-13.62
3671.602	-15.62
3674.352	-16.62
3677.101	-28.62
3679.847	-5.62
3682.591	-23.62
3685.333	-10.62
3688.073	-36.62
3690.811	-19.62
3693.547	-16.62
3696.281	-25.62
3699.013	-23.62
3701.742	-18.62
3704.47	-25.62
3707.195	-34.62
3709.919	-25.62
3712.64	-34.62
3715.359	-46.62
3718.076	-28.62
3720.792	-43.62
3723.505	-38.62
3726.216	-32.62
3728.925	-28.62
3731.632	-26.62
3734.336	-31.62
3737.039	-30.62
3739.74	-57.62
3742.439	-36.62
3745.136	-40.62
3747.83	-34.62
3750.523	-31.62
3753.213	-58.62
3755.902	-39.62
3758.589	-56.62
3761.273	-46.62
3763.956	-42.62
3766.636	-43.62
3769.315	-39.62
3771.991	-51.62
3774.665	-30.62
3777.338	-52.62
3780.008	-45.62
3782.677	-59.62
3785.343	-37.62
3788.007	-55.62
3790.67	-39.62
3793.33	-44.62
3795.989	-36.62
3798.645	-58.62
3801.299	-38.62
3803.952	-41.62
3806.602	-55.62
3809.251	-38.62
3811.897	-49.62
3814.542	-50.62
3817.184	-54.62
3819.825	-49.62
3822.463	-57.62
3825.1	-56.62
3827.735	-55.62
3830.367	-45.62
3832.998	-45.62
3835.627	-46.62
3838.253	-55.62
3840.878	-55.62
3843.501	-52.62
3846.122	-52.62
3848.741	-52.62
3851.358	-42.62
3853.973	-45.62
3856.586	-43.62
3859.197	-32.62
3861.806	-46.62
3864.414	-55.62
3867.019	-48.62
3869.622	-35.62
3872.224	-45.62
3874.823	-45.62
3877.421	-40.62
3880.016	-32.62
3882.61	-31.62
3885.202	-40.62
3887.792	-30.62
3890.38	-40.62
3892.966	-42.62
3895.55	-26.62
3898.132	-31.62
3900.713	-43.62
3903.291	-28.62
3905.868	-32.62
3908.442	-35.62
3911.015	-31.62
3913.586	-41.62
3916.155	-25.62
3918.722	-30.62
3921.287	-20.62
3923.85	-25.62
3926.411	-24.62
3928.971	-15.62
3931.528	-17.62
3934.084	-7.62
3936.638	-23.62
3939.19	-27.62
3941.74	-2.62
3944.288	-17.62
3946.834	-18.62
3949.378	-22.62
3951.921	-22.62
3954.462	-23.62
3957	-15.62
3959.537	-25.62
3962.072	-15.62
3964.606	-19.62
3967.137	-16.62
3969.667	-22.62
3972.194	-25.62
3974.72	-16.62
3977.244	-14.62
3979.766	-17.62
3982.286	-16.62
3984.805	-12.62
3987.321	-21.62
3989.836	-16.62
3992.349	-10.62
3994.86	-14.62
3997.369	-14.62
3999.877	-7.62
4002.382	-18.62
4004.886	-11.62
4007.388	-15.62
4009.888	-23.62
4012.386	-8.62
4014.883	-12.62
4017.377	-9.62
4019.87	-14.62
4022.361	-18.62
4024.85	-9.62
4027.338	-16.62
4029.823	-15.62
4032.307	-24.62
4034.789	-6.62
4037.269	-11.62
4039.747	-0.62
4042.224	-9.62
4044.699	-14.62
4047.172	-10.62
4049.643	-9.62
4052.112	-12.62
4054.58	-7.62
4057.046	-10.62
4059.51	-3.62
4061.972	-12.62
4064.432	-11.62
4066.891	-8.62
4069.348	-12.62
4071.803	-7.62
4074.256	-12.62
4076.708	-7.62
4079.158	-11.62
4081.606	-8.62
4084.052	-6.62
4086.497	-14.62
4088.939	-6.62
4091.38	-5.62
4093.819	-12.62
4096.257	-9.62
4098.693	-4.62
4101.127	-3.62
4103.559	1.38
4105.989	2.38
4108.418	-1.62
4110.845	5.38
4113.27	0.38
4115.694	-2.62
4118.115	0.38
4120.535	-4.62
4122.954	-7.62
4125.37	-1.62
4127.785	-9.62
4130.198	-10.62
4132.609	-3.62
4135.019	-3.62
4137.427	-3.62
4139.833	-1.62
4142.237	0.38
