Data from SERSd_Bac2_20uL_I=0.5_T=50s_RamanShift_4.txt Node
Date: Wed Jun 14 15:11:45 IDT 2017
User: aro
Spectrometer: QEPB0276
Trigger mode: 0
Integration Time (sec): 5.000000E1
Scans to average: 1
Electric dark correction enabled: true
Nonlinearity correction enabled: false
Boxcar width: 0
XAxis mode: Raman Shifts
Number of Pixels in Spectrum: 1044
>>>>>Begin Spectral Data<<<<<
160.701	-2.88
166.742	1.12
172.777	6.12
178.805	6.12
184.826	30.12
190.841	91.12
196.849	183.12
202.85	188.12
208.845	208.12
214.833	191.12
220.815	164.12
226.789	212.12
232.758	230.12
238.719	206.12
244.674	260.12
250.623	196.12
256.565	175.12
262.5	141.12
268.429	83.12
274.351	62.12
280.267	140.12
286.176	144.12
292.079	99.12
297.975	101.12
303.865	90.12
309.748	81.12
315.625	96.12
321.495	86.12
327.359	53.12
333.217	50.12
339.068	18.12
344.912	18.12
350.751	-1.88
356.583	6.12
362.408	2.12
368.227	-37.88
374.04	-33.88
379.847	-64.88
385.647	-53.88
391.44	-89.88
397.228	-91.88
403.009	-81.88
408.784	-107.88
414.553	-126.88
420.315	-101.88
426.071	-136.88
431.821	-147.88
437.565	-152.88
443.302	-156.88
449.033	-174.88
454.758	-162.88
460.477	-184.88
466.189	-208.88
471.896	-223.88
477.596	-205.88
483.29	-195.88
488.978	-249.88
494.66	-218.88
500.335	-206.88
506.005	-228.88
511.668	-254.88
517.325	-288.88
522.977	-330.88
528.622	-385.88
534.261	-382.88
539.894	-379.88
545.521	-332.88
551.141	-354.88
556.756	-325.88
562.365	-327.88
567.968	-332.88
573.565	-324.88
579.155	-328.88
584.74	-329.88
590.319	-330.88
595.892	-323.88
601.459	-303.88
607.02	-325.88
612.575	-318.88
618.124	-325.88
623.667	-324.88
629.204	-329.88
634.735	-351.88
640.261	-372.88
645.781	-319.88
651.294	-317.88
656.802	-311.88
662.304	-348.88
667.8	-335.88
673.29	-304.88
678.775	-323.88
684.254	-293.88
689.726	-331.88
695.193	-288.88
700.655	-307.88
706.11	-313.88
711.56	-299.88
717.004	-277.88
722.442	-281.88
727.874	-300.88
733.301	-274.88
738.722	-269.88
744.137	-230.88
749.547	-241.88
754.951	-269.88
760.349	-224.88
765.741	-250.88
771.128	-220.88
776.509	-242.88
781.885	-236.88
787.254	-220.88
792.618	-235.88
797.977	-216.88
803.33	-230.88
808.677	-235.88
814.019	-185.88
819.355	-187.88
824.686	-196.88
830.011	-173.88
835.33	-133.88
840.644	-143.88
845.952	-132.88
851.255	-137.88
856.552	-144.88
861.844	-148.88
867.13	-152.88
872.41	-161.88
877.686	-120.88
882.955	-143.88
888.219	-117.88
893.478	-123.88
898.731	-98.88
903.979	-99.88
909.221	-105.88
914.458	-96.88
919.69	-98.88
924.916	-114.88
930.136	-112.88
935.351	-81.88
940.561	-52.88
945.766	-64.88
950.965	-27.88
956.158	-42.88
961.347	-63.88
966.529	-47.88
971.707	-57.88
976.879	-51.88
982.046	-57.88
987.208	-46.88
992.364	-38.88
997.515	-83.88
1002.66	-76.88
1007.801	-75.88
1012.936	-77.88
1018.066	-63.88
1023.19	-101.88
1028.309	-91.88
1033.423	-77.88
1038.532	-78.88
1043.636	-85.88
1048.734	-66.88
1053.827	-65.88
1058.915	-105.88
1063.998	-83.88
1069.075	-79.88
1074.147	-90.88
1079.214	-114.88
1084.276	-105.88
1089.333	-106.88
1094.385	-94.88
1099.431	-112.88
1104.472	-107.88
1109.509	-121.88
1114.54	-132.88
1119.565	-125.88
1124.586	-120.88
1129.602	-152.88
1134.613	-135.88
1139.618	-119.88
1144.619	-160.88
1149.614	-174.88
1154.604	-192.88
1159.589	-168.88
1164.57	-151.88
1169.545	-184.88
1174.515	-182.88
1179.48	-188.88
1184.44	-207.88
1189.395	-202.88
1194.345	-207.88
1199.29	-186.88
1204.23	-218.88
1209.165	-212.88
1214.095	-218.88
1219.021	-244.88
1223.941	-240.88
1228.856	-264.88
1233.766	-263.88
1238.672	-274.88
1243.572	-305.88
1248.467	-285.88
1253.358	-280.88
1258.244	-314.88
1263.124	-304.88
1268	-326.88
1272.871	-278.88
1277.737	-309.88
1282.599	-302.88
1287.455	-327.88
1292.306	-327.88
1297.153	-330.88
1301.995	-343.88
1306.832	-355.88
1311.664	-333.88
1316.491	-364.88
1321.314	-343.88
1326.132	-376.88
1330.945	-366.88
1335.753	-382.88
1340.556	-383.88
1345.354	-388.88
1350.148	-417.88
1354.937	-406.88
1359.722	-397.88
1364.501	-403.88
1369.276	-412.88
1374.046	-373.88
1378.811	-386.88
1383.572	-388.88
1388.327	-397.88
1393.079	-372.88
1397.825	-399.88
1402.567	-399.88
1407.304	-391.88
1412.036	-387.88
1416.764	-427.88
1421.487	-419.88
1426.205	-422.88
1430.919	-420.88
1435.628	-458.88
1440.333	-474.88
1445.032	-441.88
1449.727	-451.88
1454.418	-481.88
1459.104	-462.88
1463.785	-476.88
1468.462	-505.88
1473.134	-473.88
1477.802	-481.88
1482.465	-480.88
1487.123	-486.88
1491.777	-494.88
1496.426	-502.88
1501.071	-470.88
1505.711	-506.88
1510.347	-525.88
1514.978	-506.88
1519.604	-495.88
1524.226	-483.88
1528.844	-455.88
1533.457	-466.88
1538.065	-448.88
1542.669	-458.88
1547.269	-433.88
1551.864	-419.88
1556.454	-425.88
1561.041	-456.88
1565.622	-432.88
1570.199	-451.88
1574.772	-429.88
1579.34	-462.88
1583.904	-449.88
1588.464	-440.88
1593.019	-437.88
1597.569	-430.88
1602.115	-425.88
1606.657	-416.88
1611.195	-419.88
1615.728	-402.88
1620.256	-413.88
1624.78	-400.88
1629.3	-414.88
1633.816	-396.88
1638.327	-372.88
1642.834	-411.88
1647.336	-385.88
1651.834	-407.88
1656.328	-413.88
1660.817	-427.88
1665.302	-411.88
1669.783	-431.88
1674.259	-433.88
1678.732	-423.88
1683.199	-406.88
1687.663	-397.88
1692.122	-421.88
1696.577	-429.88
1701.028	-386.88
1705.474	-385.88
1709.917	-362.88
1714.355	-353.88
1718.788	-352.88
1723.218	-345.88
1727.643	-362.88
1732.064	-341.88
1736.481	-335.88
1740.893	-323.88
1745.301	-309.88
1749.705	-344.88
1754.105	-305.88
1758.501	-324.88
1762.893	-306.88
1767.28	-286.88
1771.663	-305.88
1776.042	-292.88
1780.417	-313.88
1784.787	-320.88
1789.154	-283.88
1793.516	-318.88
1797.874	-307.88
1802.228	-330.88
1806.578	-297.88
1810.924	-259.88
1815.266	-268.88
1819.603	-268.88
1823.937	-265.88
1828.266	-245.88
1832.591	-260.88
1836.913	-244.88
1841.23	-222.88
1845.543	-246.88
1849.852	-266.88
1854.156	-265.88
1858.457	-246.88
1862.754	-261.88
1867.047	-256.88
1871.335	-261.88
1875.62	-235.88
1879.9	-267.88
1884.177	-251.88
1888.449	-242.88
1892.718	-277.88
1896.982	-255.88
1901.243	-265.88
1905.499	-284.88
1909.752	-268.88
1914	-270.88
1918.245	-255.88
1922.485	-279.88
1926.722	-290.88
1930.954	-286.88
1935.183	-274.88
1939.408	-275.88
1943.628	-287.88
1947.845	-251.88
1952.058	-276.88
1956.267	-296.88
1960.472	-281.88
1964.673	-267.88
1968.87	-268.88
1973.063	-267.88
1977.252	-283.88
1981.438	-265.88
1985.619	-297.88
1989.797	-290.88
1993.971	-267.88
1998.14	-282.88
2002.306	-271.88
2006.469	-297.88
2010.627	-283.88
2014.781	-285.88
2018.932	-299.88
2023.078	-323.88
2027.221	-316.88
2031.36	-298.88
2035.495	-318.88
2039.627	-295.88
2043.754	-335.88
2047.878	-325.88
2051.998	-354.88
2056.114	-343.88
2060.226	-351.88
2064.334	-357.88
2068.439	-349.88
2072.54	-377.88
2076.637	-394.88
2080.73	-398.88
2084.82	-401.88
2088.906	-403.88
2092.988	-410.88
2097.066	-435.88
2101.14	-443.88
2105.211	-427.88
2109.278	-414.88
2113.342	-399.88
2117.401	-437.88
2121.457	-425.88
2125.509	-414.88
2129.558	-395.88
2133.602	-457.88
2137.643	-455.88
2141.681	-449.88
2145.714	-455.88
2149.744	-460.88
2153.77	-491.88
2157.793	-444.88
2161.812	-506.88
2165.827	-496.88
2169.838	-498.88
2173.846	-494.88
2177.851	-503.88
2181.851	-523.88
2185.848	-499.88
2189.841	-509.88
2193.831	-548.88
2197.817	-576.88
2201.799	-540.88
2205.778	-526.88
2209.753	-551.88
2213.725	-576.88
2217.693	-560.88
2221.657	-599.88
2225.618	-628.88
2229.575	-604.88
2233.529	-629.88
2237.479	-606.88
2241.425	-630.88
2245.368	-586.88
2249.307	-603.88
2253.243	-608.88
2257.175	-609.88
2261.104	-618.88
2265.029	-650.88
2268.95	-608.88
2272.868	-622.88
2276.783	-647.88
2280.694	-654.88
2284.601	-630.88
2288.505	-616.88
2292.405	-617.88
2296.302	-615.88
2300.195	-624.88
2304.085	-621.88
2307.971	-632.88
2311.854	-617.88
2315.734	-628.88
2319.609	-607.88
2323.482	-593.88
2327.351	-599.88
2331.216	-595.88
2335.078	-589.88
2338.937	-591.88
2342.792	-620.88
2346.643	-604.88
2350.492	-585.88
2354.336	-620.88
2358.178	-636.88
2362.015	-634.88
2365.85	-653.88
2369.681	-653.88
2373.508	-642.88
2377.333	-626.88
2381.153	-638.88
2384.971	-625.88
2388.785	-637.88
2392.595	-614.88
2396.402	-632.88
2400.206	-605.88
2404.007	-657.88
2407.804	-632.88
2411.597	-599.88
2415.388	-641.88
2419.174	-602.88
2422.958	-624.88
2426.738	-601.88
2430.515	-599.88
2434.289	-570.88
2438.059	-597.88
2441.825	-620.88
2445.589	-609.88
2449.349	-542.88
2453.106	-522.88
2456.859	-557.88
2460.61	-521.88
2464.356	-531.88
2468.1	-538.88
2471.84	-555.88
2475.577	-505.88
2479.311	-531.88
2483.041	-501.88
2486.768	-520.88
2490.492	-498.88
2494.213	-489.88
2497.93	-493.88
2501.644	-459.88
2505.355	-454.88
2509.062	-492.88
2512.766	-499.88
2516.467	-447.88
2520.165	-467.88
2523.859	-440.88
2527.551	-417.88
2531.239	-378.88
2534.923	-390.88
2538.605	-443.88
2542.283	-422.88
2545.958	-383.88
2549.63	-355.88
2553.299	-385.88
2556.964	-388.88
2560.626	-330.88
2564.285	-346.88
2567.941	-372.88
2571.594	-301.88
2575.243	-300.88
2578.89	-292.88
2582.533	-259.88
2586.173	-238.88
2589.809	-251.88
2593.443	-243.88
2597.073	-208.88
2600.701	-195.88
2604.325	-170.88
2607.946	-163.88
2611.564	-206.88
2615.178	-174.88
2618.79	-165.88
2622.398	-114.88
2626.004	-142.88
2629.606	-140.88
2633.205	-135.88
2636.801	-103.88
2640.394	-71.88
2643.983	-40.88
2647.57	-89.88
2651.153	-35.88
2654.734	-23.88
2658.311	-9.88
2661.885	-21.88
2665.456	-5.88
2669.025	-30.88
2672.589	-7.88
2676.151	-20.88
2679.71	-1.88
2683.266	-8.88
2686.819	23.12
2690.368	-19.88
2693.915	35.12
2697.458	-6.88
2700.999	13.12
2704.536	18.12
2708.071	17.12
2711.602	3.12
2715.13	42.12
2718.656	0.12
2722.178	14.12
2725.697	2.12
2729.214	14.12
2732.727	-15.88
2736.237	84.12
2739.744	10.12
2743.249	1.12
2746.75	69.12
2750.248	49.12
2753.743	8.12
2757.236	3.12
2760.725	-25.88
2764.211	12.12
2767.695	-10.88
2771.175	-28.88
2774.652	-24.88
2778.127	-28.88
2781.598	7.12
2785.067	-19.88
2788.532	-48.88
2791.995	-58.88
2795.455	-11.88
2798.911	-53.88
2802.365	-74.88
2805.816	-49.88
2809.264	-90.88
2812.709	-85.88
2816.151	-99.88
2819.59	-126.88
2823.026	-102.88
2826.46	-123.88
2829.89	-147.88
2833.318	-129.88
2836.742	-157.88
2840.164	-172.88
2843.583	-188.88
2846.999	-173.88
2850.412	-168.88
2853.822	-180.88
2857.229	-200.88
2860.634	-263.88
2864.035	-261.88
2867.434	-272.88
2870.83	-272.88
2874.223	-271.88
2877.613	-320.88
2881	-289.88
2884.385	-285.88
2887.766	-339.88
2891.145	-288.88
2894.521	-347.88
2897.894	-380.88
2901.264	-341.88
2904.631	-379.88
2907.996	-400.88
2911.358	-400.88
2914.717	-396.88
2918.073	-521.88
2921.426	-418.88
2924.777	-465.88
2928.124	-450.88
2931.469	-507.88
2934.811	-489.88
2938.15	-533.88
2941.487	-521.88
2944.821	-554.88
2948.152	-546.88
2951.48	-603.88
2954.805	-561.88
2958.128	-598.88
2961.447	-599.88
2964.765	-603.88
2968.079	-650.88
2971.39	-632.88
2974.699	-645.88
2978.005	-712.88
2981.308	-665.88
2984.609	-716.88
2987.907	-683.88
2991.202	-723.88
2994.494	-730.88
2997.784	-691.88
3001.07	-755.88
3004.355	-739.88
3007.636	-741.88
3010.915	-723.88
3014.191	-713.88
3017.464	-761.88
3020.734	-740.88
3024.002	-740.88
3027.267	-783.88
3030.53	-778.88
3033.789	-735.88
3037.046	-762.88
3040.301	-810.88
3043.552	-779.88
3046.801	-798.88
3050.048	-774.88
3053.291	-788.88
3056.532	-799.88
3059.771	-812.88
3063.006	-815.88
3066.239	-854.88
3069.469	-863.88
3072.697	-842.88
3075.922	-905.88
3079.144	-872.88
3082.364	-911.88
3085.581	-922.88
3088.795	-914.88
3092.007	-896.88
3095.216	-926.88
3098.423	-904.88
3101.627	-908.88
3104.828	-931.88
3108.026	-888.88
3111.222	-909.88
3114.416	-916.88
3117.607	-922.88
3120.795	-920.88
3123.98	-926.88
3127.163	-941.88
3130.344	-845.88
3133.521	-884.88
3136.696	-919.88
3139.869	-883.88
3143.039	-913.88
3146.206	-919.88
3149.371	-906.88
3152.533	-885.88
3155.693	-890.88
3158.85	-857.88
3162.005	-873.88
3165.157	-817.88
3168.306	-786.88
3171.453	-798.88
3174.597	-791.88
3177.739	-789.88
3180.878	-773.88
3184.014	-782.88
3187.149	-743.88
3190.28	-712.88
3193.409	-727.88
3196.536	-705.88
3199.659	-666.88
3202.781	-698.88
3205.9	-711.88
3209.016	-696.88
3212.13	-689.88
3215.241	-657.88
3218.35	-696.88
3221.456	-665.88
3224.56	-654.88
3227.661	-624.88
3230.76	-627.88
3233.856	-612.88
3236.95	-610.88
3240.041	-563.88
3243.13	-568.88
3246.216	-612.88
3249.3	-556.88
3252.382	-577.88
3255.46	-577.88
3258.537	-556.88
3261.611	-528.88
3264.682	-530.88
3267.751	-497.88
3270.818	-489.88
3273.882	-493.88
3276.943	-474.88
3280.002	-481.88
3283.059	-464.88
3286.113	-455.88
3289.165	-423.88
3292.214	-415.88
3295.261	-391.88
3298.306	-379.88
3301.348	-360.88
3304.387	-371.88
3307.425	-361.88
3310.459	-366.88
3313.492	-318.88
3316.521	-302.88
3319.549	-303.88
3322.574	-330.88
3325.597	-319.88
3328.617	-295.88
3331.635	-285.88
3334.65	-280.88
3337.663	-248.88
3340.674	-250.88
3343.682	-262.88
3346.688	-231.88
3349.691	-246.88
3352.692	-236.88
3355.691	-220.88
3358.687	-255.88
3361.681	-222.88
3364.673	-199.88
3367.662	-204.88
3370.649	-187.88
3373.633	-172.88
3376.615	-206.88
3379.595	-176.88
3382.572	-147.88
3385.547	-175.88
3388.52	-163.88
3391.49	-143.88
3394.458	-146.88
3397.424	-126.88
3400.387	-89.88
3403.348	-101.88
3406.307	-131.88
3409.263	-132.88
3412.217	-101.88
3415.168	-91.88
3418.118	-94.88
3421.065	-74.88
3424.009	-80.88
3426.951	-41.88
3429.891	-58.88
3432.829	-56.88
3435.764	-47.88
3438.697	-60.88
3441.628	-55.88
3444.557	-34.88
3447.483	-45.88
3450.407	-37.88
3453.328	-12.88
3456.247	-38.88
3459.164	-34.88
3462.079	-18.88
3464.991	-18.88
3467.902	-18.88
3470.809	-11.88
3473.715	-29.88
3476.618	-34.88
3479.519	-33.88
3482.418	-1.88
3485.315	-19.88
3488.209	-20.88
3491.101	-28.88
3493.99	6.12
3496.878	-29.88
3499.763	-5.88
3502.646	-24.88
3505.527	2.12
3508.405	-17.88
3511.281	-7.88
3514.155	-11.88
3517.027	1.12
3519.897	23.12
3522.764	20.12
3525.629	2.12
3528.492	14.12
3531.352	19.12
3534.211	-5.88
3537.067	34.12
3539.921	15.12
3542.773	-10.88
3545.622	-5.88
3548.469	-10.88
3551.315	-5.88
3554.157	19.12
3556.998	7.12
3559.837	17.12
3562.673	6.12
3565.507	20.12
3568.339	6.12
3571.169	-6.88
3573.996	30.12
3576.822	10.12
3579.645	12.12
3582.466	21.12
3585.285	9.12
3588.101	11.12
3590.916	16.12
3593.728	-12.88
3596.538	-5.88
3599.346	8.12
3602.152	6.12
3604.956	1.12
3607.757	-5.88
3610.556	-7.88
3613.354	-6.88
3616.149	10.12
3618.942	1.12
3621.732	-13.88
3624.521	13.12
3627.307	2.12
3630.092	-1.88
3632.874	-25.88
3635.654	0.12
3638.432	-10.88
3641.208	-13.88
3643.982	10.12
3646.753	-5.88
3649.523	-7.88
3652.29	-12.88
3655.055	-22.88
3657.818	-10.88
3660.579	-17.88
3663.338	-7.88
3666.095	-18.88
3668.849	-26.88
3671.602	-22.88
3674.352	-13.88
3677.101	-32.88
3679.847	-17.88
3682.591	-19.88
3685.333	-23.88
3688.073	-19.88
3690.811	-18.88
3693.547	-23.88
3696.281	-32.88
3699.013	-31.88
3701.742	-19.88
3704.47	-14.88
3707.195	-26.88
3709.919	-32.88
3712.64	-35.88
3715.359	-23.88
3718.076	-24.88
3720.792	-35.88
3723.505	-36.88
3726.216	-19.88
3728.925	-38.88
3731.632	-28.88
3734.336	-39.88
3737.039	-22.88
3739.74	-47.88
3742.439	-36.88
3745.136	-41.88
3747.83	-30.88
3750.523	-40.88
3753.213	-54.88
3755.902	-23.88
3758.589	-48.88
3761.273	-46.88
3763.956	-39.88
3766.636	-47.88
3769.315	-38.88
3771.991	-61.88
3774.665	-37.88
3777.338	-46.88
3780.008	-39.88
3782.677	-66.88
3785.343	-50.88
3788.007	-40.88
3790.67	-46.88
3793.33	-52.88
3795.989	-36.88
3798.645	-51.88
3801.299	-41.88
3803.952	-37.88
3806.602	-55.88
3809.251	-43.88
3811.897	-42.88
3814.542	-48.88
3817.184	-56.88
3819.825	-48.88
3822.463	-53.88
3825.1	-50.88
3827.735	-54.88
3830.367	-52.88
3832.998	-39.88
3835.627	-44.88
3838.253	-41.88
3840.878	-53.88
3843.501	-47.88
3846.122	-51.88
3848.741	-46.88
3851.358	-52.88
3853.973	-31.88
3856.586	-41.88
3859.197	-32.88
3861.806	-40.88
3864.414	-41.88
3867.019	-40.88
3869.622	-38.88
3872.224	-48.88
3874.823	-54.88
3877.421	-39.88
3880.016	-35.88
3882.61	-24.88
3885.202	-44.88
3887.792	-35.88
3890.38	-42.88
3892.966	-38.88
3895.55	-22.88
3898.132	-30.88
3900.713	-38.88
3903.291	-28.88
3905.868	-31.88
3908.442	-31.88
3911.015	-29.88
3913.586	-40.88
3916.155	-30.88
3918.722	-18.88
3921.287	-29.88
3923.85	-26.88
3926.411	-15.88
3928.971	-11.88
3931.528	-13.88
3934.084	-17.88
3936.638	-11.88
3939.19	-22.88
3941.74	-2.88
3944.288	-15.88
3946.834	-23.88
3949.378	-22.88
3951.921	-16.88
3954.462	-16.88
3957	-6.88
3959.537	-21.88
3962.072	-17.88
3964.606	-20.88
3967.137	-24.88
3969.667	-19.88
3972.194	-11.88
3974.72	-14.88
3977.244	-11.88
3979.766	-12.88
3982.286	-14.88
3984.805	-15.88
3987.321	-19.88
3989.836	-19.88
3992.349	-16.88
3994.86	-19.88
3997.369	-10.88
3999.877	-11.88
4002.382	-14.88
4004.886	-19.88
4007.388	-19.88
4009.888	-15.88
4012.386	-15.88
4014.883	-13.88
4017.377	-10.88
4019.87	-8.88
4022.361	-16.88
4024.85	-7.88
4027.338	-14.88
4029.823	-16.88
4032.307	-21.88
4034.789	-9.88
4037.269	-17.88
4039.747	-5.88
4042.224	-13.88
4044.699	-11.88
4047.172	-10.88
4049.643	-11.88
4052.112	-13.88
4054.58	-8.88
4057.046	-14.88
4059.51	-1.88
4061.972	-8.88
4064.432	-13.88
4066.891	-4.88
4069.348	-5.88
4071.803	-11.88
4074.256	-9.88
4076.708	-6.88
4079.158	-8.88
4081.606	-11.88
4084.052	-9.88
4086.497	-9.88
4088.939	-8.88
4091.38	-7.88
4093.819	-11.88
4096.257	-2.88
4098.693	-9.88
4101.127	-2.88
4103.559	-1.88
4105.989	5.12
4108.418	-1.88
4110.845	2.12
4113.27	-0.88
4115.694	-2.88
4118.115	2.12
4120.535	-5.88
4122.954	-8.88
4125.37	-1.88
4127.785	-7.88
4130.198	-7.88
4132.609	-3.88
4135.019	0.12
4137.427	-5.88
4139.833	-3.88
4142.237	-0.88
