Data from SERSd_bac after alterations_I=0.5_T=50s_RamanShift_1.txt Node
Date: Wed Jun 14 15:36:39 IDT 2017
User: aro
Spectrometer: QEPB0276
Trigger mode: 0
Integration Time (sec): 1.000000E1
Scans to average: 5
Electric dark correction enabled: true
Nonlinearity correction enabled: false
Boxcar width: 5
XAxis mode: Raman Shifts
Number of Pixels in Spectrum: 1044
>>>>>Begin Spectral Data<<<<<
160.701	10.75
166.742	18.29
172.777	27.05
178.805	35.11
184.826	40.57
190.841	45.44
196.849	53.86
202.85	62.2
208.845	70.24
214.833	77.2
220.815	83.42
226.789	86.1
232.758	86.22
238.719	84
244.674	80.13
250.623	76.37
256.565	71.53
262.5	67
268.429	62.39
274.351	57.95
280.267	53.95
286.176	48.08
292.079	43.24
297.975	38.4
303.865	32.79
309.748	27.44
315.625	23.24
321.495	18.33
327.359	12.46
333.217	6.7
339.068	1.26
344.912	-4.1
350.751	-8.65
356.583	-13.43
362.408	-17.49
368.227	-21.4
374.04	-24.05
379.847	-28.52
385.647	-31.21
391.44	-33.27
397.228	-36.25
403.009	-40.23
408.784	-43.05
414.553	-45.4
420.315	-46.45
426.071	-48.76
431.821	-50.7
437.565	-52.94
443.302	-54.29
449.033	-55.94
454.758	-56.83
460.477	-57.78
466.189	-58.6
471.896	-60.34
477.596	-61.01
483.29	-62.85
488.978	-64.1
494.66	-64.83
500.335	-65.81
506.005	-65.8
511.668	-65.61
517.325	-64.76
522.977	-63.49
528.622	-62.05
534.261	-60.07
539.894	-58.34
545.521	-55.54
551.141	-52.47
556.756	-49.38
562.365	-46.72
567.968	-44.01
573.565	-41.16
579.155	-40.21
584.74	-38.5
590.319	-36.14
595.892	-33.96
601.459	-32.14
607.02	-30.69
612.575	-29.07
618.124	-27.12
623.667	-25.16
629.204	-23.49
634.735	-21.67
640.261	-18.83
645.781	-16.05
651.294	-13.63
656.802	-11.81
662.304	-9.36
667.8	-6.94
673.29	-4.25
678.775	-1.94
684.254	1.26
689.726	3.82
695.193	5.73
700.655	7.28
706.11	9.2
711.56	10.5
717.004	12.95
722.442	14.11
727.874	15.5
733.301	16.59
738.722	17.39
744.137	17.64
749.547	18.06
754.951	19.11
760.349	20.5
765.741	21.11
771.128	22.04
776.509	22.79
781.885	23.75
787.254	24.75
792.618	25.2
797.977	26.33
803.33	26.86
808.677	28.39
814.019	29.02
819.355	29.42
824.686	29.51
830.011	30.19
835.33	30.59
840.644	30.1
845.952	29.62
851.255	29.79
856.552	29.26
861.844	29.57
867.13	28.31
872.41	27.77
877.686	27.28
882.955	27.42
888.219	26.8
893.478	26.08
898.731	26.8
903.979	27.22
909.221	27.62
914.458	27.82
919.69	27.46
924.916	28.11
930.136	28.24
935.351	28.55
940.561	28.08
945.766	27.62
950.965	26.84
956.158	25.33
961.347	23.31
966.529	20.31
971.707	18.1
976.879	15.35
982.046	12.75
987.208	9.62
992.364	6.57
997.515	3.91
1002.66	0.66
1007.801	-1.92
1012.936	-5.3
1018.066	-7.65
1023.19	-9.5
1028.309	-12.14
1033.423	-13.76
1038.532	-16.05
1043.636	-18.09
1048.734	-20.32
1053.827	-22.49
1058.915	-23.87
1063.998	-25.83
1069.075	-27.18
1074.147	-29.49
1079.214	-31.32
1084.276	-33.03
1089.333	-35
1094.385	-37.1
1099.431	-38.47
1104.472	-40.21
1109.509	-41.76
1114.54	-42.58
1119.565	-44.05
1124.586	-45.1
1129.602	-45.8
1134.613	-46.81
1139.618	-47.43
1144.619	-48.89
1149.614	-49.38
1154.604	-50.8
1159.589	-52.05
1164.57	-52.85
1169.545	-54.38
1174.515	-56.1
1179.48	-57.38
1184.44	-58.74
1189.395	-59.74
1194.345	-61.3
1199.29	-62.07
1204.23	-63.47
1209.165	-64.58
1214.095	-64.9
1219.021	-66.14
1223.941	-67.03
1228.856	-67.03
1233.766	-67.03
1238.672	-66.96
1243.572	-67.05
1248.467	-66.69
1253.358	-66.36
1258.244	-65.47
1263.124	-64.45
1268	-64.14
1272.871	-63.52
1277.737	-62.92
1282.599	-62.56
1287.455	-63.12
1292.306	-62.7
1297.153	-62.5
1301.995	-62.45
1306.832	-62.52
1311.664	-62.92
1316.491	-63.12
1321.314	-63.18
1326.132	-63.14
1330.945	-63.18
1335.753	-62.65
1340.556	-61.32
1345.354	-61.01
1350.148	-60.2
1354.937	-59.12
1359.722	-57.6
1364.501	-55.96
1369.276	-54.38
1374.046	-52.7
1378.811	-51.47
1383.572	-50.18
1388.327	-49.27
1393.079	-48.74
1397.825	-47.98
1402.567	-47.47
1407.304	-46.83
1412.036	-46.89
1416.764	-46.92
1421.487	-46.61
1426.205	-46.43
1430.919	-46.01
1435.628	-45.47
1440.333	-45.09
1445.032	-44.47
1449.727	-43.78
1454.418	-42.87
1459.104	-42.41
1463.785	-41.52
1468.462	-41.16
1473.134	-41.03
1477.802	-40.89
1482.465	-40.4
1487.123	-40.32
1491.777	-40.01
1496.426	-39.47
1501.071	-39.41
1505.711	-39.36
1510.347	-38.7
1514.978	-38.05
1519.604	-36.81
1524.226	-35.45
1528.844	-34.27
1533.457	-33.32
1538.065	-32.6
1542.669	-30.92
1547.269	-30.27
1551.864	-29.12
1556.454	-28.78
1561.041	-28.09
1565.622	-28
1570.199	-28.1
1574.772	-28.47
1579.34	-28.52
1583.904	-28.67
1588.464	-28.27
1593.019	-28.92
1597.569	-28.56
1602.115	-29
1606.657	-28.98
1611.195	-29.49
1615.728	-29.56
1620.256	-29.72
1624.78	-30.01
1629.3	-30.45
1633.816	-30.47
1638.327	-30.58
1642.834	-30.61
1647.336	-31.21
1651.834	-31.12
1656.328	-31.1
1660.817	-31.6
1665.302	-31.94
1669.783	-32.23
1674.259	-32.4
1678.732	-32.76
1683.199	-33.12
1687.663	-33.74
1692.122	-34.01
1696.577	-34.32
1701.028	-34.72
1705.474	-34.56
1709.917	-34.61
1714.355	-35.1
1718.788	-35.41
1723.218	-35.4
1727.643	-34.94
1732.064	-35.29
1736.481	-35.14
1740.893	-35.29
1745.301	-35.29
1749.705	-35.01
1754.105	-35.85
1758.501	-36.2
1762.893	-36.16
1767.28	-36.3
1771.663	-36.98
1776.042	-37.74
1780.417	-38.01
1784.787	-38.74
1789.154	-39.54
1793.516	-40.6
1797.874	-41.61
1802.228	-41.94
1806.578	-42.16
1810.924	-42.3
1815.266	-42.74
1819.603	-43.05
1823.937	-43.52
1828.266	-43.9
1832.591	-44.5
1836.913	-45.23
1841.23	-45.61
1845.543	-45.85
1849.852	-46.5
1854.156	-46.9
1858.457	-48.2
1862.754	-49.23
1867.047	-49.81
1871.335	-50.38
1875.62	-51.3
1879.9	-52.18
1884.177	-52.23
1888.449	-53.4
1892.718	-54.41
1896.982	-54.98
1901.243	-55.9
1905.499	-56.52
1909.752	-57.4
1914	-57.63
1918.245	-58.54
1922.485	-59.23
1926.722	-59.01
1930.954	-59.09
1935.183	-58.2
1939.408	-57.69
1943.628	-57.09
1947.845	-56.7
1952.058	-56.14
1956.267	-55.18
1960.472	-54.78
1964.673	-53.65
1968.87	-52.61
1973.063	-52.2
1977.252	-52.32
1981.438	-52.5
1985.619	-52.43
1989.797	-52.6
1993.971	-52.38
1998.14	-51.72
2002.306	-51.14
2006.469	-50.7
2010.627	-50.54
2014.781	-50.09
2018.932	-49.56
2023.078	-48.85
2027.221	-48.01
2031.36	-47.43
2035.495	-46.45
2039.627	-45.41
2043.754	-45.16
2047.878	-45.18
2051.998	-45.72
2056.114	-46.1
2060.226	-46.3
2064.334	-46.4
2068.439	-46.4
2072.54	-45.87
2076.637	-45.25
2080.73	-45.4
2084.82	-45.36
2088.906	-44.74
2092.988	-43.89
2097.066	-42.78
2101.14	-41.25
2105.211	-39.74
2109.278	-38.25
2113.342	-36.87
2117.401	-35.94
2121.457	-34.89
2125.509	-34.34
2129.558	-33.74
2133.602	-33.05
2137.643	-32.45
2141.681	-31.54
2145.714	-30.56
2149.744	-29.69
2153.77	-29.18
2157.793	-28.23
2161.812	-27.8
2165.827	-27.3
2169.838	-25.05
2173.846	-23.6
2177.851	-21.69
2181.851	-20.32
2185.848	-19.1
2189.841	-18.32
2193.831	-17.27
2197.817	-16.43
2201.799	-15.83
2205.778	-14.23
2209.753	-13.09
2213.725	-13.16
2217.693	-13.07
2221.657	-12.85
2225.618	-11.87
2229.575	-11
2233.529	-10.12
2237.479	-9.56
2241.425	-8.67
2245.368	-7.41
2249.307	-6.3
2253.243	-5.49
2257.175	-3.92
2261.104	-2.63
2265.029	-1.98
2268.95	-0.8
2272.868	0.4
2276.783	1.51
2280.694	1.99
2284.601	3.02
2288.505	3.31
2292.405	3.57
2296.302	4.22
2300.195	4
2304.085	4.79
2307.971	5.04
2311.854	4.28
2315.734	3.86
2319.609	3.99
2323.482	4.42
2327.351	4.17
2331.216	4.39
2335.078	4.13
2338.937	5.11
2342.792	5.7
2346.643	5.6
2350.492	6.39
2354.336	7.84
2358.178	8.66
2362.015	9.5
2365.85	10.1
2369.681	11.28
2373.508	11.82
2377.333	12.62
2381.153	12.2
2384.971	12.4
2388.785	13.08
2392.595	12.97
2396.402	12.77
2400.206	12.53
2404.007	12.08
2407.804	12.28
2411.597	12.33
2415.388	12.77
2419.174	12.82
2422.958	12.93
2426.738	13.26
2430.515	13.3
2434.289	13.22
2438.059	13.99
2441.825	13.99
2445.589	13.9
2449.349	13.9
2453.106	13.86
2456.859	14
2460.61	13.33
2464.356	13.37
2468.1	12.77
2471.84	12.19
2475.577	12.3
2479.311	11.08
2483.041	11.31
2486.768	11.24
2490.492	11.84
2494.213	11.7
2497.93	10.95
2501.644	11.22
2505.355	10.99
2509.062	11.02
2512.766	11.33
2516.467	10.88
2520.165	10.86
2523.859	10.79
2527.551	10.6
2531.239	10.02
2534.923	9.17
2538.605	8.66
2542.283	7.75
2545.958	6.95
2549.63	6.39
2553.299	6
2556.964	6.3
2560.626	5.68
2564.285	5.02
2567.941	4.62
2571.594	3.99
2575.243	3.37
2578.89	3.48
2582.533	4.4
2586.173	4.46
2589.809	4.51
2593.443	4.1
2597.073	3.93
2600.701	4.17
2604.325	3.5
2607.946	2.84
2611.564	2.62
2615.178	2.7
2618.79	1.55
2622.398	1.26
2626.004	0.6
2629.606	1.22
2633.205	0.77
2636.801	0.3
2640.394	0.5
2643.983	1
2647.57	1.79
2651.153	2.5
2654.734	3.06
2658.311	4.26
2661.885	5.46
2665.456	6.57
2669.025	6.66
2672.589	7.24
2676.151	8.35
2679.71	8.86
2683.266	9.57
2686.819	9.99
2690.368	9.73
2693.915	10.08
2697.458	11.37
2700.999	11
2704.536	11.82
2708.071	12.4
2711.602	13.5
2715.13	13.9
2718.656	14.48
2722.178	15.48
2725.697	16.82
2729.214	18.33
2732.727	19.42
2736.237	19.33
2739.744	19.91
2743.249	20.46
2746.75	20.99
2750.248	22.15
2753.743	23.53
2757.236	24.46
2760.725	25.59
2764.211	26.04
2767.695	25.75
2771.175	27.3
2774.652	28.59
2778.127	29.26
2781.598	31.02
2785.067	32.95
2788.532	34.84
2791.995	36.19
2795.455	37.99
2798.911	38.99
2802.365	41.55
2805.816	44.55
2809.264	46.33
2812.709	47.11
2816.151	50.19
2819.59	51.84
2823.026	53.71
2826.46	54.8
2829.89	55.68
2833.318	57.37
2836.742	58.39
2840.164	59.37
2843.583	60.51
2846.999	61.68
2850.412	64.75
2853.822	65.5
2857.229	66.68
2860.634	67.64
2864.035	69.1
2867.434	70.82
2870.83	71.88
2874.223	74.44
2877.613	75.17
2881	75.93
2884.385	76.48
2887.766	77.71
2891.145	79.4
2894.521	81.13
2897.894	81.84
2901.264	82.3
2904.631	83.04
2907.996	83.75
2911.358	84.22
2914.717	85.95
2918.073	87.2
2921.426	88.79
2924.777	89.31
2928.124	90.06
2931.469	90.06
2934.811	90.46
2938.15	91.66
2941.487	92.44
2944.821	93.26
2948.152	93.99
2951.48	94.15
2954.805	95.26
2958.128	95.53
2961.447	95.93
2964.765	96.17
2968.079	96.39
2971.39	98.15
2974.699	98.46
2978.005	98.93
2981.308	98.71
2984.609	97.5
2987.907	96.91
2991.202	95.62
2994.494	94.44
2997.784	92.7
3001.07	91
3004.355	90.39
3007.636	88.62
3010.915	87.77
3014.191	86.79
3017.464	86.4
3020.734	86.95
3024.002	86.4
3027.267	85.42
3030.53	85.39
3033.789	85.84
3037.046	86.51
3040.301	85.84
3043.552	85.66
3046.801	85.19
3050.048	84.75
3053.291	84.62
3056.532	84.48
3059.771	84.08
3063.006	84.39
3066.239	83.97
3069.469	83.42
3072.697	82.46
3075.922	81.7
3079.144	81.59
3082.364	81.55
3085.581	80.6
3088.795	79.64
3092.007	78.51
3095.216	77.73
3098.423	77.02
3101.627	76.04
3104.828	74.53
3108.026	74.06
3111.222	73.86
3114.416	72.62
3117.607	71.3
3120.795	70.46
3123.98	69.55
3127.163	68.19
3130.344	67.19
3133.521	65.9
3136.696	64.84
3139.869	64.5
3143.039	63.02
3146.206	61.31
3149.371	59.57
3152.533	56.97
3155.693	55.9
3158.85	54.2
3162.005	52.79
3165.157	51.17
3168.306	49.86
3171.453	48.3
3174.597	46.66
3177.739	45.28
3180.878	43.6
3184.014	41.86
3187.149	40.79
3190.28	38.17
3193.409	36.4
3196.536	35.73
3199.659	34.24
3202.781	32.95
3205.9	31.91
3209.016	31.08
3212.13	28.77
3215.241	27.66
3218.35	26.24
3221.456	25.42
3224.56	25.26
3227.661	23.99
3230.76	22.93
3233.856	21.64
3236.95	20.26
3240.041	19.33
3243.13	18.28
3246.216	17.88
3249.3	16.97
3252.382	16.39
3255.46	15.8
3258.537	14.8
3261.611	13.84
3264.682	12.44
3267.751	11.82
3270.818	10.51
3273.882	9.46
3276.943	8.28
3280.002	7.71
3283.059	6.75
3286.113	5.46
3289.165	4.53
3292.214	3.97
3295.261	4.4
3298.306	4.11
3301.348	4.19
3304.387	3.64
3307.425	3.2
3310.459	2.82
3313.492	2.48
3316.521	1.91
3319.549	2.11
3322.574	1.68
3325.597	1.42
3328.617	1.06
3331.635	0.02
3334.65	-0.83
3337.663	-0.87
3340.674	-0.9
3343.682	-0.74
3346.688	-1.9
3349.691	-1.58
3352.692	-1.14
3355.691	-0.78
3358.687	-0.49
3361.681	-1.3
3364.673	-1.1
3367.662	-0.87
3370.649	-1.05
3373.633	-1.47
3376.615	-2.47
3379.595	-1.56
3382.572	-1.49
3385.547	-2
3388.52	-1.94
3391.49	-2.03
3394.458	-1.65
3397.424	-1.81
3400.387	-2.18
3403.348	-1.61
3406.307	-0.61
3409.263	0.22
3412.217	0.2
3415.168	0.1
3418.118	0.51
3421.065	0.73
3424.009	0.39
3426.951	0.55
3429.891	1.24
3432.829	1.6
3435.764	1.91
3438.697	1.57
3441.628	2.08
3444.557	2.55
3447.483	3.77
3450.407	3.86
3453.328	3.7
3456.247	4.08
3459.164	4.8
3462.079	5.35
3464.991	6.06
3467.902	6.3
3470.809	7.66
3473.715	7.44
3476.618	8.13
3479.519	7.9
3482.418	8.9
3485.315	9.28
3488.209	10.1
3491.101	10.37
3493.99	11
3496.878	11.73
3499.763	11.95
3502.646	11.93
3505.527	12.79
3508.405	12.93
3511.281	13.39
3514.155	13.53
3517.027	14.11
3519.897	14.31
3522.764	14.37
3525.629	14.42
3528.492	14.17
3531.352	14.86
3534.211	14.39
3537.067	14.64
3539.921	14.9
3542.773	15.11
3545.622	15.51
3548.469	15.97
3551.315	16.04
3554.157	15.8
3556.998	15.64
3559.837	15.79
3562.673	15.75
3565.507	15.91
3568.339	16.06
3571.169	16.42
3573.996	16.2
3576.822	16.04
3579.645	15.62
3582.466	15.88
3585.285	16.68
3588.101	16.64
3590.916	17.17
3593.728	17.31
3596.538	17.46
3599.346	17.17
3602.152	17
3604.956	17.22
3607.757	17.37
3610.556	17.91
3613.354	17.95
3616.149	17.88
3618.942	18.2
3621.732	17.95
3624.521	18.17
3627.307	18.57
3630.092	18.17
3632.874	18.26
3635.654	18.39
3638.432	18.02
3641.208	17.71
3643.982	17.53
3646.753	17.46
3649.523	17.53
3652.29	17.35
3655.055	17.28
3657.818	16.93
3660.579	17.73
3663.338	17.84
3666.095	18.11
3668.849	18.5
3671.602	18.62
3674.352	18.93
3677.101	18.99
3679.847	18.86
3682.591	19.17
3685.333	19.35
3688.073	19.77
3690.811	19.71
3693.547	19.93
3696.281	19.82
3699.013	19.97
3701.742	20.02
3704.47	19.79
3707.195	19.84
3709.919	20.17
3712.64	20.04
3715.359	20.19
3718.076	19.88
3720.792	20.08
3723.505	19.84
3726.216	19.66
3728.925	19.6
3731.632	19.37
3734.336	19.37
3737.039	19.39
3739.74	19.17
3742.439	19.17
3745.136	18.66
3747.83	18.8
3750.523	18.57
3753.213	18.31
3755.902	18.19
3758.589	17.71
3761.273	17.59
3763.956	17.28
3766.636	17.13
3769.315	16.71
3771.991	16.66
3774.665	16.11
3777.338	15.79
3780.008	15.17
3782.677	14.8
3785.343	14.28
3788.007	14.17
3790.67	13.91
3793.33	13.57
3795.989	13.3
3798.645	13.19
3801.299	12.9
3803.952	13.35
3806.602	12.97
3809.251	12.8
3811.897	12.5
3814.542	12.62
3817.184	12.4
3819.825	12.42
3822.463	12.26
3825.1	11.75
3827.735	11.26
3830.367	11.11
3832.998	10.53
3835.627	9.97
3838.253	9.73
3840.878	9.4
3843.501	9.06
3846.122	8.7
3848.741	8.26
3851.358	8.3
3853.973	7.86
3856.586	7.66
3859.197	7.39
3861.806	6.91
3864.414	6.95
3867.019	6.79
3869.622	6.55
3872.224	6.15
3874.823	5.6
3877.421	4.99
3880.016	4.48
3882.61	4.53
3885.202	4.19
3887.792	3.64
3890.38	3.57
3892.966	3.11
3895.55	2.6
3898.132	2.33
3900.713	2.19
3903.291	2.11
3905.868	1.95
3908.442	1.88
3911.015	1.59
3913.586	1.62
3916.155	1.48
3918.722	1.46
3921.287	1.46
3923.85	1.44
3926.411	1.37
3928.971	1.2
3931.528	1.19
3934.084	1.11
3936.638	0.91
3939.19	0.64
3941.74	0.5
3944.288	0.26
3946.834	-0.16
3949.378	-0.4
3951.921	-0.6
3954.462	-0.63
3957	-1.03
3959.537	-0.94
3962.072	-0.85
3964.606	-0.78
3967.137	-0.67
3969.667	-0.76
3972.194	-0.65
3974.72	-0.65
3977.244	-0.41
3979.766	-0.36
3982.286	-0.38
3984.805	0.04
3987.321	-0.27
3989.836	-0.32
3992.349	-0.72
3994.86	-0.6
3997.369	-0.83
3999.877	-0.98
4002.382	-1.07
4004.886	-1.5
4007.388	-1.6
4009.888	-1.58
4012.386	-1.81
4014.883	-1.7
4017.377	-1.61
4019.87	-1.43
4022.361	-1.5
4024.85	-1.34
4027.338	-1.41
4029.823	-1.21
4032.307	-0.89
4034.789	-0.83
4037.269	-1.09
4039.747	-1.27
4042.224	-1.3
4044.699	-1.6
4047.172	-1.7
4049.643	-1.89
4052.112	-2.03
4054.58	-1.98
4057.046	-2.18
4059.51	-2.38
4061.972	-2.47
4064.432	-2.27
4066.891	-2.03
4069.348	-2.05
4071.803	-1.94
4074.256	-1.76
4076.708	-1.6
4079.158	-1.43
4081.606	-1.52
4084.052	-1.58
4086.497	-1.7
4088.939	-1.87
4091.38	-2.03
4093.819	-2.29
4096.257	-2.34
4098.693	-2.52
4101.127	-2.58
4103.559	-2.63
4105.989	-2.76
4108.418	-2.78
4110.845	-2.5
4113.27	-2.41
4115.694	-2.16
4118.115	-2
4120.535	-1.89
4122.954	-1.83
4125.37	-1.67
4127.785	-1.81
4130.198	-1.8
4132.609	-1.75
4135.019	-1.67
4137.427	-1.85
4139.833	-1.74
4142.237	-1.85
