Data from SERSd_clean_I=0.5_T=50s_RamanShift_2.txt Node
Date: Wed Jun 14 15:17:35 IDT 2017
User: aro
Spectrometer: QEPB0276
Trigger mode: 0
Integration Time (sec): 5.000000E1
Scans to average: 1
Electric dark correction enabled: true
Nonlinearity correction enabled: false
Boxcar width: 0
XAxis mode: Raman Shifts
Number of Pixels in Spectrum: 1044
>>>>>Begin Spectral Data<<<<<
160.701	9.75
166.742	4.75
172.777	-0.25
178.805	-4.25
184.826	-7.25
190.841	6.75
196.849	-20.25
202.85	-64.25
208.845	-49.25
214.833	-29.25
220.815	-30.25
226.789	-19.25
232.758	41.75
238.719	38.75
244.674	88.75
250.623	56.75
256.565	88.75
262.5	107.75
268.429	63.75
274.351	24.75
280.267	161.75
286.176	218.75
292.079	208.75
297.975	255.75
303.865	256.75
309.748	271.75
315.625	328.75
321.495	313.75
327.359	305.75
333.217	308.75
339.068	352.75
344.912	373.75
350.751	379.75
356.583	359.75
362.408	410.75
368.227	387.75
374.04	386.75
379.847	333.75
385.647	389.75
391.44	396.75
397.228	378.75
403.009	392.75
408.784	368.75
414.553	379.75
420.315	393.75
426.071	420.75
431.821	433.75
437.565	428.75
443.302	372.75
449.033	379.75
454.758	377.75
460.477	380.75
466.189	348.75
471.896	350.75
477.596	339.75
483.29	337.75
488.978	311.75
494.66	326.75
500.335	328.75
506.005	304.75
511.668	303.75
517.325	305.75
522.977	298.75
528.622	273.75
534.261	279.75
539.894	242.75
545.521	248.75
551.141	174.75
556.756	219.75
562.365	211.75
567.968	181.75
573.565	143.75
579.155	127.75
584.74	123.75
590.319	100.75
595.892	91.75
601.459	96.75
607.02	94.75
612.575	50.75
618.124	45.75
623.667	60.75
629.204	-2.25
634.735	-18.25
640.261	-60.25
645.781	-5.25
651.294	-8.25
656.802	-12.25
662.304	-60.25
667.8	-67.25
673.29	-73.25
678.775	-61.25
684.254	-74.25
689.726	-108.25
695.193	-83.25
700.655	-128.25
706.11	-101.25
711.56	-127.25
717.004	-124.25
722.442	-131.25
727.874	-156.25
733.301	-145.25
738.722	-103.25
744.137	-125.25
749.547	-146.25
754.951	-105.25
760.349	-115.25
765.741	-130.25
771.128	-110.25
776.509	-152.25
781.885	-140.25
787.254	-126.25
792.618	-138.25
797.977	-132.25
803.33	-126.25
808.677	-122.25
814.019	-74.25
819.355	-94.25
824.686	-96.25
830.011	-83.25
835.33	-47.25
840.644	-25.25
845.952	-19.25
851.255	-40.25
856.552	-9.25
861.844	-19.25
867.13	-43.25
872.41	-35.25
877.686	-7.25
882.955	1.75
888.219	6.75
893.478	4.75
898.731	54.75
903.979	69.75
909.221	63.75
914.458	49.75
919.69	104.75
924.916	92.75
930.136	93.75
935.351	104.75
940.561	116.75
945.766	116.75
950.965	168.75
956.158	177.75
961.347	173.75
966.529	217.75
971.707	216.75
976.879	249.75
982.046	246.75
987.208	270.75
992.364	296.75
997.515	283.75
1002.66	312.75
1007.801	321.75
1012.936	366.75
1018.066	383.75
1023.19	384.75
1028.309	399.75
1033.423	405.75
1038.532	437.75
1043.636	453.75
1048.734	449.75
1053.827	472.75
1058.915	470.75
1063.998	465.75
1069.075	494.75
1074.147	492.75
1079.214	483.75
1084.276	512.75
1089.333	541.75
1094.385	542.75
1099.431	568.75
1104.472	593.75
1109.509	566.75
1114.54	570.75
1119.565	572.75
1124.586	579.75
1129.602	602.75
1134.613	593.75
1139.618	600.75
1144.619	565.75
1149.614	586.75
1154.604	589.75
1159.589	618.75
1164.57	600.75
1169.545	605.75
1174.515	618.75
1179.48	615.75
1184.44	598.75
1189.395	587.75
1194.345	602.75
1199.29	626.75
1204.23	613.75
1209.165	608.75
1214.095	620.75
1219.021	594.75
1223.941	621.75
1228.856	590.75
1233.766	596.75
1238.672	628.75
1243.572	572.75
1248.467	582.75
1253.358	584.75
1258.244	555.75
1263.124	534.75
1268	523.75
1272.871	524.75
1277.737	522.75
1282.599	522.75
1287.455	523.75
1292.306	487.75
1297.153	475.75
1301.995	488.75
1306.832	500.75
1311.664	503.75
1316.491	464.75
1321.314	477.75
1326.132	441.75
1330.945	458.75
1335.753	435.75
1340.556	444.75
1345.354	441.75
1350.148	395.75
1354.937	381.75
1359.722	384.75
1364.501	366.75
1369.276	353.75
1374.046	332.75
1378.811	296.75
1383.572	299.75
1388.327	296.75
1393.079	291.75
1397.825	286.75
1402.567	270.75
1407.304	259.75
1412.036	250.75
1416.764	238.75
1421.487	270.75
1426.205	244.75
1430.919	236.75
1435.628	235.75
1440.333	183.75
1445.032	229.75
1449.727	240.75
1454.418	216.75
1459.104	203.75
1463.785	191.75
1468.462	177.75
1473.134	181.75
1477.802	183.75
1482.465	181.75
1487.123	180.75
1491.777	182.75
1496.426	159.75
1501.071	180.75
1505.711	155.75
1510.347	154.75
1514.978	138.75
1519.604	145.75
1524.226	146.75
1528.844	140.75
1533.457	126.75
1538.065	159.75
1542.669	117.75
1547.269	114.75
1551.864	136.75
1556.454	132.75
1561.041	108.75
1565.622	133.75
1570.199	129.75
1574.772	150.75
1579.34	120.75
1583.904	102.75
1588.464	136.75
1593.019	132.75
1597.569	128.75
1602.115	150.75
1606.657	153.75
1611.195	143.75
1615.728	132.75
1620.256	147.75
1624.78	148.75
1629.3	132.75
1633.816	176.75
1638.327	186.75
1642.834	185.75
1647.336	176.75
1651.834	163.75
1656.328	187.75
1660.817	197.75
1665.302	200.75
1669.783	189.75
1674.259	194.75
1678.732	194.75
1683.199	224.75
1687.663	223.75
1692.122	216.75
1696.577	189.75
1701.028	198.75
1705.474	192.75
1709.917	200.75
1714.355	200.75
1718.788	214.75
1723.218	239.75
1727.643	214.75
1732.064	270.75
1736.481	260.75
1740.893	264.75
1745.301	272.75
1749.705	269.75
1754.105	307.75
1758.501	269.75
1762.893	301.75
1767.28	284.75
1771.663	293.75
1776.042	300.75
1780.417	311.75
1784.787	327.75
1789.154	348.75
1793.516	340.75
1797.874	322.75
1802.228	323.75
1806.578	297.75
1810.924	348.75
1815.266	326.75
1819.603	329.75
1823.937	346.75
1828.266	369.75
1832.591	391.75
1836.913	380.75
1841.23	421.75
1845.543	409.75
1849.852	405.75
1854.156	398.75
1858.457	431.75
1862.754	429.75
1867.047	455.75
1871.335	455.75
1875.62	484.75
1879.9	477.75
1884.177	473.75
1888.449	468.75
1892.718	451.75
1896.982	486.75
1901.243	479.75
1905.499	498.75
1909.752	483.75
1914	510.75
1918.245	528.75
1922.485	506.75
1926.722	513.75
1930.954	519.75
1935.183	502.75
1939.408	513.75
1943.628	510.75
1947.845	476.75
1952.058	469.75
1956.267	439.75
1960.472	443.75
1964.673	432.75
1968.87	421.75
1973.063	428.75
1977.252	426.75
1981.438	411.75
1985.619	394.75
1989.797	422.75
1993.971	397.75
1998.14	408.75
2002.306	401.75
2006.469	390.75
2010.627	391.75
2014.781	422.75
2018.932	402.75
2023.078	372.75
2027.221	376.75
2031.36	375.75
2035.495	366.75
2039.627	363.75
2043.754	351.75
2047.878	345.75
2051.998	303.75
2056.114	342.75
2060.226	324.75
2064.334	320.75
2068.439	317.75
2072.54	312.75
2076.637	278.75
2080.73	277.75
2084.82	261.75
2088.906	244.75
2092.988	252.75
2097.066	245.75
2101.14	204.75
2105.211	217.75
2109.278	223.75
2113.342	208.75
2117.401	160.75
2121.457	177.75
2125.509	166.75
2129.558	154.75
2133.602	115.75
2137.643	105.75
2141.681	89.75
2145.714	92.75
2149.744	71.75
2153.77	46.75
2157.793	56.75
2161.812	37.75
2165.827	20.75
2169.838	-4.25
2173.846	-8.25
2177.851	-3.25
2181.851	-18.25
2185.848	-18.25
2189.841	-29.25
2193.831	-57.25
2197.817	-72.25
2201.799	-71.25
2205.778	-42.25
2209.753	-111.25
2213.725	-123.25
2217.693	-132.25
2221.657	-145.25
2225.618	-174.25
2229.575	-158.25
2233.529	-211.25
2237.479	-176.25
2241.425	-204.25
2245.368	-171.25
2249.307	-217.25
2253.243	-218.25
2257.175	-237.25
2261.104	-233.25
2265.029	-265.25
2268.95	-265.25
2272.868	-244.25
2276.783	-292.25
2280.694	-268.25
2284.601	-270.25
2288.505	-243.25
2292.405	-243.25
2296.302	-275.25
2300.195	-283.25
2304.085	-310.25
2307.971	-306.25
2311.854	-297.25
2315.734	-320.25
2319.609	-303.25
2323.482	-301.25
2327.351	-292.25
2331.216	-300.25
2335.078	-276.25
2338.937	-307.25
2342.792	-294.25
2346.643	-332.25
2350.492	-300.25
2354.336	-316.25
2358.178	-353.25
2362.015	-308.25
2365.85	-349.25
2369.681	-316.25
2373.508	-343.25
2377.333	-342.25
2381.153	-330.25
2384.971	-325.25
2388.785	-339.25
2392.595	-344.25
2396.402	-295.25
2400.206	-322.25
2404.007	-360.25
2407.804	-342.25
2411.597	-275.25
2415.388	-351.25
2419.174	-305.25
2422.958	-315.25
2426.738	-326.25
2430.515	-297.25
2434.289	-270.25
2438.059	-270.25
2441.825	-324.25
2445.589	-302.25
2449.349	-256.25
2453.106	-240.25
2456.859	-260.25
2460.61	-226.25
2464.356	-263.25
2468.1	-265.25
2471.84	-248.25
2475.577	-202.25
2479.311	-226.25
2483.041	-208.25
2486.768	-219.25
2490.492	-174.25
2494.213	-202.25
2497.93	-147.25
2501.644	-164.25
2505.355	-140.25
2509.062	-205.25
2512.766	-177.25
2516.467	-138.25
2520.165	-150.25
2523.859	-88.25
2527.551	-114.25
2531.239	-60.25
2534.923	-95.25
2538.605	-100.25
2542.283	-90.25
2545.958	-47.25
2549.63	-56.25
2553.299	-46.25
2556.964	-27.25
2560.626	-16.25
2564.285	20.75
2567.941	-7.25
2571.594	41.75
2575.243	33.75
2578.89	56.75
2582.533	26.75
2586.173	49.75
2589.809	99.75
2593.443	107.75
2597.073	139.75
2600.701	75.75
2604.325	127.75
2607.946	165.75
2611.564	138.75
2615.178	100.75
2618.79	187.75
2622.398	178.75
2626.004	166.75
2629.606	173.75
2633.205	202.75
2636.801	209.75
2640.394	201.75
2643.983	250.75
2647.57	200.75
2651.153	224.75
2654.734	279.75
2658.311	256.75
2661.885	287.75
2665.456	272.75
2669.025	284.75
2672.589	245.75
2676.151	269.75
2679.71	274.75
2683.266	288.75
2686.819	291.75
2690.368	263.75
2693.915	282.75
2697.458	262.75
2700.999	237.75
2704.536	294.75
2708.071	250.75
2711.602	234.75
2715.13	247.75
2718.656	225.75
2722.178	255.75
2725.697	196.75
2729.214	238.75
2732.727	175.75
2736.237	257.75
2739.744	207.75
2743.249	212.75
2746.75	248.75
2750.248	223.75
2753.743	200.75
2757.236	188.75
2760.725	117.75
2764.211	123.75
2767.695	138.75
2771.175	143.75
2774.652	144.75
2778.127	76.75
2781.598	107.75
2785.067	59.75
2788.532	33.75
2791.995	52.75
2795.455	71.75
2798.911	34.75
2802.365	-2.25
2805.816	-9.25
2809.264	-26.25
2812.709	-35.25
2816.151	-44.25
2819.59	-115.25
2823.026	-83.25
2826.46	-104.25
2829.89	-160.25
2833.318	-164.25
2836.742	-173.25
2840.164	-222.25
2843.583	-184.25
2846.999	-184.25
2850.412	-254.25
2853.822	-262.25
2857.229	-272.25
2860.634	-341.25
2864.035	-332.25
2867.434	-334.25
2870.83	-366.25
2874.223	-366.25
2877.613	-420.25
2881	-420.25
2884.385	-398.25
2887.766	-486.25
2891.145	-424.25
2894.521	-476.25
2897.894	-523.25
2901.264	-491.25
2904.631	-554.25
2907.996	-581.25
2911.358	-544.25
2914.717	-557.25
2918.073	-665.25
2921.426	-645.25
2924.777	-623.25
2928.124	-626.25
2931.469	-697.25
2934.811	-702.25
2938.15	-735.25
2941.487	-703.25
2944.821	-817.25
2948.152	-787.25
2951.48	-818.25
2954.805	-789.25
2958.128	-790.25
2961.447	-808.25
2964.765	-838.25
2968.079	-885.25
2971.39	-843.25
2974.699	-892.25
2978.005	-912.25
2981.308	-893.25
2984.609	-945.25
2987.907	-938.25
2991.202	-985.25
2994.494	-992.25
2997.784	-945.25
3001.07	-994.25
3004.355	-996.25
3007.636	-984.25
3010.915	-942.25
3014.191	-939.25
3017.464	-968.25
3020.734	-957.25
3024.002	-957.25
3027.267	-991.25
3030.53	-963.25
3033.789	-961.25
3037.046	-974.25
3040.301	-984.25
3043.552	-993.25
3046.801	-1019.25
3050.048	-986.25
3053.291	-1017.25
3056.532	-994.25
3059.771	-938.25
3063.006	-999.25
3066.239	-1071.25
3069.469	-1062.25
3072.697	-1058.25
3075.922	-1117.25
3079.144	-1066.25
3082.364	-1081.25
3085.581	-1083.25
3088.795	-1092.25
3092.007	-1069.25
3095.216	-1080.25
3098.423	-1089.25
3101.627	-1067.25
3104.828	-1073.25
3108.026	-1076.25
3111.222	-1081.25
3114.416	-1080.25
3117.607	-1071.25
3120.795	-1008.25
3123.98	-1052.25
3127.163	-1087.25
3130.344	-1059.25
3133.521	-1017.25
3136.696	-1040.25
3139.869	-1034.25
3143.039	-1045.25
3146.206	-1044.25
3149.371	-1024.25
3152.533	-991.25
3155.693	-967.25
3158.85	-930.25
3162.005	-931.25
3165.157	-913.25
3168.306	-888.25
3171.453	-855.25
3174.597	-822.25
3177.739	-818.25
3180.878	-789.25
3184.014	-809.25
3187.149	-756.25
3190.28	-734.25
3193.409	-747.25
3196.536	-727.25
3199.659	-716.25
3202.781	-695.25
3205.9	-713.25
3209.016	-683.25
3212.13	-698.25
3215.241	-644.25
3218.35	-661.25
3221.456	-650.25
3224.56	-643.25
3227.661	-606.25
3230.76	-609.25
3233.856	-583.25
3236.95	-585.25
3240.041	-567.25
3243.13	-535.25
3246.216	-535.25
3249.3	-502.25
3252.382	-501.25
3255.46	-500.25
3258.537	-494.25
3261.611	-491.25
3264.682	-448.25
3267.751	-429.25
3270.818	-425.25
3273.882	-432.25
3276.943	-439.25
3280.002	-395.25
3283.059	-396.25
3286.113	-384.25
3289.165	-337.25
3292.214	-335.25
3295.261	-306.25
3298.306	-290.25
3301.348	-278.25
3304.387	-277.25
3307.425	-258.25
3310.459	-281.25
3313.492	-229.25
3316.521	-187.25
3319.549	-195.25
3322.574	-230.25
3325.597	-205.25
3328.617	-171.25
3331.635	-145.25
3334.65	-149.25
3337.663	-159.25
3340.674	-118.25
3343.682	-139.25
3346.688	-123.25
3349.691	-139.25
3352.692	-129.25
3355.691	-114.25
3358.687	-124.25
3361.681	-109.25
3364.673	-111.25
3367.662	-97.25
3370.649	-93.25
3373.633	-80.25
3376.615	-55.25
3379.595	-99.25
3382.572	-38.25
3385.547	-76.25
3388.52	-81.25
3391.49	-45.25
3394.458	-41.25
3397.424	-31.25
3400.387	-14.25
3403.348	-35.25
3406.307	-19.25
3409.263	-34.25
3412.217	3.75
3415.168	-13.25
3418.118	3.75
3421.065	-9.25
3424.009	-5.25
3426.951	17.75
3429.891	-6.25
3432.829	36.75
3435.764	8.75
3438.697	-32.25
3441.628	26.75
3444.557	9.75
3447.483	-4.25
3450.407	-5.25
3453.328	26.75
3456.247	3.75
3459.164	22.75
3462.079	28.75
3464.991	6.75
3467.902	9.75
3470.809	13.75
3473.715	8.75
3476.618	11.75
3479.519	-10.25
3482.418	18.75
3485.315	-6.25
3488.209	-23.25
3491.101	-26.25
3493.99	32.75
3496.878	-6.25
3499.763	-11.25
3502.646	-10.25
3505.527	2.75
3508.405	-21.25
3511.281	-2.25
3514.155	-34.25
3517.027	15.75
3519.897	7.75
3522.764	9.75
3525.629	-11.25
3528.492	12.75
3531.352	-2.25
3534.211	2.75
3537.067	13.75
3539.921	-4.25
3542.773	-16.25
3545.622	-43.25
3548.469	-45.25
3551.315	-39.25
3554.157	-11.25
3556.998	-34.25
3559.837	-0.25
3562.673	-27.25
3565.507	-44.25
3568.339	-13.25
3571.169	-34.25
3573.996	-37.25
3576.822	-33.25
3579.645	-30.25
3582.466	-10.25
3585.285	-30.25
3588.101	-40.25
3590.916	-24.25
3593.728	-48.25
3596.538	-72.25
3599.346	-48.25
3602.152	-31.25
3604.956	-47.25
3607.757	-43.25
3610.556	-50.25
3613.354	-65.25
3616.149	-46.25
3618.942	-56.25
3621.732	-48.25
3624.521	-61.25
3627.307	-55.25
3630.092	-39.25
3632.874	-56.25
3635.654	-56.25
3638.432	-75.25
3641.208	-52.25
3643.982	-44.25
3646.753	-55.25
3649.523	-68.25
3652.29	-71.25
3655.055	-81.25
3657.818	-51.25
3660.579	-64.25
3663.338	-60.25
3666.095	-73.25
3668.849	-70.25
3671.602	-73.25
3674.352	-80.25
3677.101	-81.25
3679.847	-76.25
3682.591	-81.25
3685.333	-77.25
3688.073	-89.25
3690.811	-94.25
3693.547	-67.25
3696.281	-71.25
3699.013	-91.25
3701.742	-87.25
3704.47	-94.25
3707.195	-99.25
3709.919	-98.25
3712.64	-97.25
3715.359	-102.25
3718.076	-89.25
3720.792	-103.25
3723.505	-101.25
3726.216	-77.25
3728.925	-95.25
3731.632	-95.25
3734.336	-93.25
3737.039	-78.25
3739.74	-106.25
3742.439	-83.25
3745.136	-110.25
3747.83	-80.25
3750.523	-100.25
3753.213	-108.25
3755.902	-93.25
3758.589	-113.25
3761.273	-99.25
3763.956	-108.25
3766.636	-86.25
3769.315	-93.25
3771.991	-94.25
3774.665	-77.25
3777.338	-101.25
3780.008	-90.25
3782.677	-105.25
3785.343	-94.25
3788.007	-101.25
3790.67	-89.25
3793.33	-79.25
3795.989	-79.25
3798.645	-93.25
3801.299	-77.25
3803.952	-77.25
3806.602	-87.25
3809.251	-77.25
3811.897	-81.25
3814.542	-86.25
3817.184	-93.25
3819.825	-77.25
3822.463	-89.25
3825.1	-93.25
3827.735	-86.25
3830.367	-81.25
3832.998	-71.25
3835.627	-69.25
3838.253	-68.25
3840.878	-83.25
3843.501	-64.25
3846.122	-72.25
3848.741	-65.25
3851.358	-68.25
3853.973	-52.25
3856.586	-57.25
3859.197	-60.25
3861.806	-58.25
3864.414	-60.25
3867.019	-57.25
3869.622	-50.25
3872.224	-67.25
3874.823	-57.25
3877.421	-48.25
3880.016	-36.25
3882.61	-35.25
3885.202	-43.25
3887.792	-27.25
3890.38	-42.25
3892.966	-41.25
3895.55	-33.25
3898.132	-38.25
3900.713	-37.25
3903.291	-27.25
3905.868	-32.25
3908.442	-38.25
3911.015	-26.25
3913.586	-36.25
3916.155	-31.25
3918.722	-25.25
3921.287	-26.25
3923.85	-25.25
3926.411	-22.25
3928.971	-19.25
3931.528	-17.25
3934.084	-22.25
3936.638	-13.25
3939.19	-26.25
3941.74	-1.25
3944.288	-15.25
3946.834	-26.25
3949.378	-16.25
3951.921	-14.25
3954.462	-20.25
3957	-13.25
3959.537	-17.25
3962.072	-13.25
3964.606	-15.25
3967.137	-20.25
3969.667	-8.25
3972.194	-14.25
3974.72	-11.25
3977.244	-12.25
3979.766	-12.25
3982.286	-13.25
3984.805	-13.25
3987.321	-16.25
3989.836	-16.25
3992.349	-11.25
3994.86	-8.25
3997.369	-15.25
3999.877	-12.25
4002.382	-19.25
4004.886	-13.25
4007.388	-16.25
4009.888	-12.25
4012.386	-11.25
4014.883	-7.25
4017.377	-0.25
4019.87	-3.25
4022.361	-8.25
4024.85	-11.25
4027.338	-6.25
4029.823	-9.25
4032.307	-11.25
4034.789	-3.25
4037.269	-9.25
4039.747	-6.25
4042.224	-10.25
4044.699	-5.25
4047.172	-5.25
4049.643	-4.25
4052.112	-5.25
4054.58	-4.25
4057.046	-10.25
4059.51	1.75
4061.972	-6.25
4064.432	-8.25
4066.891	-6.25
4069.348	-4.25
4071.803	-4.25
4074.256	-7.25
4076.708	-1.25
4079.158	-3.25
4081.606	-3.25
4084.052	-4.25
4086.497	0.75
4088.939	0.75
4091.38	-6.25
4093.819	-4.25
4096.257	-3.25
4098.693	-1.25
4101.127	-2.25
4103.559	-0.25
4105.989	2.75
4108.418	8.75
4110.845	4.75
4113.27	6.75
4115.694	5.75
4118.115	8.75
4120.535	-0.25
4122.954	-3.25
4125.37	6.75
4127.785	-2.25
4130.198	-7.25
4132.609	-5.25
4135.019	-2.25
4137.427	-4.25
4139.833	-3.25
4142.237	-0.25
