Data from SERSd_clean_I=0.5_T=50s_RamanShift_4.txt Node
Date: Wed Jun 14 15:19:15 IDT 2017
User: aro
Spectrometer: QEPB0276
Trigger mode: 0
Integration Time (sec): 5.000000E1
Scans to average: 1
Electric dark correction enabled: true
Nonlinearity correction enabled: false
Boxcar width: 0
XAxis mode: Raman Shifts
Number of Pixels in Spectrum: 1044
>>>>>Begin Spectral Data<<<<<
160.701	-0.5
166.742	-0.5
172.777	7.5
178.805	-9.5
184.826	-26.5
190.841	-48.5
196.849	-50.5
202.85	-83.5
208.845	-85.5
214.833	-85.5
220.815	-103.5
226.789	-71.5
232.758	-30.5
238.719	-14.5
244.674	60.5
250.623	59.5
256.565	34.5
262.5	57.5
268.429	-20.5
274.351	-1.5
280.267	100.5
286.176	159.5
292.079	125.5
297.975	199.5
303.865	167.5
309.748	178.5
315.625	240.5
321.495	210.5
327.359	255.5
333.217	246.5
339.068	262.5
344.912	299.5
350.751	283.5
356.583	305.5
362.408	301.5
368.227	298.5
374.04	295.5
379.847	282.5
385.647	311.5
391.44	318.5
397.228	342.5
403.009	318.5
408.784	311.5
414.553	299.5
420.315	312.5
426.071	316.5
431.821	334.5
437.565	292.5
443.302	284.5
449.033	287.5
454.758	316.5
460.477	291.5
466.189	284.5
471.896	259.5
477.596	261.5
483.29	246.5
488.978	259.5
494.66	238.5
500.335	245.5
506.005	235.5
511.668	234.5
517.325	213.5
522.977	226.5
528.622	171.5
534.261	164.5
539.894	180.5
545.521	121.5
551.141	95.5
556.756	115.5
562.365	95.5
567.968	61.5
573.565	66.5
579.155	24.5
584.74	38.5
590.319	8.5
595.892	8.5
601.459	3.5
607.02	-11.5
612.575	-64.5
618.124	-43.5
623.667	-25.5
629.204	-65.5
634.735	-111.5
640.261	-132.5
645.781	-119.5
651.294	-113.5
656.802	-115.5
662.304	-179.5
667.8	-161.5
673.29	-172.5
678.775	-169.5
684.254	-160.5
689.726	-213.5
695.193	-217.5
700.655	-225.5
706.11	-195.5
711.56	-211.5
717.004	-235.5
722.442	-231.5
727.874	-270.5
733.301	-247.5
738.722	-222.5
744.137	-224.5
749.547	-229.5
754.951	-250.5
760.349	-222.5
765.741	-251.5
771.128	-214.5
776.509	-265.5
781.885	-254.5
787.254	-232.5
792.618	-230.5
797.977	-241.5
803.33	-220.5
808.677	-231.5
814.019	-198.5
819.355	-195.5
824.686	-189.5
830.011	-186.5
835.33	-156.5
840.644	-173.5
845.952	-160.5
851.255	-168.5
856.552	-135.5
861.844	-131.5
867.13	-130.5
872.41	-158.5
877.686	-112.5
882.955	-124.5
888.219	-98.5
893.478	-102.5
898.731	-77.5
903.979	-21.5
909.221	-53.5
914.458	-28.5
919.69	-40.5
924.916	-38.5
930.136	-30.5
935.351	-32.5
940.561	-6.5
945.766	-6.5
950.965	56.5
956.158	51.5
961.347	43.5
966.529	38.5
971.707	85.5
976.879	103.5
982.046	130.5
987.208	145.5
992.364	158.5
997.515	136.5
1002.66	189.5
1007.801	188.5
1012.936	205.5
1018.066	214.5
1023.19	232.5
1028.309	264.5
1033.423	272.5
1038.532	295.5
1043.636	294.5
1048.734	311.5
1053.827	315.5
1058.915	337.5
1063.998	348.5
1069.075	349.5
1074.147	355.5
1079.214	360.5
1084.276	374.5
1089.333	387.5
1094.385	381.5
1099.431	394.5
1104.472	418.5
1109.509	416.5
1114.54	408.5
1119.565	415.5
1124.586	431.5
1129.602	426.5
1134.613	433.5
1139.618	427.5
1144.619	409.5
1149.614	400.5
1154.604	409.5
1159.589	425.5
1164.57	458.5
1169.545	451.5
1174.515	464.5
1179.48	462.5
1184.44	446.5
1189.395	432.5
1194.345	450.5
1199.29	469.5
1204.23	454.5
1209.165	433.5
1214.095	441.5
1219.021	450.5
1223.941	448.5
1228.856	418.5
1233.766	434.5
1238.672	419.5
1243.572	400.5
1248.467	418.5
1253.358	397.5
1258.244	368.5
1263.124	396.5
1268	355.5
1272.871	389.5
1277.737	356.5
1282.599	337.5
1287.455	330.5
1292.306	340.5
1297.153	333.5
1301.995	331.5
1306.832	326.5
1311.664	321.5
1316.491	291.5
1321.314	318.5
1326.132	278.5
1330.945	284.5
1335.753	283.5
1340.556	274.5
1345.354	255.5
1350.148	226.5
1354.937	236.5
1359.722	243.5
1364.501	209.5
1369.276	189.5
1374.046	175.5
1378.811	159.5
1383.572	136.5
1388.327	161.5
1393.079	145.5
1397.825	115.5
1402.567	119.5
1407.304	109.5
1412.036	121.5
1416.764	113.5
1421.487	94.5
1426.205	76.5
1430.919	82.5
1435.628	54.5
1440.333	48.5
1445.032	75.5
1449.727	72.5
1454.418	60.5
1459.104	50.5
1463.785	51.5
1468.462	24.5
1473.134	23.5
1477.802	17.5
1482.465	28.5
1487.123	23.5
1491.777	36.5
1496.426	7.5
1501.071	2.5
1505.711	-3.5
1510.347	-17.5
1514.978	-11.5
1519.604	-1.5
1524.226	-7.5
1528.844	6.5
1533.457	-19.5
1538.065	-7.5
1542.669	-32.5
1547.269	-18.5
1551.864	-10.5
1556.454	-12.5
1561.041	-49.5
1565.622	-27.5
1570.199	-36.5
1574.772	-4.5
1579.34	-46.5
1583.904	-34.5
1588.464	-9.5
1593.019	-21.5
1597.569	-22.5
1602.115	3.5
1606.657	5.5
1611.195	-12.5
1615.728	-8.5
1620.256	-6.5
1624.78	12.5
1629.3	-24.5
1633.816	12.5
1638.327	36.5
1642.834	0.5
1647.336	33.5
1651.834	27.5
1656.328	18.5
1660.817	17.5
1665.302	13.5
1669.783	41.5
1674.259	11.5
1678.732	46.5
1683.199	39.5
1687.663	79.5
1692.122	49.5
1696.577	45.5
1701.028	47.5
1705.474	61.5
1709.917	46.5
1714.355	75.5
1718.788	63.5
1723.218	103.5
1727.643	63.5
1732.064	105.5
1736.481	96.5
1740.893	100.5
1745.301	137.5
1749.705	94.5
1754.105	157.5
1758.501	122.5
1762.893	133.5
1767.28	149.5
1771.663	139.5
1776.042	158.5
1780.417	196.5
1784.787	157.5
1789.154	173.5
1793.516	185.5
1797.874	171.5
1802.228	167.5
1806.578	186.5
1810.924	211.5
1815.266	184.5
1819.603	200.5
1823.937	202.5
1828.266	228.5
1832.591	223.5
1836.913	235.5
1841.23	264.5
1845.543	274.5
1849.852	245.5
1854.156	269.5
1858.457	270.5
1862.754	305.5
1867.047	305.5
1871.335	273.5
1875.62	306.5
1879.9	312.5
1884.177	311.5
1888.449	328.5
1892.718	285.5
1896.982	343.5
1901.243	318.5
1905.499	323.5
1909.752	314.5
1914	320.5
1918.245	358.5
1922.485	324.5
1926.722	354.5
1930.954	347.5
1935.183	324.5
1939.408	348.5
1943.628	353.5
1947.845	359.5
1952.058	328.5
1956.267	299.5
1960.472	297.5
1964.673	283.5
1968.87	277.5
1973.063	284.5
1977.252	248.5
1981.438	261.5
1985.619	266.5
1989.797	243.5
1993.971	256.5
1998.14	249.5
2002.306	251.5
2006.469	245.5
2010.627	261.5
2014.781	278.5
2018.932	256.5
2023.078	238.5
2027.221	255.5
2031.36	227.5
2035.495	224.5
2039.627	229.5
2043.754	177.5
2047.878	222.5
2051.998	170.5
2056.114	201.5
2060.226	186.5
2064.334	177.5
2068.439	184.5
2072.54	173.5
2076.637	134.5
2080.73	173.5
2084.82	125.5
2088.906	139.5
2092.988	110.5
2097.066	86.5
2101.14	99.5
2105.211	71.5
2109.278	77.5
2113.342	69.5
2117.401	64.5
2121.457	51.5
2125.509	28.5
2129.558	36.5
2133.602	-1.5
2137.643	-0.5
2141.681	-18.5
2145.714	-26.5
2149.744	-22.5
2153.77	-62.5
2157.793	-46.5
2161.812	-93.5
2165.827	-113.5
2169.838	-93.5
2173.846	-128.5
2177.851	-159.5
2181.851	-144.5
2185.848	-138.5
2189.841	-153.5
2193.831	-181.5
2197.817	-219.5
2201.799	-188.5
2205.778	-176.5
2209.753	-183.5
2213.725	-217.5
2217.693	-243.5
2221.657	-232.5
2225.618	-265.5
2229.575	-288.5
2233.529	-295.5
2237.479	-281.5
2241.425	-308.5
2245.368	-300.5
2249.307	-319.5
2253.243	-317.5
2257.175	-337.5
2261.104	-332.5
2265.029	-371.5
2268.95	-351.5
2272.868	-356.5
2276.783	-392.5
2280.694	-383.5
2284.601	-354.5
2288.505	-332.5
2292.405	-363.5
2296.302	-385.5
2300.195	-394.5
2304.085	-403.5
2307.971	-355.5
2311.854	-396.5
2315.734	-399.5
2319.609	-383.5
2323.482	-391.5
2327.351	-371.5
2331.216	-374.5
2335.078	-382.5
2338.937	-372.5
2342.792	-415.5
2346.643	-392.5
2350.492	-378.5
2354.336	-385.5
2358.178	-424.5
2362.015	-429.5
2365.85	-442.5
2369.681	-421.5
2373.508	-412.5
2377.333	-464.5
2381.153	-465.5
2384.971	-412.5
2388.785	-439.5
2392.595	-452.5
2396.402	-397.5
2400.206	-420.5
2404.007	-466.5
2407.804	-421.5
2411.597	-413.5
2415.388	-453.5
2419.174	-406.5
2422.958	-406.5
2426.738	-445.5
2430.515	-379.5
2434.289	-379.5
2438.059	-404.5
2441.825	-394.5
2445.589	-406.5
2449.349	-338.5
2453.106	-379.5
2456.859	-348.5
2460.61	-332.5
2464.356	-342.5
2468.1	-338.5
2471.84	-326.5
2475.577	-296.5
2479.311	-321.5
2483.041	-306.5
2486.768	-310.5
2490.492	-272.5
2494.213	-284.5
2497.93	-272.5
2501.644	-240.5
2505.355	-258.5
2509.062	-266.5
2512.766	-264.5
2516.467	-184.5
2520.165	-238.5
2523.859	-218.5
2527.551	-214.5
2531.239	-163.5
2534.923	-226.5
2538.605	-194.5
2542.283	-196.5
2545.958	-153.5
2549.63	-147.5
2553.299	-163.5
2556.964	-128.5
2560.626	-102.5
2564.285	-98.5
2567.941	-107.5
2571.594	-67.5
2575.243	-41.5
2578.89	-41.5
2582.533	-72.5
2586.173	-2.5
2589.809	-29.5
2593.443	-21.5
2597.073	45.5
2600.701	26.5
2604.325	52.5
2607.946	83.5
2611.564	69.5
2615.178	40.5
2618.79	104.5
2622.398	103.5
2626.004	93.5
2629.606	110.5
2633.205	78.5
2636.801	144.5
2640.394	126.5
2643.983	191.5
2647.57	154.5
2651.153	127.5
2654.734	198.5
2658.311	210.5
2661.885	194.5
2665.456	196.5
2669.025	189.5
2672.589	180.5
2676.151	190.5
2679.71	205.5
2683.266	205.5
2686.819	202.5
2690.368	180.5
2693.915	191.5
2697.458	187.5
2700.999	155.5
2704.536	197.5
2708.071	188.5
2711.602	133.5
2715.13	151.5
2718.656	163.5
2722.178	165.5
2725.697	172.5
2729.214	188.5
2732.727	126.5
2736.237	156.5
2739.744	126.5
2743.249	136.5
2746.75	207.5
2750.248	158.5
2753.743	137.5
2757.236	98.5
2760.725	107.5
2764.211	73.5
2767.695	78.5
2771.175	88.5
2774.652	58.5
2778.127	18.5
2781.598	24.5
2785.067	20.5
2788.532	11.5
2791.995	-8.5
2795.455	-9.5
2798.911	-45.5
2802.365	-46.5
2805.816	-70.5
2809.264	-80.5
2812.709	-66.5
2816.151	-76.5
2819.59	-162.5
2823.026	-135.5
2826.46	-145.5
2829.89	-169.5
2833.318	-177.5
2836.742	-271.5
2840.164	-242.5
2843.583	-257.5
2846.999	-263.5
2850.412	-302.5
2853.822	-294.5
2857.229	-324.5
2860.634	-380.5
2864.035	-399.5
2867.434	-396.5
2870.83	-416.5
2874.223	-422.5
2877.613	-459.5
2881	-482.5
2884.385	-453.5
2887.766	-499.5
2891.145	-494.5
2894.521	-499.5
2897.894	-548.5
2901.264	-519.5
2904.631	-588.5
2907.996	-610.5
2911.358	-578.5
2914.717	-611.5
2918.073	-710.5
2921.426	-660.5
2924.777	-692.5
2928.124	-684.5
2931.469	-714.5
2934.811	-721.5
2938.15	-771.5
2941.487	-768.5
2944.821	-844.5
2948.152	-805.5
2951.48	-860.5
2954.805	-855.5
2958.128	-879.5
2961.447	-850.5
2964.765	-901.5
2968.079	-915.5
2971.39	-910.5
2974.699	-902.5
2978.005	-948.5
2981.308	-909.5
2984.609	-1000.5
2987.907	-948.5
2991.202	-1013.5
2994.494	-1004.5
2997.784	-980.5
3001.07	-1000.5
3004.355	-1015.5
3007.636	-1022.5
3010.915	-996.5
3014.191	-964.5
3017.464	-1016.5
3020.734	-986.5
3024.002	-992.5
3027.267	-1005.5
3030.53	-1009.5
3033.789	-979.5
3037.046	-1019.5
3040.301	-1029.5
3043.552	-1022.5
3046.801	-1015.5
3050.048	-997.5
3053.291	-1054.5
3056.532	-1038.5
3059.771	-1026.5
3063.006	-1078.5
3066.239	-1092.5
3069.469	-1059.5
3072.697	-1080.5
3075.922	-1128.5
3079.144	-1059.5
3082.364	-1107.5
3085.581	-1132.5
3088.795	-1115.5
3092.007	-1119.5
3095.216	-1105.5
3098.423	-1083.5
3101.627	-1072.5
3104.828	-1093.5
3108.026	-1088.5
3111.222	-1110.5
3114.416	-1054.5
3117.607	-1082.5
3120.795	-1071.5
3123.98	-1041.5
3127.163	-1088.5
3130.344	-1065.5
3133.521	-1064.5
3136.696	-1049.5
3139.869	-1006.5
3143.039	-1050.5
3146.206	-1059.5
3149.371	-1014.5
3152.533	-1003.5
3155.693	-978.5
3158.85	-988.5
3162.005	-910.5
3165.157	-922.5
3168.306	-873.5
3171.453	-883.5
3174.597	-865.5
3177.739	-845.5
3180.878	-827.5
3184.014	-825.5
3187.149	-785.5
3190.28	-776.5
3193.409	-736.5
3196.536	-742.5
3199.659	-715.5
3202.781	-719.5
3205.9	-697.5
3209.016	-680.5
3212.13	-687.5
3215.241	-661.5
3218.35	-700.5
3221.456	-665.5
3224.56	-641.5
3227.661	-634.5
3230.76	-665.5
3233.856	-577.5
3236.95	-591.5
3240.041	-575.5
3243.13	-567.5
3246.216	-552.5
3249.3	-543.5
3252.382	-529.5
3255.46	-515.5
3258.537	-515.5
3261.611	-478.5
3264.682	-499.5
3267.751	-445.5
3270.818	-414.5
3273.882	-441.5
3276.943	-410.5
3280.002	-409.5
3283.059	-410.5
3286.113	-365.5
3289.165	-346.5
3292.214	-343.5
3295.261	-319.5
3298.306	-310.5
3301.348	-299.5
3304.387	-275.5
3307.425	-283.5
3310.459	-278.5
3313.492	-255.5
3316.521	-214.5
3319.549	-201.5
3322.574	-240.5
3325.597	-227.5
3328.617	-190.5
3331.635	-177.5
3334.65	-186.5
3337.663	-140.5
3340.674	-140.5
3343.682	-128.5
3346.688	-146.5
3349.691	-159.5
3352.692	-121.5
3355.691	-152.5
3358.687	-148.5
3361.681	-116.5
3364.673	-106.5
3367.662	-95.5
3370.649	-94.5
3373.633	-103.5
3376.615	-93.5
3379.595	-107.5
3382.572	-55.5
3385.547	-94.5
3388.52	-65.5
3391.49	-68.5
3394.458	-60.5
3397.424	-30.5
3400.387	4.5
3403.348	-37.5
3406.307	-24.5
3409.263	-29.5
3412.217	-10.5
3415.168	-32.5
3418.118	-12.5
3421.065	-20.5
3424.009	-21.5
3426.951	-17.5
3429.891	-7.5
3432.829	-5.5
3435.764	-12.5
3438.697	-26.5
3441.628	18.5
3444.557	21.5
3447.483	-11.5
3450.407	15.5
3453.328	7.5
3456.247	-3.5
3459.164	0.5
3462.079	5.5
3464.991	5.5
3467.902	-5.5
3470.809	14.5
3473.715	12.5
3476.618	7.5
3479.519	-5.5
3482.418	27.5
3485.315	-1.5
3488.209	4.5
3491.101	-15.5
3493.99	21.5
3496.878	-12.5
3499.763	7.5
3502.646	-8.5
3505.527	-15.5
3508.405	-17.5
3511.281	-20.5
3514.155	-19.5
3517.027	-3.5
3519.897	6.5
3522.764	-14.5
3525.629	-32.5
3528.492	-0.5
3531.352	4.5
3534.211	-35.5
3537.067	-16.5
3539.921	-19.5
3542.773	-15.5
3545.622	-34.5
3548.469	-51.5
3551.315	-10.5
3554.157	-15.5
3556.998	-28.5
3559.837	-16.5
3562.673	-12.5
3565.507	-18.5
3568.339	-23.5
3571.169	-43.5
3573.996	-26.5
3576.822	-51.5
3579.645	-33.5
3582.466	-24.5
3585.285	-31.5
3588.101	-61.5
3590.916	-49.5
3593.728	-55.5
3596.538	-71.5
3599.346	-46.5
3602.152	-21.5
3604.956	-53.5
3607.757	-43.5
3610.556	-50.5
3613.354	-60.5
3616.149	-47.5
3618.942	-44.5
3621.732	-56.5
3624.521	-54.5
3627.307	-57.5
3630.092	-51.5
3632.874	-66.5
3635.654	-73.5
3638.432	-81.5
3641.208	-70.5
3643.982	-57.5
3646.753	-63.5
3649.523	-69.5
3652.29	-79.5
3655.055	-73.5
3657.818	-71.5
3660.579	-68.5
3663.338	-57.5
3666.095	-72.5
3668.849	-79.5
3671.602	-72.5
3674.352	-65.5
3677.101	-85.5
3679.847	-65.5
3682.591	-101.5
3685.333	-78.5
3688.073	-84.5
3690.811	-89.5
3693.547	-82.5
3696.281	-84.5
3699.013	-85.5
3701.742	-85.5
3704.47	-92.5
3707.195	-92.5
3709.919	-109.5
3712.64	-95.5
3715.359	-104.5
3718.076	-102.5
3720.792	-99.5
3723.505	-102.5
3726.216	-85.5
3728.925	-98.5
3731.632	-90.5
3734.336	-96.5
3737.039	-83.5
3739.74	-105.5
3742.439	-89.5
3745.136	-89.5
3747.83	-93.5
3750.523	-95.5
3753.213	-112.5
3755.902	-95.5
3758.589	-110.5
3761.273	-104.5
3763.956	-102.5
3766.636	-96.5
3769.315	-95.5
3771.991	-120.5
3774.665	-81.5
3777.338	-101.5
3780.008	-101.5
3782.677	-103.5
3785.343	-86.5
3788.007	-92.5
3790.67	-90.5
3793.33	-81.5
3795.989	-92.5
3798.645	-88.5
3801.299	-83.5
3803.952	-87.5
3806.602	-90.5
3809.251	-81.5
3811.897	-88.5
3814.542	-88.5
3817.184	-97.5
3819.825	-82.5
3822.463	-84.5
3825.1	-91.5
3827.735	-93.5
3830.367	-98.5
3832.998	-72.5
3835.627	-76.5
3838.253	-73.5
3840.878	-88.5
3843.501	-70.5
3846.122	-83.5
3848.741	-74.5
3851.358	-64.5
3853.973	-65.5
3856.586	-51.5
3859.197	-61.5
3861.806	-56.5
3864.414	-66.5
3867.019	-48.5
3869.622	-52.5
3872.224	-60.5
3874.823	-60.5
3877.421	-45.5
3880.016	-40.5
3882.61	-43.5
3885.202	-50.5
3887.792	-36.5
3890.38	-44.5
3892.966	-52.5
3895.55	-42.5
3898.132	-35.5
3900.713	-48.5
3903.291	-43.5
3905.868	-46.5
3908.442	-42.5
3911.015	-33.5
3913.586	-35.5
3916.155	-25.5
3918.722	-26.5
3921.287	-27.5
3923.85	-18.5
3926.411	-18.5
3928.971	-13.5
3931.528	-15.5
3934.084	-22.5
3936.638	-17.5
3939.19	-26.5
3941.74	-2.5
3944.288	-21.5
3946.834	-26.5
3949.378	-20.5
3951.921	-12.5
3954.462	-21.5
3957	-13.5
3959.537	-26.5
3962.072	-25.5
3964.606	-20.5
3967.137	-23.5
3969.667	-16.5
3972.194	-14.5
3974.72	-18.5
3977.244	-16.5
3979.766	-13.5
3982.286	-11.5
3984.805	-5.5
3987.321	-13.5
3989.836	-13.5
3992.349	-7.5
3994.86	-8.5
3997.369	-12.5
3999.877	-6.5
4002.382	-12.5
4004.886	-10.5
4007.388	-21.5
4009.888	-13.5
4012.386	-15.5
4014.883	-12.5
4017.377	-5.5
4019.87	0.5
4022.361	-10.5
4024.85	-10.5
4027.338	-11.5
4029.823	-12.5
4032.307	-18.5
4034.789	-8.5
4037.269	-13.5
4039.747	-0.5
4042.224	-4.5
4044.699	-13.5
4047.172	-7.5
4049.643	-5.5
4052.112	-9.5
4054.58	-6.5
4057.046	-8.5
4059.51	3.5
4061.972	-1.5
4064.432	-7.5
4066.891	4.5
4069.348	-7.5
4071.803	-7.5
4074.256	-0.5
4076.708	-5.5
4079.158	-5.5
4081.606	-7.5
4084.052	-4.5
4086.497	-8.5
4088.939	-7.5
4091.38	-0.5
4093.819	-4.5
4096.257	-7.5
4098.693	-2.5
4101.127	0.5
4103.559	2.5
4105.989	11.5
4108.418	1.5
4110.845	7.5
4113.27	8.5
4115.694	1.5
4118.115	13.5
4120.535	0.5
4122.954	-1.5
4125.37	-0.5
4127.785	-8.5
4130.198	-5.5
4132.609	-5.5
4135.019	2.5
4137.427	-4.5
4139.833	2.5
4142.237	2.5
