Data from SERSd_bac after alterations_I=0.5_T=50s_RamanShift_5.txt Node
Date: Wed Jun 14 15:45:34 IDT 2017
User: aro
Spectrometer: QEPB0276
Trigger mode: 0
Integration Time (sec): 1.000000E1
Scans to average: 5
Electric dark correction enabled: true
Nonlinearity correction enabled: false
Boxcar width: 5
XAxis mode: Raman Shifts
Number of Pixels in Spectrum: 1044
>>>>>Begin Spectral Data<<<<<
160.701	12.68
166.742	22.64
172.777	34.38
178.805	44.48
184.826	52.77
190.841	60.22
196.849	73.1
202.85	86.5
208.845	99
214.833	111.24
220.815	121.59
226.789	129.88
232.758	134.06
238.719	135.44
244.674	135.26
250.623	135.13
256.565	133.91
262.5	132.08
268.429	129.28
274.351	126.6
280.267	123.6
286.176	122.28
292.079	120.99
297.975	121.33
303.865	122.71
309.748	125.71
315.625	129.24
321.495	132.82
327.359	137.17
333.217	141.97
339.068	146.77
344.912	152.02
350.751	155.82
356.583	159.26
362.408	161.86
368.227	163.02
374.04	163.9
379.847	162.68
385.647	162.44
391.44	160.3
397.228	157.04
403.009	154.4
408.784	153.5
414.553	152.08
420.315	152.06
426.071	151.93
431.821	151.55
437.565	151.04
443.302	152.22
449.033	153.04
454.758	156.39
460.477	160.19
466.189	164.59
471.896	167.31
477.596	171.91
483.29	175.3
488.978	177.1
494.66	176.93
500.335	174.6
506.005	170.71
511.668	166.46
517.325	162.2
522.977	158.86
528.622	154.79
534.261	150.82
539.894	147.06
545.521	143.19
551.141	141.42
556.756	141.97
562.365	143.93
567.968	147.46
573.565	152.13
579.155	155.88
584.74	158.02
590.319	161.06
595.892	163.39
601.459	164.4
607.02	165.04
612.575	165.4
618.124	166.06
623.667	166.95
629.204	167.59
634.735	167.33
640.261	166.42
645.781	167.4
651.294	167.22
656.802	167.66
662.304	168.5
667.8	170.44
673.29	171.86
678.775	173.17
684.254	174.82
689.726	176.33
695.193	177.35
700.655	178.44
706.11	178.75
711.56	178.57
717.004	178.99
722.442	178.91
727.874	178.37
733.301	178.35
738.722	178.11
744.137	177.59
749.547	176.68
754.951	176.31
760.349	176.75
765.741	177.15
771.128	177.97
776.509	178.53
781.885	178.66
787.254	179.06
792.618	178.99
797.977	179.62
803.33	179.31
808.677	180.44
814.019	180.95
819.355	180.6
824.686	180.3
830.011	181
835.33	180.35
840.644	180.8
845.952	180.64
851.255	181.11
856.552	180.5
861.844	181.84
867.13	181.48
872.41	182.08
877.686	182.57
882.955	183.35
888.219	183.26
893.478	184.51
898.731	185.68
903.979	186.71
909.221	187.06
914.458	187.11
919.69	185.33
924.916	184.84
930.136	183.48
935.351	183.71
940.561	183.51
945.766	183.93
950.965	183
956.158	182.73
961.347	182.37
966.529	183.37
971.707	186.33
976.879	191.2
982.046	196.04
987.208	201.57
992.364	207.02
997.515	213.1
1002.66	219.02
1007.801	227.17
1012.936	235.31
1018.066	244.88
1023.19	254.15
1028.309	263.06
1033.423	272.02
1038.532	281.8
1043.636	292.46
1048.734	304.46
1053.827	317.48
1058.915	332.97
1063.998	348.82
1069.075	366.15
1074.147	385.26
1079.214	405.62
1084.276	427.75
1089.333	450.28
1094.385	473.68
1099.431	497.79
1104.472	521.95
1109.509	547
1114.54	571.93
1119.565	598.5
1124.586	625.08
1129.602	652.99
1134.613	681.9
1139.618	711.4
1144.619	743.26
1149.614	776.57
1154.604	810.55
1159.589	843.59
1164.57	878.1
1169.545	912.13
1174.515	945.13
1179.48	980.2
1184.44	1014.17
1189.395	1048.88
1194.345	1084.97
1199.29	1121.15
1204.23	1157.62
1209.165	1195.5
1214.095	1235.44
1219.021	1274.57
1223.941	1313.75
1228.856	1352.46
1233.766	1388.37
1238.672	1423.1
1243.572	1455.97
1248.467	1486.86
1253.358	1518.28
1258.244	1552.55
1263.124	1589.97
1268	1632.99
1272.871	1683.93
1277.737	1744.93
1282.599	1818.79
1287.455	1907.04
1292.306	2010.33
1297.153	2129.75
1301.995	2266.75
1306.832	2419.55
1311.664	2590.75
1316.491	2782.04
1321.314	2994.79
1326.132	3232.64
1330.945	3494.5
1335.753	3777.37
1340.556	4074.2
1345.354	4376.33
1350.148	4670.64
1354.937	4940.46
1359.722	5175.22
1364.501	5358.73
1369.276	5483.62
1374.046	5545.33
1378.811	5543.11
1383.572	5485.04
1388.327	5376.42
1393.079	5227.1
1397.825	5049.59
1402.567	4858.02
1407.304	4667.48
1412.036	4491.66
1416.764	4341.48
1421.487	4224.86
1426.205	4141.57
1430.919	4086.28
1435.628	4051.86
1440.333	4031.93
1445.032	4025.97
1449.727	4029.42
1454.418	4040.9
1459.104	4062.51
1463.785	4092.95
1468.462	4134.86
1473.134	4188.3
1477.802	4254.08
1482.465	4333.4
1487.123	4426.02
1491.777	4529.02
1496.426	4634.28
1501.071	4736.26
1505.711	4825.62
1510.347	4892.04
1514.978	4933.75
1519.604	4943.59
1524.226	4919.33
1528.844	4860.97
1533.457	4771.91
1538.065	4653.79
1542.669	4511.9
1547.269	4354.75
1551.864	4190.02
1556.454	4028.35
1561.041	3875.77
1565.622	3733.73
1570.199	3607.15
1574.772	3495.53
1579.34	3399.13
1583.904	3314.9
1588.464	3242
1593.019	3178.86
1597.569	3123.33
1602.115	3074.35
1606.657	3030.6
1611.195	2997.15
1615.728	2973.08
1620.256	2956
1624.78	2950.26
1629.3	2952.35
1633.816	2963.73
1638.327	2983.75
1642.834	3010.46
1647.336	3041.51
1651.834	3075.9
1656.328	3115.44
1660.817	3157.44
1665.302	3205.99
1669.783	3263.7
1674.259	3328.08
1678.732	3398.93
1683.199	3465.91
1687.663	3521.04
1692.122	3562.66
1696.577	3587.24
1701.028	3596.73
1705.474	3589.91
1709.917	3569.79
1714.355	3529.42
1718.788	3471.64
1723.218	3393
1727.643	3300.66
1732.064	3201.28
1736.481	3102.84
1740.893	3014.28
1745.301	2940.35
1749.705	2881.26
1754.105	2838.26
1758.501	2809.9
1762.893	2801.3
1767.28	2812.55
1771.663	2843.91
1776.042	2890.3
1780.417	2949.8
1784.787	3012.91
1789.154	3070.31
1793.516	3114.44
1797.874	3141.57
1802.228	3149.04
1806.578	3138.79
1810.924	3109.48
1815.266	3061.02
1819.603	2996.62
1823.937	2920.59
1828.266	2838.22
1832.591	2758.99
1836.913	2687.24
1841.23	2632.53
1845.543	2595.55
1849.852	2576.11
1854.156	2571.57
1858.457	2579.1
1862.754	2595.46
1867.047	2618.1
1871.335	2645.26
1875.62	2673.39
1879.9	2703.26
1884.177	2734.42
1888.449	2765.08
1892.718	2794.17
1896.982	2824.15
1901.243	2851.95
1905.499	2878.04
1909.752	2902.48
1914	2925.19
1918.245	2942.4
1922.485	2954.1
1926.722	2955.2
1930.954	2944.11
1935.183	2916.68
1939.408	2873.93
1943.628	2812.48
1947.845	2733.57
1952.058	2638.71
1956.267	2529.95
1960.472	2409.17
1964.673	2279.73
1968.87	2145.68
1973.063	2010.19
1977.252	1877.06
1981.438	1749.48
1985.619	1630.71
1989.797	1521.71
1993.971	1422.28
1998.14	1332.04
2002.306	1249.88
2006.469	1174.1
2010.627	1105.55
2014.781	1042.17
2018.932	984.71
2023.078	932.4
2027.221	884.9
2031.36	839.46
2035.495	797.82
2039.627	760.9
2043.754	728.53
2047.878	698.71
2051.998	671.97
2056.114	648.59
2060.226	628.06
2064.334	609.33
2068.439	591.9
2072.54	576.19
2076.637	561.9
2080.73	546.91
2084.82	531.31
2088.906	514.66
2092.988	498.57
2097.066	482.3
2101.14	464.84
2105.211	446.99
2109.278	428.48
2113.342	408.84
2117.401	389.26
2121.457	369.86
2125.509	351.15
2129.558	332.62
2133.602	314.26
2137.643	295.77
2141.681	278.79
2145.714	262.44
2149.744	245.79
2153.77	230.2
2157.793	215.77
2161.812	201.57
2165.827	187.99
2169.838	175.31
2173.846	163.59
2177.851	152.79
2181.851	142.77
2185.848	132.55
2189.841	123.71
2193.831	115.7
2197.817	108.33
2201.799	101.11
2205.778	94.66
2209.753	88.02
2213.725	82.46
2217.693	75.91
2221.657	70.3
2225.618	64.7
2229.575	59.42
2233.529	53.91
2237.479	48.57
2241.425	43.04
2245.368	38.64
2249.307	33.97
2253.243	29.3
2257.175	24.17
2261.104	19.64
2265.029	14.73
2268.95	10.39
2272.868	5.95
2276.783	1.77
2280.694	-3.1
2284.601	-7.76
2288.505	-13.36
2292.405	-18.27
2296.302	-23.47
2300.195	-29.18
2304.085	-33.47
2307.971	-38.74
2311.854	-44.81
2315.734	-50.74
2319.609	-56.5
2323.482	-62.03
2327.351	-68.8
2331.216	-74.65
2335.078	-81.1
2338.937	-86.89
2342.792	-93.03
2346.643	-99.83
2350.492	-106.78
2354.336	-112.4
2358.178	-118.67
2362.015	-125.45
2365.85	-131.61
2369.681	-137.43
2373.508	-143.9
2377.333	-150.3
2381.153	-156.49
2384.971	-162.4
2388.785	-168.32
2392.595	-173.54
2396.402	-179.6
2400.206	-185.47
2404.007	-191.2
2407.804	-196.81
2411.597	-201.94
2415.388	-207.21
2419.174	-212.65
2422.958	-218.32
2426.738	-223.74
2430.515	-229.65
2434.289	-235.8
2438.059	-240.85
2441.825	-245.63
2445.589	-250.76
2449.349	-255.87
2453.106	-261.23
2456.859	-266.03
2460.61	-272.05
2464.356	-276.83
2468.1	-282.32
2471.84	-287.98
2475.577	-293.41
2479.311	-300.29
2483.041	-306.34
2486.768	-313.01
2490.492	-319.41
2494.213	-326
2497.93	-333.76
2501.644	-339.98
2505.355	-347.25
2509.062	-353.85
2512.766	-359.14
2516.467	-365.52
2520.165	-371.72
2523.859	-378.05
2527.551	-384.12
2531.239	-390.61
2534.923	-397.1
2538.605	-402.49
2542.283	-408.69
2545.958	-414.45
2549.63	-419.89
2553.299	-426.32
2556.964	-430.83
2560.626	-435.65
2564.285	-440.2
2567.941	-444.45
2571.594	-448.23
2575.243	-452.14
2578.89	-455.52
2582.533	-458.01
2586.173	-460.94
2589.809	-464.3
2593.443	-467.49
2597.073	-471.2
2600.701	-475.03
2604.325	-479.18
2607.946	-484.12
2611.564	-488.2
2615.178	-492.05
2618.79	-496.67
2622.398	-501.09
2626.004	-506.29
2629.606	-510.38
2633.205	-514.7
2636.801	-518.96
2640.394	-521.61
2643.983	-525.07
2647.57	-527.92
2651.153	-531.2
2654.734	-534.23
2658.311	-537.25
2661.885	-540.92
2665.456	-544.07
2669.025	-547.69
2672.589	-551.18
2676.151	-554.18
2679.71	-558.23
2683.266	-561.61
2686.819	-564.56
2690.368	-567.83
2693.915	-571.43
2697.458	-573.98
2700.999	-577.32
2704.536	-580.61
2708.071	-585.21
2711.602	-589.92
2715.13	-595.89
2718.656	-602.6
2722.178	-609.9
2725.697	-616.9
2729.214	-624.69
2732.727	-631.56
2736.237	-638.63
2739.744	-642.89
2743.249	-646.1
2746.75	-646.56
2750.248	-645.29
2753.743	-641.63
2757.236	-636.38
2760.725	-630.14
2764.211	-624.78
2767.695	-619.29
2771.175	-614.18
2774.652	-610.61
2778.127	-609.36
2781.598	-608.92
2785.067	-610.36
2788.532	-613.23
2791.995	-617.74
2795.455	-623.03
2798.911	-629.38
2802.365	-634.7
2805.816	-639.14
2809.264	-643.32
2812.709	-647.7
2816.151	-649.94
2819.59	-652.34
2823.026	-654.38
2826.46	-656.03
2829.89	-657.81
2833.318	-658.43
2836.742	-659.07
2840.164	-658.32
2843.583	-658.07
2846.999	-658.07
2850.412	-656.52
2853.822	-655.98
2857.229	-654.16
2860.634	-651.63
2864.035	-648.56
2867.434	-645
2870.83	-641.05
2874.223	-635.61
2877.613	-630.76
2881	-625.72
2884.385	-620.32
2887.766	-614.03
2891.145	-607.49
2894.521	-601.9
2897.894	-596.52
2901.264	-591.34
2904.631	-586.54
2907.996	-582.87
2911.358	-579.65
2914.717	-577.38
2918.073	-575.61
2921.426	-573.76
2924.777	-572.52
2928.124	-571.61
2931.469	-570.65
2934.811	-570.67
2938.15	-570.36
2941.487	-569.8
2944.821	-569.1
2948.152	-568.47
2951.48	-567.7
2954.805	-566.25
2958.128	-564.9
2961.447	-563.8
2964.765	-562.7
2968.079	-561.69
2971.39	-559.47
2974.699	-557.67
2978.005	-554.6
2981.308	-550.81
2984.609	-547.21
2987.907	-542.2
2991.202	-536.87
2994.494	-530.52
2997.784	-523.56
3001.07	-515.65
3004.355	-506.14
3007.636	-497.58
3010.915	-487.9
3014.191	-479.27
3017.464	-471.25
3020.734	-462.3
3024.002	-454.92
3027.267	-448.29
3030.53	-442.52
3033.789	-437.5
3037.046	-432.9
3040.301	-430.58
3043.552	-427.76
3046.801	-425.85
3050.048	-424.21
3053.291	-422.85
3056.532	-422.29
3059.771	-421.9
3063.006	-420.78
3066.239	-419.05
3069.469	-416.83
3072.697	-414.8
3075.922	-411.85
3079.144	-408.05
3082.364	-403.94
3085.581	-400.4
3088.795	-395.61
3092.007	-390.18
3095.216	-384.2
3098.423	-378.03
3101.627	-372
3104.828	-366.78
3108.026	-360.72
3111.222	-353.92
3114.416	-347.49
3117.607	-341.52
3120.795	-335.05
3123.98	-328.29
3127.163	-321.32
3130.344	-314.8
3133.521	-307.94
3136.696	-300.45
3139.869	-291.89
3143.039	-283.16
3146.206	-274.5
3149.371	-265.94
3152.533	-257.29
3155.693	-247.05
3158.85	-237.45
3162.005	-227.63
3165.157	-216.49
3168.306	-205.81
3171.453	-194.87
3174.597	-183.63
3177.739	-173.3
3180.878	-162.52
3184.014	-151.47
3187.149	-140.27
3190.28	-129.12
3193.409	-117.03
3196.536	-104
3199.659	-91.03
3202.781	-77.45
3205.9	-63.4
3209.016	-48.81
3212.13	-34.14
3215.241	-19.03
3218.35	-3.03
3221.456	15.3
3224.56	33.46
3227.661	51.6
3230.76	69.75
3233.856	88.28
3236.95	107.15
3240.041	125.93
3243.13	145.11
3246.216	164.13
3249.3	183.08
3252.382	201.6
3255.46	218.04
3258.537	234.66
3261.611	249.66
3264.682	262.64
3267.751	274.53
3270.818	283.44
3273.882	289.39
3276.943	292.35
3280.002	293.06
3283.059	290.6
3286.113	285.55
3289.165	278.77
3292.214	269.13
3295.261	257.8
3298.306	245.73
3301.348	232
3304.387	217.9
3307.425	203.7
3310.459	190.24
3313.492	176.84
3316.521	163.79
3319.549	151.84
3322.574	139.39
3325.597	127.75
3328.617	117.37
3331.635	106.48
3334.65	96.08
3337.663	86.59
3340.674	77.77
3343.682	68.44
3346.688	59.71
3349.691	51.59
3352.692	43.39
3355.691	36.17
3358.687	28.62
3361.681	20.04
3364.673	13.2
3367.662	6.1
3370.649	-0.74
3373.633	-7.2
3376.615	-13.14
3379.595	-18.94
3382.572	-24.32
3385.547	-29.81
3388.52	-35.49
3391.49	-40.34
3394.458	-44.2
3397.424	-49.12
3400.387	-53.14
3403.348	-56.72
3406.307	-60.49
3409.263	-64.81
3412.217	-68.43
3415.168	-72.09
3418.118	-75.7
3421.065	-78.9
3424.009	-82.6
3426.951	-85.8
3429.891	-88.23
3432.829	-91.23
3435.764	-93.96
3438.697	-96.9
3441.628	-98.8
3444.557	-100.72
3447.483	-101.76
3450.407	-103.29
3453.328	-104.85
3456.247	-105.87
3459.164	-106.61
3462.079	-107.69
3464.991	-108.23
3467.902	-108.87
3470.809	-108.76
3473.715	-109.89
3476.618	-110.72
3479.519	-111.87
3482.418	-112.5
3485.315	-113.4
3488.209	-113.89
3491.101	-115.16
3493.99	-116.05
3496.878	-116.96
3499.763	-118.45
3502.646	-119.03
3505.527	-119.29
3508.405	-119.14
3511.281	-119.4
3514.155	-119.3
3517.027	-118.4
3519.897	-118.14
3522.764	-117.52
3525.629	-116.41
3528.492	-115.7
3531.352	-113.8
3534.211	-113.43
3537.067	-112
3539.921	-110.89
3542.773	-109.96
3545.622	-108.89
3548.469	-108.34
3551.315	-106.98
3554.157	-106.21
3556.998	-105.58
3559.837	-104.87
3562.673	-104.14
3565.507	-102.98
3568.339	-101.83
3571.169	-101.05
3573.996	-99.61
3576.822	-98.5
3579.645	-97.2
3582.466	-95.83
3585.285	-93.76
3588.101	-92.38
3590.916	-90.47
3593.728	-88.72
3596.538	-87.27
3599.346	-86.12
3602.152	-84.58
3604.956	-83.32
3607.757	-82
3610.556	-80.21
3613.354	-79.18
3616.149	-78.3
3618.942	-77.16
3621.732	-76.32
3624.521	-75.43
3627.307	-74.5
3630.092	-74.01
3632.874	-73.34
3635.654	-72.67
3638.432	-72.2
3641.208	-71.94
3643.982	-71.76
3646.753	-71.34
3649.523	-71.18
3652.29	-71.03
3655.055	-71.1
3657.818	-71.12
3660.579	-70.72
3663.338	-70.83
3666.095	-70.85
3668.849	-70.8
3671.602	-71.1
3674.352	-71.14
3677.101	-71.4
3679.847	-71.74
3682.591	-71.54
3685.333	-71.56
3688.073	-71.58
3690.811	-71.83
3693.547	-72
3696.281	-72.21
3699.013	-72.21
3701.742	-72.23
3704.47	-72.38
3707.195	-72.74
3709.919	-72.56
3712.64	-72.81
3715.359	-72.72
3718.076	-72.81
3720.792	-72.41
3723.505	-72.21
3726.216	-72.01
3728.925	-72.16
3731.632	-72.12
3734.336	-71.87
3737.039	-70.92
3739.74	-70.76
3742.439	-70.29
3745.136	-70.16
3747.83	-69.38
3750.523	-69.23
3753.213	-68.98
3755.902	-68.43
3758.589	-68.14
3761.273	-67.9
3763.956	-67.45
3766.636	-67.23
3769.315	-66.56
3771.991	-66.1
3774.665	-65.69
3777.338	-65.1
3780.008	-64.6
3782.677	-63.83
3785.343	-63.3
3788.007	-62.1
3790.67	-61.14
3793.33	-60.38
3795.989	-59.78
3798.645	-59.05
3801.299	-58.16
3803.952	-57.07
3806.602	-56.7
3809.251	-56.2
3811.897	-55.54
3814.542	-54.92
3817.184	-54.43
3819.825	-53.61
3822.463	-52.98
3825.1	-52.21
3827.735	-51.49
3830.367	-50.78
3832.998	-50.12
3835.627	-49.47
3838.253	-48.27
3840.878	-47.54
3843.501	-46.69
3846.122	-45.89
3848.741	-44.87
3851.358	-43.81
3853.973	-43.01
3856.586	-41.87
3859.197	-40.87
3861.806	-40.1
3864.414	-39.1
3867.019	-38.32
3869.622	-37.58
3872.224	-36.9
3874.823	-36.3
3877.421	-35.83
3880.016	-34.98
3882.61	-33.81
3885.202	-33.34
3887.792	-32.58
3890.38	-31.45
3892.966	-30.41
3895.55	-29.52
3898.132	-28.49
3900.713	-27.2
3903.291	-25.9
3905.868	-24.85
3908.442	-23.98
3911.015	-23.27
3913.586	-22.2
3916.155	-21.25
3918.722	-20.61
3921.287	-19.96
3923.85	-19.01
3926.411	-18.23
3928.971	-17.74
3931.528	-17.2
3934.084	-16.49
3936.638	-15.9
3939.19	-15.56
3941.74	-15.12
3944.288	-15.05
3946.834	-14.94
3949.378	-14.69
3951.921	-14.74
3954.462	-14.54
3957	-14.56
3959.537	-14.21
3962.072	-14.18
3964.606	-13.98
3967.137	-13.63
3969.667	-13.36
3972.194	-12.94
3974.72	-12.63
3977.244	-12.21
3979.766	-11.87
3982.286	-11.74
3984.805	-11.43
3987.321	-11.69
3989.836	-11.41
3992.349	-11.56
3994.86	-11.36
3997.369	-11.38
3999.877	-11.41
4002.382	-11.25
4004.886	-11.32
4007.388	-11.21
4009.888	-11.07
4012.386	-10.81
4014.883	-10.32
4017.377	-10
4019.87	-9.67
4022.361	-9.61
4024.85	-9.41
4027.338	-9.29
4029.823	-9.09
4032.307	-8.8
4034.789	-8.65
4037.269	-8.49
4039.747	-8.49
4042.224	-8.36
4044.699	-8.5
4047.172	-8.36
4049.643	-8.21
4052.112	-7.92
4054.58	-7.49
4057.046	-7.34
4059.51	-7.23
4061.972	-7.05
4064.432	-6.61
4066.891	-6.2
4069.348	-6.05
4071.803	-5.9
4074.256	-5.67
4076.708	-5.32
4079.158	-5.1
4081.606	-5.27
4084.052	-4.98
4086.497	-4.63
4088.939	-4.61
4091.38	-4.52
4093.819	-4.4
4096.257	-4.1
4098.693	-3.96
4101.127	-3.4
4103.559	-3.3
4105.989	-3.07
4108.418	-2.98
4110.845	-3.1
4113.27	-3.38
4115.694	-3.29
4118.115	-3.49
4120.535	-3.72
4122.954	-3.76
4125.37	-3.52
4127.785	-3.89
4130.198	-3.85
4132.609	-4.23
4135.019	-4.09
4137.427	-4.02
4139.833	-3.76
4142.237	-3.58
