Data from Water3_10CFU_RamanShift_11-11-18-915_RamanShift_14-19-10-535.txt Node
Date: Sun Dec 18 14:19:10 IST 2016
User: aro
Spectrometer: QEPB0276
Trigger mode: 0
Integration Time (sec): 5.000000E0
Scans to average: 1
Electric dark correction enabled: true
Nonlinearity correction enabled: false
Boxcar width: 0
XAxis mode: Raman Shifts
Number of Pixels in Spectrum: 1044
>>>>>Begin Spectral Data<<<<<
160.701	3.25
166.742	23.25
172.777	67.25
178.805	209.25
184.826	650.25
190.841	1523.25
196.849	2839.25
202.85	4053.25
208.845	4696.25
214.833	4710.25
220.815	4547.25
226.789	4372.25
232.758	4264.25
238.719	4133.25
244.674	3987.25
250.623	3832.25
256.565	3669.25
262.5	3504.25
268.429	3347.25
274.351	3198.25
280.267	3081.25
286.176	2959.25
292.079	2867.25
297.975	2770.25
303.865	2662.25
309.748	2599.25
315.625	2511.25
321.495	2462.25
327.359	2428.25
333.217	2388.25
339.068	2347.25
344.912	2332.25
350.751	2336.25
356.583	2333.25
362.408	2312.25
368.227	2318.25
374.04	2321.25
379.847	2327.25
385.647	2348.25
391.44	2337.25
397.228	2334.25
403.009	2361.25
408.784	2356.25
414.553	2386.25
420.315	2385.25
426.071	2382.25
431.821	2388.25
437.565	2380.25
443.302	2386.25
449.033	2373.25
454.758	2361.25
460.477	2347.25
466.189	2360.25
471.896	2345.25
477.596	2317.25
483.29	2318.25
488.978	2311.25
494.66	2290.25
500.335	2269.25
506.005	2238.25
511.668	2208.25
517.325	2176.25
522.977	2125.25
528.622	2098.25
534.261	2081.25
539.894	2055.25
545.521	2024.25
551.141	2019.25
556.756	2014.25
562.365	2003.25
567.968	1983.25
573.565	1974.25
579.155	1965.25
584.74	1967.25
590.319	1950.25
595.892	1934.25
601.459	1924.25
607.02	1911.25
612.575	1881.25
618.124	1868.25
623.667	1855.25
629.204	1845.25
634.735	1821.25
640.261	1808.25
645.781	1784.25
651.294	1770.25
656.802	1787.25
662.304	1770.25
667.8	1756.25
673.29	1751.25
678.775	1745.25
684.254	1731.25
689.726	1728.25
695.193	1727.25
700.655	1701.25
706.11	1704.25
711.56	1698.25
717.004	1684.25
722.442	1676.25
727.874	1670.25
733.301	1652.25
738.722	1646.25
744.137	1630.25
749.547	1635.25
754.951	1636.25
760.349	1628.25
765.741	1622.25
771.128	1624.25
776.509	1603.25
781.885	1620.25
787.254	1620.25
792.618	1615.25
797.977	1599.25
803.33	1601.25
808.677	1579.25
814.019	1551.25
819.355	1548.25
824.686	1531.25
830.011	1526.25
835.33	1511.25
840.644	1508.25
845.952	1492.25
851.255	1495.25
856.552	1511.25
861.844	1492.25
867.13	1474.25
872.41	1463.25
877.686	1462.25
882.955	1441.25
888.219	1434.25
893.478	1398.25
898.731	1390.25
903.979	1369.25
909.221	1351.25
914.458	1332.25
919.69	1325.25
924.916	1339.25
930.136	1315.25
935.351	1309.25
940.561	1317.25
945.766	1313.25
950.965	1315.25
956.158	1303.25
961.347	1293.25
966.529	1268.25
971.707	1255.25
976.879	1248.25
982.046	1251.25
987.208	1233.25
992.364	1210.25
997.515	1224.25
1002.66	1214.25
1007.801	1243.25
1012.936	1242.25
1018.066	1259.25
1023.19	1263.25
1028.309	1271.25
1033.423	1267.25
1038.532	1266.25
1043.636	1251.25
1048.734	1242.25
1053.827	1226.25
1058.915	1212.25
1063.998	1221.25
1069.075	1210.25
1074.147	1200.25
1079.214	1224.25
1084.276	1212.25
1089.333	1214.25
1094.385	1245.25
1099.431	1251.25
1104.472	1247.25
1109.509	1246.25
1114.54	1234.25
1119.565	1212.25
1124.586	1220.25
1129.602	1189.25
1134.613	1198.25
1139.618	1166.25
1144.619	1170.25
1149.614	1170.25
1154.604	1166.25
1159.589	1178.25
1164.57	1190.25
1169.545	1194.25
1174.515	1188.25
1179.48	1209.25
1184.44	1197.25
1189.395	1198.25
1194.345	1182.25
1199.29	1165.25
1204.23	1178.25
1209.165	1167.25
1214.095	1176.25
1219.021	1193.25
1223.941	1207.25
1228.856	1219.25
1233.766	1195.25
1238.672	1221.25
1243.572	1230.25
1248.467	1199.25
1253.358	1194.25
1258.244	1192.25
1263.124	1190.25
1268	1156.25
1272.871	1141.25
1277.737	1143.25
1282.599	1133.25
1287.455	1130.25
1292.306	1149.25
1297.153	1127.25
1301.995	1155.25
1306.832	1165.25
1311.664	1140.25
1316.491	1161.25
1321.314	1159.25
1326.132	1158.25
1330.945	1150.25
1335.753	1142.25
1340.556	1128.25
1345.354	1120.25
1350.148	1102.25
1354.937	1079.25
1359.722	1069.25
1364.501	1073.25
1369.276	1065.25
1374.046	1054.25
1378.811	1055.25
1383.572	1056.25
1388.327	1051.25
1393.079	1059.25
1397.825	1051.25
1402.567	1045.25
1407.304	1039.25
1412.036	1025.25
1416.764	1035.25
1421.487	1033.25
1426.205	1031.25
1430.919	1039.25
1435.628	1052.25
1440.333	1045.25
1445.032	1056.25
1449.727	1061.25
1454.418	1070.25
1459.104	1074.25
1463.785	1077.25
1468.462	1066.25
1473.134	1054.25
1477.802	1038.25
1482.465	1027.25
1487.123	1019.25
1491.777	1022.25
1496.426	1029.25
1501.071	1049.25
1505.711	1039.25
1510.347	1050.25
1514.978	1066.25
1519.604	1072.25
1524.226	1081.25
1528.844	1068.25
1533.457	1084.25
1538.065	1078.25
1542.669	1090.25
1547.269	1075.25
1551.864	1083.25
1556.454	1098.25
1561.041	1095.25
1565.622	1106.25
1570.199	1115.25
1574.772	1133.25
1579.34	1158.25
1583.904	1179.25
1588.464	1207.25
1593.019	1220.25
1597.569	1240.25
1602.115	1262.25
1606.657	1245.25
1611.195	1267.25
1615.728	1261.25
1620.256	1289.25
1624.78	1293.25
1629.3	1328.25
1633.816	1337.25
1638.327	1356.25
1642.834	1352.25
1647.336	1380.25
1651.834	1385.25
1656.328	1379.25
1660.817	1388.25
1665.302	1366.25
1669.783	1336.25
1674.259	1328.25
1678.732	1273.25
1683.199	1247.25
1687.663	1196.25
1692.122	1168.25
1696.577	1134.25
1701.028	1072.25
1705.474	1023.25
1709.917	1004.25
1714.355	968.25
1718.788	946.25
1723.218	931.25
1727.643	923.25
1732.064	904.25
1736.481	890.25
1740.893	857.25
1745.301	834.25
1749.705	832.25
1754.105	801.25
1758.501	785.25
1762.893	765.25
1767.28	762.25
1771.663	754.25
1776.042	733.25
1780.417	741.25
1784.787	744.25
1789.154	737.25
1793.516	753.25
1797.874	742.25
1802.228	735.25
1806.578	724.25
1810.924	710.25
1815.266	698.25
1819.603	698.25
1823.937	689.25
1828.266	686.25
1832.591	691.25
1836.913	672.25
1841.23	681.25
1845.543	681.25
1849.852	673.25
1854.156	678.25
1858.457	669.25
1862.754	680.25
1867.047	679.25
1871.335	690.25
1875.62	675.25
1879.9	684.25
1884.177	684.25
1888.449	691.25
1892.718	685.25
1896.982	680.25
1901.243	691.25
1905.499	671.25
1909.752	667.25
1914	668.25
1918.245	670.25
1922.485	672.25
1926.722	656.25
1930.954	685.25
1935.183	672.25
1939.408	669.25
1943.628	686.25
1947.845	685.25
1952.058	689.25
1956.267	675.25
1960.472	677.25
1964.673	668.25
1968.87	666.25
1973.063	654.25
1977.252	653.25
1981.438	655.25
1985.619	648.25
1989.797	650.25
1993.971	642.25
1998.14	645.25
2002.306	643.25
2006.469	648.25
2010.627	662.25
2014.781	658.25
2018.932	661.25
2023.078	661.25
2027.221	661.25
2031.36	654.25
2035.495	657.25
2039.627	652.25
2043.754	645.25
2047.878	642.25
2051.998	637.25
2056.114	637.25
2060.226	644.25
2064.334	640.25
2068.439	657.25
2072.54	659.25
2076.637	660.25
2080.73	654.25
2084.82	653.25
2088.906	656.25
2092.988	656.25
2097.066	659.25
2101.14	643.25
2105.211	644.25
2109.278	651.25
2113.342	638.25
2117.401	641.25
2121.457	635.25
2125.509	630.25
2129.558	639.25
2133.602	625.25
2137.643	631.25
2141.681	624.25
2145.714	621.25
2149.744	627.25
2153.77	620.25
2157.793	606.25
2161.812	607.25
2165.827	603.25
2169.838	589.25
2173.846	585.25
2177.851	574.25
2181.851	567.25
2185.848	572.25
2189.841	578.25
2193.831	553.25
2197.817	563.25
2201.799	545.25
2205.778	553.25
2209.753	545.25
2213.725	542.25
2217.693	540.25
2221.657	550.25
2225.618	541.25
2229.575	545.25
2233.529	535.25
2237.479	532.25
2241.425	526.25
2245.368	520.25
2249.307	519.25
2253.243	519.25
2257.175	510.25
2261.104	511.25
2265.029	496.25
2268.95	492.25
2272.868	481.25
2276.783	482.25
2280.694	479.25
2284.601	464.25
2288.505	452.25
2292.405	455.25
2296.302	444.25
2300.195	450.25
2304.085	441.25
2307.971	434.25
2311.854	429.25
2315.734	423.25
2319.609	420.25
2323.482	428.25
2327.351	410.25
2331.216	404.25
2335.078	412.25
2338.937	399.25
2342.792	385.25
2346.643	393.25
2350.492	398.25
2354.336	400.25
2358.178	391.25
2362.015	395.25
2365.85	403.25
2369.681	397.25
2373.508	398.25
2377.333	398.25
2381.153	388.25
2384.971	396.25
2388.785	401.25
2392.595	396.25
2396.402	392.25
2400.206	400.25
2404.007	387.25
2407.804	388.25
2411.597	383.25
2415.388	388.25
2419.174	381.25
2422.958	381.25
2426.738	375.25
2430.515	388.25
2434.289	378.25
2438.059	385.25
2441.825	369.25
2445.589	373.25
2449.349	363.25
2453.106	357.25
2456.859	364.25
2460.61	357.25
2464.356	353.25
2468.1	345.25
2471.84	359.25
2475.577	346.25
2479.311	344.25
2483.041	346.25
2486.768	358.25
2490.492	355.25
2494.213	360.25
2497.93	352.25
2501.644	353.25
2505.355	347.25
2509.062	354.25
2512.766	351.25
2516.467	349.25
2520.165	352.25
2523.859	347.25
2527.551	345.25
2531.239	343.25
2534.923	330.25
2538.605	331.25
2542.283	333.25
2545.958	316.25
2549.63	324.25
2553.299	321.25
2556.964	318.25
2560.626	319.25
2564.285	321.25
2567.941	322.25
2571.594	317.25
2575.243	314.25
2578.89	305.25
2582.533	312.25
2586.173	310.25
2589.809	304.25
2593.443	303.25
2597.073	305.25
2600.701	306.25
2604.325	302.25
2607.946	303.25
2611.564	296.25
2615.178	301.25
2618.79	298.25
2622.398	296.25
2626.004	295.25
2629.606	296.25
2633.205	289.25
2636.801	293.25
2640.394	289.25
2643.983	281.25
2647.57	278.25
2651.153	285.25
2654.734	280.25
2658.311	277.25
2661.885	267.25
2665.456	265.25
2669.025	272.25
2672.589	264.25
2676.151	269.25
2679.71	269.25
2683.266	268.25
2686.819	264.25
2690.368	258.25
2693.915	257.25
2697.458	252.25
2700.999	251.25
2704.536	247.25
2708.071	246.25
2711.602	252.25
2715.13	239.25
2718.656	240.25
2722.178	250.25
2725.697	237.25
2729.214	235.25
2732.727	239.25
2736.237	236.25
2739.744	238.25
2743.249	244.25
2746.75	244.25
2750.248	239.25
2753.743	242.25
2757.236	239.25
2760.725	240.25
2764.211	237.25
2767.695	233.25
2771.175	235.25
2774.652	228.25
2778.127	231.25
2781.598	232.25
2785.067	227.25
2788.532	234.25
2791.995	227.25
2795.455	233.25
2798.911	237.25
2802.365	237.25
2805.816	240.25
2809.264	233.25
2812.709	238.25
2816.151	237.25
2819.59	237.25
2823.026	233.25
2826.46	236.25
2829.89	236.25
2833.318	234.25
2836.742	242.25
2840.164	239.25
2843.583	247.25
2846.999	244.25
2850.412	244.25
2853.822	248.25
2857.229	251.25
2860.634	250.25
2864.035	265.25
2867.434	267.25
2870.83	265.25
2874.223	265.25
2877.613	272.25
2881	278.25
2884.385	276.25
2887.766	274.25
2891.145	277.25
2894.521	278.25
2897.894	280.25
2901.264	279.25
2904.631	282.25
2907.996	280.25
2911.358	280.25
2914.717	288.25
2918.073	279.25
2921.426	285.25
2924.777	291.25
2928.124	297.25
2931.469	303.25
2934.811	308.25
2938.15	318.25
2941.487	323.25
2944.821	323.25
2948.152	332.25
2951.48	338.25
2954.805	331.25
2958.128	343.25
2961.447	339.25
2964.765	339.25
2968.079	342.25
2971.39	360.25
2974.699	360.25
2978.005	366.25
2981.308	377.25
2984.609	382.25
2987.907	387.25
2991.202	399.25
2994.494	405.25
2997.784	425.25
3001.07	426.25
3004.355	445.25
3007.636	445.25
3010.915	456.25
3014.191	467.25
3017.464	478.25
3020.734	475.25
3024.002	492.25
3027.267	504.25
3030.53	513.25
3033.789	515.25
3037.046	520.25
3040.301	535.25
3043.552	554.25
3046.801	555.25
3050.048	570.25
3053.291	582.25
3056.532	592.25
3059.771	609.25
3063.006	629.25
3066.239	662.25
3069.469	674.25
3072.697	690.25
3075.922	696.25
3079.144	721.25
3082.364	747.25
3085.581	762.25
3088.795	773.25
3092.007	804.25
3095.216	811.25
3098.423	839.25
3101.627	842.25
3104.828	845.25
3108.026	878.25
3111.222	904.25
3114.416	910.25
3117.607	942.25
3120.795	948.25
3123.98	972.25
3127.163	984.25
3130.344	1019.25
3133.521	1046.25
3136.696	1043.25
3139.869	1072.25
3143.039	1103.25
3146.206	1120.25
3149.371	1143.25
3152.533	1141.25
3155.693	1160.25
3158.85	1178.25
3162.005	1171.25
3165.157	1175.25
3168.306	1175.25
3171.453	1197.25
3174.597	1187.25
3177.739	1192.25
3180.878	1213.25
3184.014	1203.25
3187.149	1209.25
3190.28	1213.25
3193.409	1207.25
3196.536	1209.25
3199.659	1228.25
3202.781	1231.25
3205.9	1230.25
3209.016	1228.25
3212.13	1215.25
3215.241	1220.25
3218.35	1224.25
3221.456	1196.25
3224.56	1208.25
3227.661	1171.25
3230.76	1169.25
3233.856	1163.25
3236.95	1136.25
3240.041	1149.25
3243.13	1134.25
3246.216	1127.25
3249.3	1115.25
3252.382	1099.25
3255.46	1101.25
3258.537	1104.25
3261.611	1095.25
3264.682	1094.25
3267.751	1087.25
3270.818	1086.25
3273.882	1076.25
3276.943	1070.25
3280.002	1068.25
3283.059	1059.25
3286.113	1058.25
3289.165	1034.25
3292.214	1016.25
3295.261	1009.25
3298.306	988.25
3301.348	976.25
3304.387	961.25
3307.425	957.25
3310.459	941.25
3313.492	933.25
3316.521	915.25
3319.549	909.25
3322.574	909.25
3325.597	900.25
3328.617	894.25
3331.635	887.25
3334.65	887.25
3337.663	876.25
3340.674	873.25
3343.682	865.25
3346.688	859.25
3349.691	851.25
3352.692	850.25
3355.691	853.25
3358.687	844.25
3361.681	848.25
3364.673	831.25
3367.662	823.25
3370.649	809.25
3373.633	801.25
3376.615	793.25
3379.595	785.25
3382.572	766.25
3385.547	755.25
3388.52	770.25
3391.49	740.25
3394.458	733.25
3397.424	733.25
3400.387	722.25
3403.348	712.25
3406.307	703.25
3409.263	697.25
3412.217	681.25
3415.168	675.25
3418.118	673.25
3421.065	674.25
3424.009	663.25
3426.951	653.25
3429.891	660.25
3432.829	630.25
3435.764	618.25
3438.697	613.25
3441.628	583.25
3444.557	584.25
3447.483	570.25
3450.407	554.25
3453.328	550.25
3456.247	522.25
3459.164	511.25
3462.079	499.25
3464.991	489.25
3467.902	468.25
3470.809	460.25
3473.715	450.25
3476.618	431.25
3479.519	422.25
3482.418	401.25
3485.315	397.25
3488.209	386.25
3491.101	376.25
3493.99	371.25
3496.878	359.25
3499.763	354.25
3502.646	343.25
3505.527	328.25
3508.405	330.25
3511.281	310.25
3514.155	294.25
3517.027	292.25
3519.897	267.25
3522.764	260.25
3525.629	257.25
3528.492	241.25
3531.352	228.25
3534.211	221.25
3537.067	210.25
3539.921	197.25
3542.773	184.25
3545.622	179.25
3548.469	167.25
3551.315	157.25
3554.157	153.25
3556.998	140.25
3559.837	141.25
3562.673	123.25
3565.507	116.25
3568.339	119.25
3571.169	114.25
3573.996	112.25
3576.822	97.25
3579.645	95.25
3582.466	94.25
3585.285	81.25
3588.101	86.25
3590.916	76.25
3593.728	67.25
3596.538	66.25
3599.346	60.25
3602.152	57.25
3604.956	55.25
3607.757	48.25
3610.556	45.25
3613.354	36.25
3616.149	31.25
3618.942	33.25
3621.732	20.25
3624.521	21.25
3627.307	21.25
3630.092	16.25
3632.874	15.25
3635.654	15.25
3638.432	11.25
3641.208	8.25
3643.982	7.25
3646.753	4.25
3649.523	2.25
3652.29	1.25
3655.055	-0.75
3657.818	-4.75
3660.579	-10.75
3663.338	-9.75
3666.095	-17.75
3668.849	-10.75
3671.602	-18.75
3674.352	-19.75
3677.101	-22.75
3679.847	-26.75
3682.591	-22.75
3685.333	-29.75
3688.073	-35.75
3690.811	-31.75
3693.547	-31.75
3696.281	-28.75
3699.013	-34.75
3701.742	-38.75
3704.47	-35.75
3707.195	-41.75
3709.919	-39.75
3712.64	-40.75
3715.359	-45.75
3718.076	-42.75
3720.792	-37.75
3723.505	-46.75
3726.216	-43.75
3728.925	-44.75
3731.632	-47.75
3734.336	-51.75
3737.039	-46.75
3739.74	-51.75
3742.439	-46.75
3745.136	-53.75
3747.83	-53.75
3750.523	-52.75
3753.213	-49.75
3755.902	-54.75
3758.589	-49.75
3761.273	-56.75
3763.956	-54.75
3766.636	-51.75
3769.315	-54.75
3771.991	-53.75
3774.665	-54.75
3777.338	-58.75
3780.008	-56.75
3782.677	-57.75
3785.343	-57.75
3788.007	-58.75
3790.67	-59.75
3793.33	-58.75
3795.989	-61.75
3798.645	-62.75
3801.299	-63.75
3803.952	-63.75
3806.602	-62.75
3809.251	-65.75
3811.897	-64.75
3814.542	-59.75
3817.184	-63.75
3819.825	-60.75
3822.463	-65.75
3825.1	-61.75
3827.735	-63.75
3830.367	-62.75
3832.998	-64.75
3835.627	-65.75
3838.253	-64.75
3840.878	-60.75
3843.501	-60.75
3846.122	-64.75
3848.741	-64.75
3851.358	-65.75
3853.973	-67.75
3856.586	-67.75
3859.197	-66.75
3861.806	-68.75
3864.414	-66.75
3867.019	-68.75
3869.622	-65.75
3872.224	-66.75
3874.823	-66.75
3877.421	-64.75
3880.016	-62.75
3882.61	-57.75
3885.202	-57.75
3887.792	-60.75
3890.38	-65.75
3892.966	-63.75
3895.55	-65.75
3898.132	-64.75
3900.713	-66.75
3903.291	-65.75
3905.868	-66.75
3908.442	-70.75
3911.015	-64.75
3913.586	-68.75
3916.155	-67.75
3918.722	-68.75
3921.287	-69.75
3923.85	-67.75
3926.411	-71.75
3928.971	-70.75
3931.528	-69.75
3934.084	-75.75
3936.638	-69.75
3939.19	-73.75
3941.74	-68.75
3944.288	-70.75
3946.834	-71.75
3949.378	-69.75
3951.921	-69.75
3954.462	-68.75
3957	-65.75
3959.537	-67.75
3962.072	-71.75
3964.606	-63.75
3967.137	-66.75
3969.667	-68.75
3972.194	-69.75
3974.72	-71.75
3977.244	-64.75
3979.766	-70.75
3982.286	-65.75
3984.805	-71.75
3987.321	-71.75
3989.836	-72.75
3992.349	-71.75
3994.86	-67.75
3997.369	-69.75
3999.877	-67.75
4002.382	-64.75
4004.886	-65.75
4007.388	-67.75
4009.888	-66.75
4012.386	-61.75
4014.883	-63.75
4017.377	-67.75
4019.87	-64.75
4022.361	-69.75
4024.85	-69.75
4027.338	-65.75
4029.823	-67.75
4032.307	-74.75
4034.789	-71.75
4037.269	-71.75
4039.747	-72.75
4042.224	-71.75
4044.699	-73.75
4047.172	-74.75
4049.643	-72.75
4052.112	-72.75
4054.58	-68.75
4057.046	-65.75
4059.51	-66.75
4061.972	-64.75
4064.432	-62.75
4066.891	-64.75
4069.348	-68.75
4071.803	-63.75
4074.256	-65.75
4076.708	-68.75
4079.158	-66.75
4081.606	-69.75
4084.052	-71.75
4086.497	-71.75
4088.939	-73.75
4091.38	-69.75
4093.819	-69.75
4096.257	-71.75
4098.693	-75.75
4101.127	-68.75
4103.559	-72.75
4105.989	-18.75
4108.418	-10.75
4110.845	-9.75
4113.27	-8.75
4115.694	-7.75
4118.115	-4.75
4120.535	-73.75
4122.954	-68.75
4125.37	-71.75
4127.785	-72.75
4130.198	-70.75
4132.609	-70.75
4135.019	-71.75
4137.427	-74.75
4139.833	-79.75
4142.237	-76.75
