Data from Water_100000000CFU_RamanShift_11-23-03-851.txt Node
Date: Sun Dec 18 11:23:03 IST 2016
User: aro
Spectrometer: QEPB0276
Trigger mode: 0
Integration Time (sec): 5.000000E0
Scans to average: 1
Electric dark correction enabled: true
Nonlinearity correction enabled: false
Boxcar width: 0
XAxis mode: Raman Shifts
Number of Pixels in Spectrum: 1044
>>>>>Begin Spectral Data<<<<<
160.701	6.12
166.742	18.12
172.777	45.12
178.805	140.12
184.826	404.12
190.841	942.12
196.849	1717.12
202.85	2412.12
208.845	2772.12
214.833	2766.12
220.815	2634.12
226.789	2563.12
232.758	2468.12
238.719	2396.12
244.674	2314.12
250.623	2204.12
256.565	2130.12
262.5	2013.12
268.429	1940.12
274.351	1831.12
280.267	1750.12
286.176	1681.12
292.079	1606.12
297.975	1555.12
303.865	1491.12
309.748	1469.12
315.625	1436.12
321.495	1399.12
327.359	1374.12
333.217	1360.12
339.068	1340.12
344.912	1329.12
350.751	1326.12
356.583	1319.12
362.408	1329.12
368.227	1325.12
374.04	1347.12
379.847	1329.12
385.647	1345.12
391.44	1346.12
397.228	1360.12
403.009	1359.12
408.784	1361.12
414.553	1379.12
420.315	1378.12
426.071	1375.12
431.821	1378.12
437.565	1377.12
443.302	1381.12
449.033	1375.12
454.758	1351.12
460.477	1346.12
466.189	1352.12
471.896	1329.12
477.596	1325.12
483.29	1308.12
488.978	1319.12
494.66	1307.12
500.335	1295.12
506.005	1267.12
511.668	1244.12
517.325	1216.12
522.977	1158.12
528.622	1147.12
534.261	1139.12
539.894	1123.12
545.521	1096.12
551.141	1094.12
556.756	1096.12
562.365	1091.12
567.968	1061.12
573.565	1055.12
579.155	1052.12
584.74	1041.12
590.319	1032.12
595.892	1016.12
601.459	1016.12
607.02	1006.12
612.575	992.12
618.124	993.12
623.667	972.12
629.204	964.12
634.735	959.12
640.261	944.12
645.781	938.12
651.294	933.12
656.802	919.12
662.304	928.12
667.8	911.12
673.29	905.12
678.775	900.12
684.254	889.12
689.726	898.12
695.193	885.12
700.655	875.12
706.11	879.12
711.56	859.12
717.004	853.12
722.442	845.12
727.874	850.12
733.301	836.12
738.722	827.12
744.137	823.12
749.547	830.12
754.951	819.12
760.349	806.12
765.741	795.12
771.128	796.12
776.509	810.12
781.885	803.12
787.254	813.12
792.618	808.12
797.977	799.12
803.33	788.12
808.677	781.12
814.019	768.12
819.355	773.12
824.686	756.12
830.011	756.12
835.33	740.12
840.644	728.12
845.952	736.12
851.255	727.12
856.552	707.12
861.844	709.12
867.13	691.12
872.41	693.12
877.686	681.12
882.955	674.12
888.219	663.12
893.478	639.12
898.731	633.12
903.979	625.12
909.221	622.12
914.458	613.12
919.69	600.12
924.916	591.12
930.136	590.12
935.351	584.12
940.561	577.12
945.766	585.12
950.965	571.12
956.158	575.12
961.347	568.12
966.529	558.12
971.707	539.12
976.879	534.12
982.046	519.12
987.208	511.12
992.364	516.12
997.515	520.12
1002.66	519.12
1007.801	533.12
1012.936	520.12
1018.066	531.12
1023.19	542.12
1028.309	529.12
1033.423	532.12
1038.532	528.12
1043.636	523.12
1048.734	521.12
1053.827	505.12
1058.915	509.12
1063.998	508.12
1069.075	502.12
1074.147	497.12
1079.214	497.12
1084.276	501.12
1089.333	505.12
1094.385	504.12
1099.431	513.12
1104.472	509.12
1109.509	509.12
1114.54	497.12
1119.565	487.12
1124.586	489.12
1129.602	490.12
1134.613	475.12
1139.618	468.12
1144.619	477.12
1149.614	479.12
1154.604	470.12
1159.589	474.12
1164.57	469.12
1169.545	476.12
1174.515	475.12
1179.48	476.12
1184.44	479.12
1189.395	479.12
1194.345	465.12
1199.29	467.12
1204.23	459.12
1209.165	466.12
1214.095	460.12
1219.021	473.12
1223.941	470.12
1228.856	482.12
1233.766	476.12
1238.672	477.12
1243.572	478.12
1248.467	473.12
1253.358	471.12
1258.244	468.12
1263.124	458.12
1268	451.12
1272.871	441.12
1277.737	434.12
1282.599	418.12
1287.455	430.12
1292.306	429.12
1297.153	441.12
1301.995	437.12
1306.832	444.12
1311.664	439.12
1316.491	435.12
1321.314	440.12
1326.132	438.12
1330.945	427.12
1335.753	419.12
1340.556	401.12
1345.354	405.12
1350.148	391.12
1354.937	393.12
1359.722	389.12
1364.501	387.12
1369.276	391.12
1374.046	401.12
1378.811	406.12
1383.572	410.12
1388.327	402.12
1393.079	402.12
1397.825	398.12
1402.567	382.12
1407.304	387.12
1412.036	371.12
1416.764	382.12
1421.487	374.12
1426.205	372.12
1430.919	371.12
1435.628	362.12
1440.333	366.12
1445.032	375.12
1449.727	370.12
1454.418	375.12
1459.104	379.12
1463.785	373.12
1468.462	374.12
1473.134	374.12
1477.802	365.12
1482.465	368.12
1487.123	367.12
1491.777	374.12
1496.426	372.12
1501.071	375.12
1505.711	379.12
1510.347	389.12
1514.978	401.12
1519.604	399.12
1524.226	415.12
1528.844	413.12
1533.457	421.12
1538.065	412.12
1542.669	412.12
1547.269	410.12
1551.864	415.12
1556.454	415.12
1561.041	423.12
1565.622	433.12
1570.199	433.12
1574.772	438.12
1579.34	446.12
1583.904	453.12
1588.464	461.12
1593.019	475.12
1597.569	493.12
1602.115	496.12
1606.657	501.12
1611.195	521.12
1615.728	522.12
1620.256	534.12
1624.78	544.12
1629.3	547.12
1633.816	566.12
1638.327	570.12
1642.834	583.12
1647.336	594.12
1651.834	604.12
1656.328	609.12
1660.817	589.12
1665.302	573.12
1669.783	565.12
1674.259	550.12
1678.732	541.12
1683.199	514.12
1687.663	484.12
1692.122	455.12
1696.577	435.12
1701.028	414.12
1705.474	415.12
1709.917	393.12
1714.355	386.12
1718.788	373.12
1723.218	356.12
1727.643	329.12
1732.064	328.12
1736.481	308.12
1740.893	294.12
1745.301	289.12
1749.705	274.12
1754.105	261.12
1758.501	255.12
1762.893	237.12
1767.28	227.12
1771.663	223.12
1776.042	217.12
1780.417	217.12
1784.787	211.12
1789.154	208.12
1793.516	217.12
1797.874	213.12
1802.228	215.12
1806.578	221.12
1810.924	220.12
1815.266	203.12
1819.603	212.12
1823.937	201.12
1828.266	200.12
1832.591	190.12
1836.913	191.12
1841.23	187.12
1845.543	189.12
1849.852	177.12
1854.156	181.12
1858.457	181.12
1862.754	177.12
1867.047	178.12
1871.335	172.12
1875.62	186.12
1879.9	185.12
1884.177	181.12
1888.449	184.12
1892.718	179.12
1896.982	183.12
1901.243	181.12
1905.499	180.12
1909.752	181.12
1914	181.12
1918.245	177.12
1922.485	185.12
1926.722	186.12
1930.954	189.12
1935.183	194.12
1939.408	191.12
1943.628	197.12
1947.845	191.12
1952.058	194.12
1956.267	201.12
1960.472	199.12
1964.673	195.12
1968.87	188.12
1973.063	184.12
1977.252	176.12
1981.438	183.12
1985.619	181.12
1989.797	180.12
1993.971	184.12
1998.14	174.12
2002.306	185.12
2006.469	182.12
2010.627	191.12
2014.781	177.12
2018.932	185.12
2023.078	180.12
2027.221	179.12
2031.36	184.12
2035.495	183.12
2039.627	174.12
2043.754	176.12
2047.878	176.12
2051.998	183.12
2056.114	185.12
2060.226	188.12
2064.334	187.12
2068.439	191.12
2072.54	197.12
2076.637	193.12
2080.73	194.12
2084.82	195.12
2088.906	198.12
2092.988	190.12
2097.066	195.12
2101.14	197.12
2105.211	202.12
2109.278	196.12
2113.342	195.12
2117.401	198.12
2121.457	190.12
2125.509	188.12
2129.558	197.12
2133.602	187.12
2137.643	188.12
2141.681	187.12
2145.714	183.12
2149.744	181.12
2153.77	178.12
2157.793	176.12
2161.812	175.12
2165.827	175.12
2169.838	165.12
2173.846	171.12
2177.851	164.12
2181.851	161.12
2185.848	152.12
2189.841	152.12
2193.831	149.12
2197.817	148.12
2201.799	146.12
2205.778	142.12
2209.753	142.12
2213.725	145.12
2217.693	143.12
2221.657	141.12
2225.618	141.12
2229.575	133.12
2233.529	137.12
2237.479	134.12
2241.425	130.12
2245.368	128.12
2249.307	123.12
2253.243	134.12
2257.175	122.12
2261.104	116.12
2265.029	113.12
2268.95	112.12
2272.868	110.12
2276.783	105.12
2280.694	105.12
2284.601	105.12
2288.505	106.12
2292.405	107.12
2296.302	109.12
2300.195	100.12
2304.085	93.12
2307.971	92.12
2311.854	88.12
2315.734	91.12
2319.609	84.12
2323.482	85.12
2327.351	79.12
2331.216	82.12
2335.078	79.12
2338.937	79.12
2342.792	80.12
2346.643	76.12
2350.492	74.12
2354.336	83.12
2358.178	80.12
2362.015	78.12
2365.85	77.12
2369.681	69.12
2373.508	76.12
2377.333	72.12
2381.153	66.12
2384.971	71.12
2388.785	67.12
2392.595	70.12
2396.402	66.12
2400.206	65.12
2404.007	68.12
2407.804	69.12
2411.597	64.12
2415.388	63.12
2419.174	62.12
2422.958	59.12
2426.738	60.12
2430.515	64.12
2434.289	61.12
2438.059	60.12
2441.825	54.12
2445.589	51.12
2449.349	59.12
2453.106	57.12
2456.859	54.12
2460.61	59.12
2464.356	52.12
2468.1	51.12
2471.84	52.12
2475.577	46.12
2479.311	50.12
2483.041	44.12
2486.768	48.12
2490.492	55.12
2494.213	46.12
2497.93	49.12
2501.644	46.12
2505.355	53.12
2509.062	51.12
2512.766	47.12
2516.467	49.12
2520.165	44.12
2523.859	43.12
2527.551	41.12
2531.239	47.12
2534.923	50.12
2538.605	45.12
2542.283	40.12
2545.958	41.12
2549.63	42.12
2553.299	49.12
2556.964	46.12
2560.626	49.12
2564.285	51.12
2567.941	40.12
2571.594	44.12
2575.243	37.12
2578.89	39.12
2582.533	40.12
2586.173	40.12
2589.809	37.12
2593.443	35.12
2597.073	34.12
2600.701	35.12
2604.325	37.12
2607.946	40.12
2611.564	41.12
2615.178	42.12
2618.79	39.12
2622.398	35.12
2626.004	35.12
2629.606	30.12
2633.205	35.12
2636.801	31.12
2640.394	33.12
2643.983	30.12
2647.57	28.12
2651.153	27.12
2654.734	26.12
2658.311	31.12
2661.885	25.12
2665.456	29.12
2669.025	27.12
2672.589	24.12
2676.151	29.12
2679.71	23.12
2683.266	25.12
2686.819	23.12
2690.368	28.12
2693.915	26.12
2697.458	25.12
2700.999	25.12
2704.536	24.12
2708.071	17.12
2711.602	24.12
2715.13	21.12
2718.656	22.12
2722.178	20.12
2725.697	28.12
2729.214	22.12
2732.727	25.12
2736.237	25.12
2739.744	30.12
2743.249	28.12
2746.75	28.12
2750.248	32.12
2753.743	30.12
2757.236	25.12
2760.725	32.12
2764.211	33.12
2767.695	30.12
2771.175	32.12
2774.652	32.12
2778.127	34.12
2781.598	33.12
2785.067	36.12
2788.532	35.12
2791.995	33.12
2795.455	40.12
2798.911	37.12
2802.365	40.12
2805.816	38.12
2809.264	42.12
2812.709	42.12
2816.151	46.12
2819.59	49.12
2823.026	41.12
2826.46	42.12
2829.89	43.12
2833.318	41.12
2836.742	48.12
2840.164	48.12
2843.583	50.12
2846.999	52.12
2850.412	48.12
2853.822	59.12
2857.229	64.12
2860.634	59.12
2864.035	61.12
2867.434	67.12
2870.83	62.12
2874.223	67.12
2877.613	69.12
2881	70.12
2884.385	75.12
2887.766	72.12
2891.145	76.12
2894.521	77.12
2897.894	78.12
2901.264	84.12
2904.631	84.12
2907.996	86.12
2911.358	90.12
2914.717	90.12
2918.073	93.12
2921.426	92.12
2924.777	96.12
2928.124	100.12
2931.469	103.12
2934.811	110.12
2938.15	104.12
2941.487	112.12
2944.821	123.12
2948.152	119.12
2951.48	123.12
2954.805	124.12
2958.128	131.12
2961.447	134.12
2964.765	146.12
2968.079	137.12
2971.39	150.12
2974.699	153.12
2978.005	152.12
2981.308	168.12
2984.609	173.12
2987.907	180.12
2991.202	184.12
2994.494	197.12
2997.784	203.12
3001.07	209.12
3004.355	213.12
3007.636	229.12
3010.915	230.12
3014.191	237.12
3017.464	240.12
3020.734	243.12
3024.002	248.12
3027.267	255.12
3030.53	271.12
3033.789	273.12
3037.046	281.12
3040.301	289.12
3043.552	295.12
3046.801	299.12
3050.048	306.12
3053.291	325.12
3056.532	334.12
3059.771	350.12
3063.006	359.12
3066.239	368.12
3069.469	382.12
3072.697	400.12
3075.922	401.12
3079.144	422.12
3082.364	434.12
3085.581	439.12
3088.795	450.12
3092.007	466.12
3095.216	472.12
3098.423	488.12
3101.627	509.12
3104.828	514.12
3108.026	531.12
3111.222	555.12
3114.416	566.12
3117.607	559.12
3120.795	593.12
3123.98	618.12
3127.163	610.12
3130.344	638.12
3133.521	634.12
3136.696	648.12
3139.869	680.12
3143.039	690.12
3146.206	696.12
3149.371	713.12
3152.533	717.12
3155.693	728.12
3158.85	731.12
3162.005	737.12
3165.157	745.12
3168.306	755.12
3171.453	736.12
3174.597	757.12
3177.739	768.12
3180.878	755.12
3184.014	755.12
3187.149	769.12
3190.28	780.12
3193.409	772.12
3196.536	764.12
3199.659	783.12
3202.781	782.12
3205.9	788.12
3209.016	786.12
3212.13	777.12
3215.241	774.12
3218.35	770.12
3221.456	770.12
3224.56	762.12
3227.661	762.12
3230.76	747.12
3233.856	739.12
3236.95	727.12
3240.041	722.12
3243.13	720.12
3246.216	718.12
3249.3	708.12
3252.382	715.12
3255.46	714.12
3258.537	713.12
3261.611	705.12
3264.682	713.12
3267.751	697.12
3270.818	705.12
3273.882	697.12
3276.943	692.12
3280.002	691.12
3283.059	682.12
3286.113	669.12
3289.165	671.12
3292.214	652.12
3295.261	659.12
3298.306	639.12
3301.348	636.12
3304.387	621.12
3307.425	613.12
3310.459	603.12
3313.492	589.12
3316.521	578.12
3319.549	582.12
3322.574	572.12
3325.597	566.12
3328.617	565.12
3331.635	551.12
3334.65	555.12
3337.663	543.12
3340.674	544.12
3343.682	556.12
3346.688	547.12
3349.691	561.12
3352.692	554.12
3355.691	547.12
3358.687	536.12
3361.681	534.12
3364.673	520.12
3367.662	517.12
3370.649	517.12
3373.633	517.12
3376.615	506.12
3379.595	494.12
3382.572	494.12
3385.547	479.12
3388.52	478.12
3391.49	473.12
3394.458	468.12
3397.424	467.12
3400.387	453.12
3403.348	441.12
3406.307	445.12
3409.263	450.12
3412.217	433.12
3415.168	430.12
3418.118	428.12
3421.065	426.12
3424.009	428.12
3426.951	411.12
3429.891	407.12
3432.829	402.12
3435.764	394.12
3438.697	385.12
3441.628	370.12
3444.557	365.12
3447.483	354.12
3450.407	350.12
3453.328	340.12
3456.247	330.12
3459.164	321.12
3462.079	320.12
3464.991	316.12
3467.902	296.12
3470.809	284.12
3473.715	283.12
3476.618	274.12
3479.519	267.12
3482.418	252.12
3485.315	260.12
3488.209	243.12
3491.101	242.12
3493.99	229.12
3496.878	222.12
3499.763	215.12
3502.646	214.12
3505.527	205.12
3508.405	200.12
3511.281	202.12
3514.155	186.12
3517.027	174.12
3519.897	175.12
3522.764	161.12
3525.629	154.12
3528.492	143.12
3531.352	142.12
3534.211	134.12
3537.067	120.12
3539.921	110.12
3542.773	108.12
3545.622	110.12
3548.469	103.12
3551.315	98.12
3554.157	88.12
3556.998	91.12
3559.837	82.12
3562.673	81.12
3565.507	77.12
3568.339	69.12
3571.169	66.12
3573.996	59.12
3576.822	63.12
3579.645	53.12
3582.466	50.12
3585.285	43.12
3588.101	47.12
3590.916	40.12
3593.728	33.12
3596.538	36.12
3599.346	30.12
3602.152	24.12
3604.956	29.12
3607.757	26.12
3610.556	16.12
3613.354	14.12
3616.149	17.12
3618.942	10.12
3621.732	5.12
3624.521	8.12
3627.307	10.12
3630.092	7.12
3632.874	6.12
3635.654	-0.88
3638.432	0.12
3641.208	-4.88
3643.982	-1.88
3646.753	-9.88
3649.523	-9.88
3652.29	-10.88
3655.055	-12.88
3657.818	-14.88
3660.579	-14.88
3663.338	-19.88
3666.095	-15.88
3668.849	-16.88
3671.602	-18.88
3674.352	-13.88
3677.101	-15.88
3679.847	-20.88
3682.591	-22.88
3685.333	-25.88
3688.073	-26.88
3690.811	-30.88
3693.547	-32.88
3696.281	-34.88
3699.013	-33.88
3701.742	-34.88
3704.47	-28.88
3707.195	-31.88
3709.919	-32.88
3712.64	-31.88
3715.359	-27.88
3718.076	-30.88
3720.792	-34.88
3723.505	-34.88
3726.216	-40.88
3728.925	-40.88
3731.632	-38.88
3734.336	-40.88
3737.039	-44.88
3739.74	-39.88
3742.439	-42.88
3745.136	-39.88
3747.83	-39.88
3750.523	-39.88
3753.213	-40.88
3755.902	-38.88
3758.589	-42.88
3761.273	-37.88
3763.956	-43.88
3766.636	-44.88
3769.315	-41.88
3771.991	-44.88
3774.665	-44.88
3777.338	-43.88
3780.008	-43.88
3782.677	-47.88
3785.343	-41.88
3788.007	-43.88
3790.67	-46.88
3793.33	-46.88
3795.989	-42.88
3798.645	-42.88
3801.299	-45.88
3803.952	-49.88
3806.602	-47.88
3809.251	-41.88
3811.897	-46.88
3814.542	-46.88
3817.184	-47.88
3819.825	-44.88
3822.463	-42.88
3825.1	-46.88
3827.735	-46.88
3830.367	-47.88
3832.998	-49.88
3835.627	-45.88
3838.253	-50.88
3840.878	-46.88
3843.501	-47.88
3846.122	-44.88
3848.741	-47.88
3851.358	-46.88
3853.973	-44.88
3856.586	-49.88
3859.197	-46.88
3861.806	-44.88
3864.414	-45.88
3867.019	-47.88
3869.622	-48.88
3872.224	-49.88
3874.823	-49.88
3877.421	-47.88
3880.016	-48.88
3882.61	-47.88
3885.202	-42.88
3887.792	-37.88
3890.38	-42.88
3892.966	-45.88
3895.55	-43.88
3898.132	-41.88
3900.713	-45.88
3903.291	-45.88
3905.868	-47.88
3908.442	-45.88
3911.015	-51.88
3913.586	-48.88
3916.155	-51.88
3918.722	-49.88
3921.287	-53.88
3923.85	-50.88
3926.411	-51.88
3928.971	-51.88
3931.528	-49.88
3934.084	-48.88
3936.638	-50.88
3939.19	-47.88
3941.74	-50.88
3944.288	-50.88
3946.834	-48.88
3949.378	-50.88
3951.921	-45.88
3954.462	-50.88
3957	-51.88
3959.537	-49.88
3962.072	-47.88
3964.606	-47.88
3967.137	-48.88
3969.667	-50.88
3972.194	-51.88
3974.72	-51.88
3977.244	-48.88
3979.766	-49.88
3982.286	-48.88
3984.805	-48.88
3987.321	-49.88
3989.836	-47.88
3992.349	-49.88
3994.86	-50.88
3997.369	-48.88
3999.877	-43.88
4002.382	-47.88
4004.886	-45.88
4007.388	-46.88
4009.888	-47.88
4012.386	-47.88
4014.883	-48.88
4017.377	-51.88
4019.87	-49.88
4022.361	-49.88
4024.85	-51.88
4027.338	-50.88
4029.823	-48.88
4032.307	-48.88
4034.789	-48.88
4037.269	-46.88
4039.747	-49.88
4042.224	-44.88
4044.699	-50.88
4047.172	-47.88
4049.643	-49.88
4052.112	-49.88
4054.58	-53.88
4057.046	-50.88
4059.51	-50.88
4061.972	-53.88
4064.432	-52.88
4066.891	-50.88
4069.348	-46.88
4071.803	-45.88
4074.256	-47.88
4076.708	-42.88
4079.158	-47.88
4081.606	-47.88
4084.052	-47.88
4086.497	-45.88
4088.939	-47.88
4091.38	-48.88
4093.819	-50.88
4096.257	-52.88
4098.693	-49.88
4101.127	-50.88
4103.559	-50.88
4105.989	-8.88
4108.418	-8.88
4110.845	-4.88
4113.27	-3.88
4115.694	-1.88
4118.115	2.12
4120.535	-54.88
4122.954	-53.88
4125.37	-50.88
4127.785	-52.88
4130.198	-49.88
4132.609	-50.88
4135.019	-53.88
4137.427	-51.88
4139.833	-50.88
4142.237	-52.88
