Data from Water3_100000CFU_RamanShift_11-11-18-915_RamanShift_14-24-26-467.txt Node
Date: Sun Dec 18 14:24:26 IST 2016
User: aro
Spectrometer: QEPB0276
Trigger mode: 0
Integration Time (sec): 5.000000E0
Scans to average: 1
Electric dark correction enabled: true
Nonlinearity correction enabled: false
Boxcar width: 0
XAxis mode: Raman Shifts
Number of Pixels in Spectrum: 1044
>>>>>Begin Spectral Data<<<<<
160.701	2.12
166.742	22.12
172.777	65.12
178.805	196.12
184.826	596.12
190.841	1437.12
196.849	2662.12
202.85	3809.12
208.845	4390.12
214.833	4386.12
220.815	4224.12
226.789	4066.12
232.758	3958.12
238.719	3854.12
244.674	3742.12
250.623	3601.12
256.565	3451.12
262.5	3274.12
268.429	3132.12
274.351	3012.12
280.267	2876.12
286.176	2765.12
292.079	2678.12
297.975	2589.12
303.865	2494.12
309.748	2430.12
315.625	2338.12
321.495	2305.12
327.359	2262.12
333.217	2237.12
339.068	2214.12
344.912	2162.12
350.751	2184.12
356.583	2165.12
362.408	2144.12
368.227	2155.12
374.04	2155.12
379.847	2161.12
385.647	2175.12
391.44	2186.12
397.228	2189.12
403.009	2203.12
408.784	2221.12
414.553	2224.12
420.315	2223.12
426.071	2223.12
431.821	2229.12
437.565	2220.12
443.302	2213.12
449.033	2220.12
454.758	2213.12
460.477	2191.12
466.189	2188.12
471.896	2182.12
477.596	2176.12
483.29	2170.12
488.978	2149.12
494.66	2170.12
500.335	2121.12
506.005	2088.12
511.668	2083.12
517.325	2023.12
522.977	2011.12
528.622	1980.12
534.261	1953.12
539.894	1929.12
545.521	1917.12
551.141	1907.12
556.756	1876.12
562.365	1873.12
567.968	1854.12
573.565	1843.12
579.155	1830.12
584.74	1832.12
590.319	1819.12
595.892	1811.12
601.459	1797.12
607.02	1799.12
612.575	1766.12
618.124	1759.12
623.667	1738.12
629.204	1732.12
634.735	1716.12
640.261	1696.12
645.781	1680.12
651.294	1658.12
656.802	1682.12
662.304	1661.12
667.8	1654.12
673.29	1663.12
678.775	1635.12
684.254	1618.12
689.726	1618.12
695.193	1617.12
700.655	1622.12
706.11	1610.12
711.56	1599.12
717.004	1584.12
722.442	1573.12
727.874	1559.12
733.301	1561.12
738.722	1547.12
744.137	1547.12
749.547	1534.12
754.951	1545.12
760.349	1528.12
765.741	1525.12
771.128	1524.12
776.509	1528.12
781.885	1524.12
787.254	1513.12
792.618	1507.12
797.977	1512.12
803.33	1500.12
808.677	1483.12
814.019	1474.12
819.355	1454.12
824.686	1450.12
830.011	1434.12
835.33	1422.12
840.644	1412.12
845.952	1407.12
851.255	1409.12
856.552	1411.12
861.844	1380.12
867.13	1391.12
872.41	1379.12
877.686	1360.12
882.955	1349.12
888.219	1357.12
893.478	1342.12
898.731	1308.12
903.979	1262.12
909.221	1275.12
914.458	1245.12
919.69	1243.12
924.916	1235.12
930.136	1238.12
935.351	1247.12
940.561	1233.12
945.766	1245.12
950.965	1219.12
956.158	1244.12
961.347	1223.12
966.529	1206.12
971.707	1198.12
976.879	1161.12
982.046	1162.12
987.208	1158.12
992.364	1153.12
997.515	1151.12
1002.66	1162.12
1007.801	1165.12
1012.936	1163.12
1018.066	1181.12
1023.19	1178.12
1028.309	1185.12
1033.423	1186.12
1038.532	1192.12
1043.636	1188.12
1048.734	1169.12
1053.827	1158.12
1058.915	1158.12
1063.998	1148.12
1069.075	1129.12
1074.147	1141.12
1079.214	1140.12
1084.276	1137.12
1089.333	1140.12
1094.385	1158.12
1099.431	1162.12
1104.472	1179.12
1109.509	1168.12
1114.54	1165.12
1119.565	1155.12
1124.586	1143.12
1129.602	1116.12
1134.613	1122.12
1139.618	1114.12
1144.619	1101.12
1149.614	1110.12
1154.604	1118.12
1159.589	1125.12
1164.57	1124.12
1169.545	1127.12
1174.515	1137.12
1179.48	1147.12
1184.44	1130.12
1189.395	1113.12
1194.345	1137.12
1199.29	1122.12
1204.23	1127.12
1209.165	1119.12
1214.095	1113.12
1219.021	1123.12
1223.941	1131.12
1228.856	1155.12
1233.766	1157.12
1238.672	1156.12
1243.572	1148.12
1248.467	1148.12
1253.358	1134.12
1258.244	1134.12
1263.124	1099.12
1268	1095.12
1272.871	1093.12
1277.737	1071.12
1282.599	1064.12
1287.455	1069.12
1292.306	1071.12
1297.153	1082.12
1301.995	1090.12
1306.832	1094.12
1311.664	1084.12
1316.491	1102.12
1321.314	1107.12
1326.132	1100.12
1330.945	1087.12
1335.753	1075.12
1340.556	1067.12
1345.354	1045.12
1350.148	1041.12
1354.937	1043.12
1359.722	1019.12
1364.501	1008.12
1369.276	990.12
1374.046	991.12
1378.811	990.12
1383.572	982.12
1388.327	990.12
1393.079	991.12
1397.825	979.12
1402.567	975.12
1407.304	975.12
1412.036	968.12
1416.764	972.12
1421.487	966.12
1426.205	964.12
1430.919	975.12
1435.628	993.12
1440.333	993.12
1445.032	1008.12
1449.727	1013.12
1454.418	1002.12
1459.104	997.12
1463.785	1018.12
1468.462	1001.12
1473.134	996.12
1477.802	984.12
1482.465	968.12
1487.123	968.12
1491.777	974.12
1496.426	973.12
1501.071	992.12
1505.711	979.12
1510.347	1002.12
1514.978	1014.12
1519.604	1020.12
1524.226	1021.12
1528.844	1028.12
1533.457	1013.12
1538.065	1029.12
1542.669	1009.12
1547.269	1028.12
1551.864	1012.12
1556.454	1018.12
1561.041	1035.12
1565.622	1043.12
1570.199	1042.12
1574.772	1071.12
1579.34	1082.12
1583.904	1106.12
1588.464	1138.12
1593.019	1133.12
1597.569	1150.12
1602.115	1165.12
1606.657	1182.12
1611.195	1176.12
1615.728	1212.12
1620.256	1206.12
1624.78	1211.12
1629.3	1233.12
1633.816	1274.12
1638.327	1299.12
1642.834	1299.12
1647.336	1310.12
1651.834	1312.12
1656.328	1310.12
1660.817	1311.12
1665.302	1308.12
1669.783	1271.12
1674.259	1230.12
1678.732	1210.12
1683.199	1166.12
1687.663	1141.12
1692.122	1106.12
1696.577	1054.12
1701.028	1026.12
1705.474	966.12
1709.917	942.12
1714.355	920.12
1718.788	901.12
1723.218	888.12
1727.643	876.12
1732.064	855.12
1736.481	846.12
1740.893	830.12
1745.301	804.12
1749.705	783.12
1754.105	755.12
1758.501	741.12
1762.893	742.12
1767.28	733.12
1771.663	712.12
1776.042	702.12
1780.417	714.12
1784.787	700.12
1789.154	712.12
1793.516	709.12
1797.874	707.12
1802.228	699.12
1806.578	690.12
1810.924	680.12
1815.266	668.12
1819.603	664.12
1823.937	660.12
1828.266	641.12
1832.591	646.12
1836.913	652.12
1841.23	648.12
1845.543	647.12
1849.852	648.12
1854.156	647.12
1858.457	646.12
1862.754	645.12
1867.047	645.12
1871.335	662.12
1875.62	648.12
1879.9	653.12
1884.177	652.12
1888.449	649.12
1892.718	657.12
1896.982	646.12
1901.243	645.12
1905.499	632.12
1909.752	641.12
1914	637.12
1918.245	643.12
1922.485	624.12
1926.722	646.12
1930.954	646.12
1935.183	640.12
1939.408	655.12
1943.628	648.12
1947.845	659.12
1952.058	658.12
1956.267	637.12
1960.472	648.12
1964.673	630.12
1968.87	633.12
1973.063	622.12
1977.252	620.12
1981.438	615.12
1985.619	602.12
1989.797	628.12
1993.971	611.12
1998.14	618.12
2002.306	612.12
2006.469	619.12
2010.627	617.12
2014.781	626.12
2018.932	627.12
2023.078	631.12
2027.221	633.12
2031.36	631.12
2035.495	621.12
2039.627	608.12
2043.754	621.12
2047.878	619.12
2051.998	610.12
2056.114	610.12
2060.226	619.12
2064.334	617.12
2068.439	618.12
2072.54	628.12
2076.637	616.12
2080.73	614.12
2084.82	619.12
2088.906	618.12
2092.988	621.12
2097.066	624.12
2101.14	617.12
2105.211	612.12
2109.278	611.12
2113.342	615.12
2117.401	604.12
2121.457	595.12
2125.509	591.12
2129.558	600.12
2133.602	605.12
2137.643	600.12
2141.681	596.12
2145.714	597.12
2149.744	591.12
2153.77	579.12
2157.793	592.12
2161.812	585.12
2165.827	579.12
2169.838	559.12
2173.846	561.12
2177.851	554.12
2181.851	541.12
2185.848	535.12
2189.841	534.12
2193.831	527.12
2197.817	516.12
2201.799	520.12
2205.778	532.12
2209.753	522.12
2213.725	519.12
2217.693	518.12
2221.657	521.12
2225.618	518.12
2229.575	521.12
2233.529	511.12
2237.479	514.12
2241.425	516.12
2245.368	495.12
2249.307	499.12
2253.243	479.12
2257.175	482.12
2261.104	465.12
2265.029	461.12
2268.95	467.12
2272.868	460.12
2276.783	464.12
2280.694	445.12
2284.601	439.12
2288.505	439.12
2292.405	433.12
2296.302	430.12
2300.195	423.12
2304.085	421.12
2307.971	414.12
2311.854	417.12
2315.734	413.12
2319.609	391.12
2323.482	401.12
2327.351	395.12
2331.216	386.12
2335.078	393.12
2338.937	381.12
2342.792	385.12
2346.643	382.12
2350.492	375.12
2354.336	383.12
2358.178	377.12
2362.015	361.12
2365.85	384.12
2369.681	377.12
2373.508	379.12
2377.333	373.12
2381.153	375.12
2384.971	373.12
2388.785	377.12
2392.595	375.12
2396.402	377.12
2400.206	372.12
2404.007	376.12
2407.804	367.12
2411.597	370.12
2415.388	366.12
2419.174	364.12
2422.958	367.12
2426.738	358.12
2430.515	360.12
2434.289	365.12
2438.059	360.12
2441.825	367.12
2445.589	357.12
2449.349	345.12
2453.106	353.12
2456.859	345.12
2460.61	342.12
2464.356	338.12
2468.1	349.12
2471.84	344.12
2475.577	334.12
2479.311	339.12
2483.041	345.12
2486.768	334.12
2490.492	344.12
2494.213	336.12
2497.93	345.12
2501.644	341.12
2505.355	334.12
2509.062	337.12
2512.766	335.12
2516.467	329.12
2520.165	327.12
2523.859	316.12
2527.551	322.12
2531.239	326.12
2534.923	316.12
2538.605	315.12
2542.283	313.12
2545.958	310.12
2549.63	311.12
2553.299	317.12
2556.964	306.12
2560.626	308.12
2564.285	303.12
2567.941	302.12
2571.594	308.12
2575.243	304.12
2578.89	300.12
2582.533	304.12
2586.173	297.12
2589.809	287.12
2593.443	287.12
2597.073	290.12
2600.701	287.12
2604.325	291.12
2607.946	282.12
2611.564	275.12
2615.178	283.12
2618.79	283.12
2622.398	284.12
2626.004	278.12
2629.606	281.12
2633.205	277.12
2636.801	271.12
2640.394	274.12
2643.983	272.12
2647.57	274.12
2651.153	268.12
2654.734	270.12
2658.311	266.12
2661.885	263.12
2665.456	259.12
2669.025	258.12
2672.589	252.12
2676.151	256.12
2679.71	245.12
2683.266	248.12
2686.819	249.12
2690.368	243.12
2693.915	241.12
2697.458	244.12
2700.999	239.12
2704.536	229.12
2708.071	236.12
2711.602	228.12
2715.13	229.12
2718.656	225.12
2722.178	236.12
2725.697	231.12
2729.214	227.12
2732.727	231.12
2736.237	234.12
2739.744	231.12
2743.249	241.12
2746.75	229.12
2750.248	230.12
2753.743	229.12
2757.236	229.12
2760.725	221.12
2764.211	215.12
2767.695	227.12
2771.175	223.12
2774.652	212.12
2778.127	210.12
2781.598	212.12
2785.067	215.12
2788.532	226.12
2791.995	223.12
2795.455	223.12
2798.911	230.12
2802.365	229.12
2805.816	225.12
2809.264	224.12
2812.709	231.12
2816.151	223.12
2819.59	227.12
2823.026	223.12
2826.46	223.12
2829.89	218.12
2833.318	226.12
2836.742	228.12
2840.164	228.12
2843.583	232.12
2846.999	223.12
2850.412	227.12
2853.822	231.12
2857.229	239.12
2860.634	239.12
2864.035	246.12
2867.434	248.12
2870.83	246.12
2874.223	249.12
2877.613	248.12
2881	258.12
2884.385	256.12
2887.766	258.12
2891.145	258.12
2894.521	258.12
2897.894	257.12
2901.264	257.12
2904.631	259.12
2907.996	257.12
2911.358	256.12
2914.717	265.12
2918.073	262.12
2921.426	269.12
2924.777	274.12
2928.124	275.12
2931.469	282.12
2934.811	286.12
2938.15	291.12
2941.487	295.12
2944.821	296.12
2948.152	310.12
2951.48	313.12
2954.805	306.12
2958.128	312.12
2961.447	320.12
2964.765	316.12
2968.079	333.12
2971.39	334.12
2974.699	332.12
2978.005	336.12
2981.308	343.12
2984.609	353.12
2987.907	358.12
2991.202	367.12
2994.494	385.12
2997.784	392.12
3001.07	398.12
3004.355	410.12
3007.636	424.12
3010.915	424.12
3014.191	433.12
3017.464	450.12
3020.734	450.12
3024.002	452.12
3027.267	470.12
3030.53	470.12
3033.789	489.12
3037.046	482.12
3040.301	507.12
3043.552	523.12
3046.801	515.12
3050.048	528.12
3053.291	548.12
3056.532	565.12
3059.771	572.12
3063.006	602.12
3066.239	606.12
3069.469	634.12
3072.697	639.12
3075.922	666.12
3079.144	661.12
3082.364	695.12
3085.581	708.12
3088.795	725.12
3092.007	754.12
3095.216	755.12
3098.423	780.12
3101.627	785.12
3104.828	804.12
3108.026	811.12
3111.222	841.12
3114.416	852.12
3117.607	857.12
3120.795	873.12
3123.98	907.12
3127.163	920.12
3130.344	950.12
3133.521	967.12
3136.696	978.12
3139.869	1009.12
3143.039	1017.12
3146.206	1036.12
3149.371	1048.12
3152.533	1074.12
3155.693	1079.12
3158.85	1089.12
3162.005	1087.12
3165.157	1090.12
3168.306	1102.12
3171.453	1109.12
3174.597	1103.12
3177.739	1111.12
3180.878	1117.12
3184.014	1128.12
3187.149	1135.12
3190.28	1121.12
3193.409	1126.12
3196.536	1107.12
3199.659	1137.12
3202.781	1146.12
3205.9	1143.12
3209.016	1147.12
3212.13	1143.12
3215.241	1137.12
3218.35	1127.12
3221.456	1129.12
3224.56	1123.12
3227.661	1099.12
3230.76	1107.12
3233.856	1084.12
3236.95	1069.12
3240.041	1064.12
3243.13	1061.12
3246.216	1039.12
3249.3	1039.12
3252.382	1044.12
3255.46	1024.12
3258.537	1022.12
3261.611	1026.12
3264.682	1013.12
3267.751	1011.12
3270.818	1014.12
3273.882	1014.12
3276.943	1002.12
3280.002	995.12
3283.059	978.12
3286.113	974.12
3289.165	958.12
3292.214	942.12
3295.261	943.12
3298.306	938.12
3301.348	912.12
3304.387	914.12
3307.425	884.12
3310.459	871.12
3313.492	873.12
3316.521	849.12
3319.549	853.12
3322.574	834.12
3325.597	838.12
3328.617	841.12
3331.635	827.12
3334.65	824.12
3337.663	818.12
3340.674	802.12
3343.682	806.12
3346.688	805.12
3349.691	806.12
3352.692	803.12
3355.691	802.12
3358.687	787.12
3361.681	781.12
3364.673	776.12
3367.662	761.12
3370.649	751.12
3373.633	733.12
3376.615	737.12
3379.595	720.12
3382.572	710.12
3385.547	702.12
3388.52	698.12
3391.49	672.12
3394.458	686.12
3397.424	677.12
3400.387	664.12
3403.348	652.12
3406.307	647.12
3409.263	642.12
3412.217	636.12
3415.168	627.12
3418.118	638.12
3421.065	616.12
3424.009	621.12
3426.951	598.12
3429.891	581.12
3432.829	585.12
3435.764	572.12
3438.697	566.12
3441.628	546.12
3444.557	543.12
3447.483	525.12
3450.407	510.12
3453.328	499.12
3456.247	490.12
3459.164	473.12
3462.079	463.12
3464.991	444.12
3467.902	440.12
3470.809	420.12
3473.715	416.12
3476.618	401.12
3479.519	385.12
3482.418	375.12
3485.315	363.12
3488.209	359.12
3491.101	353.12
3493.99	335.12
3496.878	329.12
3499.763	330.12
3502.646	313.12
3505.527	304.12
3508.405	288.12
3511.281	284.12
3514.155	264.12
3517.027	267.12
3519.897	255.12
3522.764	240.12
3525.629	229.12
3528.492	217.12
3531.352	213.12
3534.211	193.12
3537.067	193.12
3539.921	186.12
3542.773	171.12
3545.622	167.12
3548.469	155.12
3551.315	148.12
3554.157	131.12
3556.998	131.12
3559.837	128.12
3562.673	118.12
3565.507	105.12
3568.339	104.12
3571.169	97.12
3573.996	100.12
3576.822	88.12
3579.645	86.12
3582.466	80.12
3585.285	76.12
3588.101	73.12
3590.916	66.12
3593.728	67.12
3596.538	57.12
3599.346	57.12
3602.152	49.12
3604.956	45.12
3607.757	41.12
3610.556	41.12
3613.354	29.12
3616.149	30.12
3618.942	24.12
3621.732	22.12
3624.521	17.12
3627.307	18.12
3630.092	12.12
3632.874	7.12
3635.654	7.12
3638.432	6.12
3641.208	4.12
3643.982	1.12
3646.753	1.12
3649.523	-0.88
3652.29	1.12
3655.055	-7.88
3657.818	-5.88
3660.579	-7.88
3663.338	-11.88
3666.095	-16.88
3668.849	-12.88
3671.602	-19.88
3674.352	-17.88
3677.101	-22.88
3679.847	-24.88
3682.591	-28.88
3685.333	-33.88
3688.073	-28.88
3690.811	-31.88
3693.547	-34.88
3696.281	-34.88
3699.013	-40.88
3701.742	-37.88
3704.47	-36.88
3707.195	-37.88
3709.919	-39.88
3712.64	-38.88
3715.359	-42.88
3718.076	-38.88
3720.792	-39.88
3723.505	-40.88
3726.216	-44.88
3728.925	-40.88
3731.632	-45.88
3734.336	-49.88
3737.039	-47.88
3739.74	-46.88
3742.439	-51.88
3745.136	-54.88
3747.83	-53.88
3750.523	-54.88
3753.213	-51.88
3755.902	-53.88
3758.589	-53.88
3761.273	-56.88
3763.956	-55.88
3766.636	-53.88
3769.315	-54.88
3771.991	-51.88
3774.665	-47.88
3777.338	-53.88
3780.008	-54.88
3782.677	-51.88
3785.343	-54.88
3788.007	-56.88
3790.67	-56.88
3793.33	-58.88
3795.989	-57.88
3798.645	-59.88
3801.299	-65.88
3803.952	-63.88
3806.602	-60.88
3809.251	-65.88
3811.897	-62.88
3814.542	-61.88
3817.184	-62.88
3819.825	-58.88
3822.463	-62.88
3825.1	-60.88
3827.735	-65.88
3830.367	-58.88
3832.998	-59.88
3835.627	-61.88
3838.253	-60.88
3840.878	-59.88
3843.501	-60.88
3846.122	-60.88
3848.741	-62.88
3851.358	-65.88
3853.973	-62.88
3856.586	-61.88
3859.197	-63.88
3861.806	-66.88
3864.414	-68.88
3867.019	-64.88
3869.622	-66.88
3872.224	-64.88
3874.823	-60.88
3877.421	-64.88
3880.016	-57.88
3882.61	-57.88
3885.202	-57.88
3887.792	-57.88
3890.38	-62.88
3892.966	-58.88
3895.55	-64.88
3898.132	-61.88
3900.713	-61.88
3903.291	-65.88
3905.868	-67.88
3908.442	-66.88
3911.015	-62.88
3913.586	-66.88
3916.155	-68.88
3918.722	-65.88
3921.287	-66.88
3923.85	-66.88
3926.411	-68.88
3928.971	-67.88
3931.528	-67.88
3934.084	-68.88
3936.638	-69.88
3939.19	-68.88
3941.74	-63.88
3944.288	-66.88
3946.834	-67.88
3949.378	-64.88
3951.921	-67.88
3954.462	-65.88
3957	-64.88
3959.537	-66.88
3962.072	-68.88
3964.606	-66.88
3967.137	-69.88
3969.667	-67.88
3972.194	-72.88
3974.72	-69.88
3977.244	-64.88
3979.766	-67.88
3982.286	-64.88
3984.805	-68.88
3987.321	-64.88
3989.836	-64.88
3992.349	-66.88
3994.86	-64.88
3997.369	-64.88
3999.877	-65.88
4002.382	-63.88
4004.886	-63.88
4007.388	-67.88
4009.888	-67.88
4012.386	-64.88
4014.883	-64.88
4017.377	-65.88
4019.87	-69.88
4022.361	-71.88
4024.85	-69.88
4027.338	-68.88
4029.823	-67.88
4032.307	-67.88
4034.789	-66.88
4037.269	-68.88
4039.747	-68.88
4042.224	-66.88
4044.699	-64.88
4047.172	-63.88
4049.643	-67.88
4052.112	-63.88
4054.58	-66.88
4057.046	-65.88
4059.51	-66.88
4061.972	-64.88
4064.432	-65.88
4066.891	-66.88
4069.348	-66.88
4071.803	-64.88
4074.256	-65.88
4076.708	-67.88
4079.158	-64.88
4081.606	-70.88
4084.052	-71.88
4086.497	-70.88
4088.939	-67.88
4091.38	-65.88
4093.819	-66.88
4096.257	-72.88
4098.693	-74.88
4101.127	-70.88
4103.559	-69.88
4105.989	-20.88
4108.418	-12.88
4110.845	-11.88
4113.27	-9.88
4115.694	-5.88
4118.115	-3.88
4120.535	-68.88
4122.954	-64.88
4125.37	-65.88
4127.785	-65.88
4130.198	-66.88
4132.609	-67.88
4135.019	-69.88
4137.427	-68.88
4139.833	-73.88
4142.237	-72.88
