Data from Water_1CFU_RamanShift_11-11-18-915.txt Node
Date: Sun Dec 18 11:11:18 IST 2016
User: aro
Spectrometer: QEPB0276
Trigger mode: 0
Integration Time (sec): 5.000000E0
Scans to average: 1
Electric dark correction enabled: true
Nonlinearity correction enabled: false
Boxcar width: 0
XAxis mode: Raman Shifts
Number of Pixels in Spectrum: 1044
>>>>>Begin Spectral Data<<<<<
160.701	1.38
166.742	20.38
172.777	63.38
178.805	207.38
184.826	614.38
190.841	1455.38
196.849	2675.38
202.85	3757.38
208.845	4291.38
214.833	4294.38
220.815	4100.38
226.789	3951.38
232.758	3813.38
238.719	3720.38
244.674	3571.38
250.623	3409.38
256.565	3243.38
262.5	3105.38
268.429	2931.38
274.351	2791.38
280.267	2656.38
286.176	2543.38
292.079	2452.38
297.975	2325.38
303.865	2254.38
309.748	2182.38
315.625	2124.38
321.495	2060.38
327.359	2029.38
333.217	2007.38
339.068	1987.38
344.912	1973.38
350.751	1964.38
356.583	1949.38
362.408	1951.38
368.227	1941.38
374.04	1951.38
379.847	1959.38
385.647	1955.38
391.44	1971.38
397.228	1996.38
403.009	1995.38
408.784	2002.38
414.553	2010.38
420.315	2025.38
426.071	2023.38
431.821	2027.38
437.565	2006.38
443.302	2014.38
449.033	2000.38
454.758	1983.38
460.477	1992.38
466.189	1981.38
471.896	1961.38
477.596	1951.38
483.29	1927.38
488.978	1933.38
494.66	1923.38
500.335	1892.38
506.005	1864.38
511.668	1859.38
517.325	1794.38
522.977	1758.38
528.622	1717.38
534.261	1674.38
539.894	1658.38
545.521	1641.38
551.141	1629.38
556.756	1630.38
562.365	1600.38
567.968	1574.38
573.565	1580.38
579.155	1562.38
584.74	1557.38
590.319	1530.38
595.892	1517.38
601.459	1506.38
607.02	1506.38
612.575	1502.38
618.124	1480.38
623.667	1449.38
629.204	1431.38
634.735	1433.38
640.261	1410.38
645.781	1397.38
651.294	1390.38
656.802	1375.38
662.304	1373.38
667.8	1351.38
673.29	1357.38
678.775	1341.38
684.254	1337.38
689.726	1333.38
695.193	1317.38
700.655	1308.38
706.11	1295.38
711.56	1290.38
717.004	1273.38
722.442	1265.38
727.874	1254.38
733.301	1236.38
738.722	1239.38
744.137	1238.38
749.547	1216.38
754.951	1215.38
760.349	1193.38
765.741	1216.38
771.128	1205.38
776.509	1201.38
781.885	1192.38
787.254	1204.38
792.618	1188.38
797.977	1196.38
803.33	1160.38
808.677	1158.38
814.019	1132.38
819.355	1133.38
824.686	1121.38
830.011	1087.38
835.33	1084.38
840.644	1077.38
845.952	1056.38
851.255	1056.38
856.552	1043.38
861.844	1037.38
867.13	1032.38
872.41	1019.38
877.686	998.38
882.955	994.38
888.219	961.38
893.478	954.38
898.731	944.38
903.979	912.38
909.221	897.38
914.458	875.38
919.69	870.38
924.916	860.38
930.136	861.38
935.351	871.38
940.561	857.38
945.766	848.38
950.965	851.38
956.158	842.38
961.347	817.38
966.529	808.38
971.707	795.38
976.879	779.38
982.046	770.38
987.208	769.38
992.364	768.38
997.515	761.38
1002.66	753.38
1007.801	771.38
1012.936	763.38
1018.066	771.38
1023.19	775.38
1028.309	792.38
1033.423	768.38
1038.532	766.38
1043.636	762.38
1048.734	760.38
1053.827	763.38
1058.915	739.38
1063.998	734.38
1069.075	725.38
1074.147	720.38
1079.214	737.38
1084.276	730.38
1089.333	737.38
1094.385	723.38
1099.431	738.38
1104.472	749.38
1109.509	738.38
1114.54	725.38
1119.565	709.38
1124.586	715.38
1129.602	715.38
1134.613	693.38
1139.618	692.38
1144.619	695.38
1149.614	691.38
1154.604	691.38
1159.589	697.38
1164.57	697.38
1169.545	707.38
1174.515	707.38
1179.48	704.38
1184.44	685.38
1189.395	685.38
1194.345	689.38
1199.29	689.38
1204.23	669.38
1209.165	676.38
1214.095	683.38
1219.021	679.38
1223.941	689.38
1228.856	686.38
1233.766	708.38
1238.672	698.38
1243.572	683.38
1248.467	689.38
1253.358	696.38
1258.244	682.38
1263.124	668.38
1268	654.38
1272.871	642.38
1277.737	636.38
1282.599	620.38
1287.455	628.38
1292.306	633.38
1297.153	641.38
1301.995	638.38
1306.832	647.38
1311.664	639.38
1316.491	640.38
1321.314	639.38
1326.132	642.38
1330.945	621.38
1335.753	612.38
1340.556	602.38
1345.354	597.38
1350.148	568.38
1354.937	567.38
1359.722	564.38
1364.501	553.38
1369.276	565.38
1374.046	577.38
1378.811	581.38
1383.572	593.38
1388.327	589.38
1393.079	597.38
1397.825	579.38
1402.567	571.38
1407.304	558.38
1412.036	560.38
1416.764	547.38
1421.487	540.38
1426.205	542.38
1430.919	542.38
1435.628	552.38
1440.333	552.38
1445.032	555.38
1449.727	549.38
1454.418	554.38
1459.104	558.38
1463.785	553.38
1468.462	537.38
1473.134	550.38
1477.802	536.38
1482.465	538.38
1487.123	528.38
1491.777	530.38
1496.426	538.38
1501.071	542.38
1505.711	541.38
1510.347	572.38
1514.978	575.38
1519.604	581.38
1524.226	585.38
1528.844	597.38
1533.457	608.38
1538.065	608.38
1542.669	611.38
1547.269	600.38
1551.864	616.38
1556.454	617.38
1561.041	622.38
1565.622	628.38
1570.199	641.38
1574.772	650.38
1579.34	669.38
1583.904	684.38
1588.464	692.38
1593.019	718.38
1597.569	737.38
1602.115	756.38
1606.657	757.38
1611.195	775.38
1615.728	797.38
1620.256	787.38
1624.78	821.38
1629.3	843.38
1633.816	842.38
1638.327	852.38
1642.834	874.38
1647.336	894.38
1651.834	893.38
1656.328	879.38
1660.817	882.38
1665.302	861.38
1669.783	851.38
1674.259	811.38
1678.732	776.38
1683.199	764.38
1687.663	711.38
1692.122	671.38
1696.577	636.38
1701.028	626.38
1705.474	577.38
1709.917	575.38
1714.355	572.38
1718.788	539.38
1723.218	510.38
1727.643	489.38
1732.064	475.38
1736.481	467.38
1740.893	440.38
1745.301	416.38
1749.705	393.38
1754.105	384.38
1758.501	352.38
1762.893	350.38
1767.28	335.38
1771.663	325.38
1776.042	320.38
1780.417	309.38
1784.787	301.38
1789.154	305.38
1793.516	301.38
1797.874	313.38
1802.228	310.38
1806.578	315.38
1810.924	311.38
1815.266	301.38
1819.603	303.38
1823.937	292.38
1828.266	288.38
1832.591	287.38
1836.913	272.38
1841.23	270.38
1845.543	275.38
1849.852	262.38
1854.156	261.38
1858.457	266.38
1862.754	260.38
1867.047	259.38
1871.335	256.38
1875.62	260.38
1879.9	269.38
1884.177	267.38
1888.449	262.38
1892.718	263.38
1896.982	266.38
1901.243	257.38
1905.499	258.38
1909.752	262.38
1914	261.38
1918.245	266.38
1922.485	260.38
1926.722	272.38
1930.954	272.38
1935.183	276.38
1939.408	284.38
1943.628	279.38
1947.845	284.38
1952.058	284.38
1956.267	284.38
1960.472	283.38
1964.673	276.38
1968.87	270.38
1973.063	273.38
1977.252	272.38
1981.438	269.38
1985.619	267.38
1989.797	270.38
1993.971	268.38
1998.14	259.38
2002.306	265.38
2006.469	275.38
2010.627	268.38
2014.781	275.38
2018.932	276.38
2023.078	270.38
2027.221	269.38
2031.36	278.38
2035.495	267.38
2039.627	257.38
2043.754	268.38
2047.878	263.38
2051.998	262.38
2056.114	267.38
2060.226	273.38
2064.334	277.38
2068.439	283.38
2072.54	282.38
2076.637	286.38
2080.73	286.38
2084.82	283.38
2088.906	287.38
2092.988	293.38
2097.066	282.38
2101.14	281.38
2105.211	291.38
2109.278	293.38
2113.342	283.38
2117.401	285.38
2121.457	284.38
2125.509	280.38
2129.558	287.38
2133.602	276.38
2137.643	280.38
2141.681	280.38
2145.714	276.38
2149.744	278.38
2153.77	266.38
2157.793	262.38
2161.812	265.38
2165.827	262.38
2169.838	256.38
2173.846	253.38
2177.851	238.38
2181.851	245.38
2185.848	236.38
2189.841	232.38
2193.831	221.38
2197.817	221.38
2201.799	219.38
2205.778	222.38
2209.753	226.38
2213.725	208.38
2217.693	214.38
2221.657	211.38
2225.618	208.38
2229.575	205.38
2233.529	210.38
2237.479	204.38
2241.425	205.38
2245.368	187.38
2249.307	192.38
2253.243	193.38
2257.175	183.38
2261.104	178.38
2265.029	175.38
2268.95	176.38
2272.868	168.38
2276.783	167.38
2280.694	163.38
2284.601	156.38
2288.505	155.38
2292.405	158.38
2296.302	151.38
2300.195	154.38
2304.085	146.38
2307.971	137.38
2311.854	137.38
2315.734	137.38
2319.609	124.38
2323.482	128.38
2327.351	131.38
2331.216	127.38
2335.078	127.38
2338.937	125.38
2342.792	126.38
2346.643	120.38
2350.492	125.38
2354.336	118.38
2358.178	123.38
2362.015	115.38
2365.85	111.38
2369.681	111.38
2373.508	109.38
2377.333	109.38
2381.153	110.38
2384.971	112.38
2388.785	112.38
2392.595	107.38
2396.402	112.38
2400.206	105.38
2404.007	101.38
2407.804	106.38
2411.597	99.38
2415.388	98.38
2419.174	94.38
2422.958	96.38
2426.738	95.38
2430.515	93.38
2434.289	92.38
2438.059	89.38
2441.825	92.38
2445.589	90.38
2449.349	92.38
2453.106	94.38
2456.859	86.38
2460.61	87.38
2464.356	82.38
2468.1	82.38
2471.84	79.38
2475.577	78.38
2479.311	83.38
2483.041	80.38
2486.768	75.38
2490.492	82.38
2494.213	85.38
2497.93	77.38
2501.644	74.38
2505.355	76.38
2509.062	76.38
2512.766	84.38
2516.467	80.38
2520.165	71.38
2523.859	75.38
2527.551	72.38
2531.239	74.38
2534.923	76.38
2538.605	74.38
2542.283	72.38
2545.958	67.38
2549.63	68.38
2553.299	70.38
2556.964	69.38
2560.626	67.38
2564.285	63.38
2567.941	60.38
2571.594	68.38
2575.243	62.38
2578.89	59.38
2582.533	64.38
2586.173	65.38
2589.809	63.38
2593.443	56.38
2597.073	65.38
2600.701	60.38
2604.325	59.38
2607.946	65.38
2611.564	62.38
2615.178	61.38
2618.79	56.38
2622.398	54.38
2626.004	51.38
2629.606	54.38
2633.205	53.38
2636.801	51.38
2640.394	59.38
2643.983	55.38
2647.57	50.38
2651.153	52.38
2654.734	46.38
2658.311	51.38
2661.885	50.38
2665.456	46.38
2669.025	42.38
2672.589	49.38
2676.151	48.38
2679.71	41.38
2683.266	42.38
2686.819	40.38
2690.368	41.38
2693.915	42.38
2697.458	38.38
2700.999	39.38
2704.536	44.38
2708.071	41.38
2711.602	41.38
2715.13	41.38
2718.656	37.38
2722.178	41.38
2725.697	41.38
2729.214	39.38
2732.727	35.38
2736.237	35.38
2739.744	42.38
2743.249	47.38
2746.75	44.38
2750.248	46.38
2753.743	49.38
2757.236	51.38
2760.725	53.38
2764.211	58.38
2767.695	58.38
2771.175	50.38
2774.652	54.38
2778.127	52.38
2781.598	51.38
2785.067	53.38
2788.532	53.38
2791.995	56.38
2795.455	55.38
2798.911	60.38
2802.365	57.38
2805.816	62.38
2809.264	66.38
2812.709	60.38
2816.151	62.38
2819.59	72.38
2823.026	66.38
2826.46	63.38
2829.89	71.38
2833.318	77.38
2836.742	75.38
2840.164	84.38
2843.583	76.38
2846.999	80.38
2850.412	86.38
2853.822	91.38
2857.229	87.38
2860.634	87.38
2864.035	89.38
2867.434	98.38
2870.83	105.38
2874.223	106.38
2877.613	104.38
2881	107.38
2884.385	113.38
2887.766	111.38
2891.145	116.38
2894.521	110.38
2897.894	125.38
2901.264	129.38
2904.631	127.38
2907.996	130.38
2911.358	134.38
2914.717	132.38
2918.073	141.38
2921.426	140.38
2924.777	148.38
2928.124	156.38
2931.469	153.38
2934.811	156.38
2938.15	165.38
2941.487	173.38
2944.821	179.38
2948.152	186.38
2951.48	185.38
2954.805	192.38
2958.128	196.38
2961.447	211.38
2964.765	207.38
2968.079	214.38
2971.39	218.38
2974.699	227.38
2978.005	227.38
2981.308	246.38
2984.609	250.38
2987.907	269.38
2991.202	273.38
2994.494	291.38
2997.784	300.38
3001.07	316.38
3004.355	323.38
3007.636	330.38
3010.915	345.38
3014.191	359.38
3017.464	362.38
3020.734	385.38
3024.002	383.38
3027.267	398.38
3030.53	411.38
3033.789	409.38
3037.046	416.38
3040.301	423.38
3043.552	447.38
3046.801	455.38
3050.048	458.38
3053.291	491.38
3056.532	492.38
3059.771	517.38
3063.006	539.38
3066.239	563.38
3069.469	570.38
3072.697	587.38
3075.922	607.38
3079.144	644.38
3082.364	651.38
3085.581	666.38
3088.795	685.38
3092.007	704.38
3095.216	718.38
3098.423	730.38
3101.627	757.38
3104.828	773.38
3108.026	783.38
3111.222	811.38
3114.416	835.38
3117.607	859.38
3120.795	876.38
3123.98	905.38
3127.163	912.38
3130.344	954.38
3133.521	967.38
3136.696	978.38
3139.869	1010.38
3143.039	1027.38
3146.206	1057.38
3149.371	1074.38
3152.533	1077.38
3155.693	1080.38
3158.85	1092.38
3162.005	1106.38
3165.157	1113.38
3168.306	1107.38
3171.453	1135.38
3174.597	1125.38
3177.739	1137.38
3180.878	1125.38
3184.014	1137.38
3187.149	1144.38
3190.28	1150.38
3193.409	1148.38
3196.536	1147.38
3199.659	1159.38
3202.781	1179.38
3205.9	1161.38
3209.016	1160.38
3212.13	1151.38
3215.241	1145.38
3218.35	1153.38
3221.456	1123.38
3224.56	1116.38
3227.661	1110.38
3230.76	1104.38
3233.856	1085.38
3236.95	1099.38
3240.041	1093.38
3243.13	1085.38
3246.216	1076.38
3249.3	1056.38
3252.382	1063.38
3255.46	1055.38
3258.537	1050.38
3261.611	1051.38
3264.682	1039.38
3267.751	1043.38
3270.818	1023.38
3273.882	1021.38
3276.943	1021.38
3280.002	1010.38
3283.059	1004.38
3286.113	1000.38
3289.165	982.38
3292.214	966.38
3295.261	967.38
3298.306	941.38
3301.348	942.38
3304.387	911.38
3307.425	911.38
3310.459	892.38
3313.492	880.38
3316.521	881.38
3319.549	846.38
3322.574	854.38
3325.597	836.38
3328.617	831.38
3331.635	837.38
3334.65	812.38
3337.663	815.38
3340.674	825.38
3343.682	816.38
3346.688	817.38
3349.691	820.38
3352.692	806.38
3355.691	803.38
3358.687	800.38
3361.681	799.38
3364.673	782.38
3367.662	772.38
3370.649	758.38
3373.633	760.38
3376.615	753.38
3379.595	727.38
3382.572	727.38
3385.547	718.38
3388.52	701.38
3391.49	694.38
3394.458	681.38
3397.424	669.38
3400.387	671.38
3403.348	673.38
3406.307	661.38
3409.263	655.38
3412.217	646.38
3415.168	644.38
3418.118	628.38
3421.065	625.38
3424.009	620.38
3426.951	614.38
3429.891	603.38
3432.829	587.38
3435.764	579.38
3438.697	564.38
3441.628	558.38
3444.557	526.38
3447.483	535.38
3450.407	516.38
3453.328	499.38
3456.247	488.38
3459.164	472.38
3462.079	467.38
3464.991	444.38
3467.902	442.38
3470.809	418.38
3473.715	407.38
3476.618	398.38
3479.519	386.38
3482.418	384.38
3485.315	367.38
3488.209	356.38
3491.101	348.38
3493.99	333.38
3496.878	321.38
3499.763	323.38
3502.646	312.38
3505.527	303.38
3508.405	291.38
3511.281	276.38
3514.155	273.38
3517.027	266.38
3519.897	254.38
3522.764	238.38
3525.629	228.38
3528.492	213.38
3531.352	207.38
3534.211	190.38
3537.067	174.38
3539.921	178.38
3542.773	158.38
3545.622	153.38
3548.469	144.38
3551.315	136.38
3554.157	130.38
3556.998	127.38
3559.837	124.38
3562.673	116.38
3565.507	108.38
3568.339	104.38
3571.169	97.38
3573.996	98.38
3576.822	89.38
3579.645	80.38
3582.466	73.38
3585.285	68.38
3588.101	66.38
3590.916	55.38
3593.728	55.38
3596.538	55.38
3599.346	45.38
3602.152	45.38
3604.956	43.38
3607.757	32.38
3610.556	30.38
3613.354	26.38
3616.149	26.38
3618.942	23.38
3621.732	13.38
3624.521	14.38
3627.307	13.38
3630.092	11.38
3632.874	10.38
3635.654	7.38
3638.432	-0.62
3641.208	-1.62
3643.982	-1.62
3646.753	-9.62
3649.523	-7.62
3652.29	-13.62
3655.055	-11.62
3657.818	-11.62
3660.579	-21.62
3663.338	-22.62
3666.095	-18.62
3668.849	-20.62
3671.602	-26.62
3674.352	-24.62
3677.101	-26.62
3679.847	-30.62
3682.591	-31.62
3685.333	-35.62
3688.073	-40.62
3690.811	-40.62
3693.547	-46.62
3696.281	-41.62
3699.013	-46.62
3701.742	-45.62
3704.47	-43.62
3707.195	-41.62
3709.919	-44.62
3712.64	-47.62
3715.359	-45.62
3718.076	-43.62
3720.792	-46.62
3723.505	-51.62
3726.216	-55.62
3728.925	-54.62
3731.632	-54.62
3734.336	-59.62
3737.039	-58.62
3739.74	-56.62
3742.439	-61.62
3745.136	-57.62
3747.83	-51.62
3750.523	-53.62
3753.213	-55.62
3755.902	-53.62
3758.589	-55.62
3761.273	-58.62
3763.956	-60.62
3766.636	-60.62
3769.315	-61.62
3771.991	-59.62
3774.665	-66.62
3777.338	-64.62
3780.008	-63.62
3782.677	-61.62
3785.343	-64.62
3788.007	-60.62
3790.67	-61.62
3793.33	-63.62
3795.989	-60.62
3798.645	-61.62
3801.299	-64.62
3803.952	-68.62
3806.602	-67.62
3809.251	-63.62
3811.897	-69.62
3814.542	-64.62
3817.184	-67.62
3819.825	-66.62
3822.463	-64.62
3825.1	-67.62
3827.735	-65.62
3830.367	-66.62
3832.998	-66.62
3835.627	-65.62
3838.253	-66.62
3840.878	-65.62
3843.501	-70.62
3846.122	-64.62
3848.741	-65.62
3851.358	-63.62
3853.973	-69.62
3856.586	-70.62
3859.197	-67.62
3861.806	-67.62
3864.414	-68.62
3867.019	-68.62
3869.622	-70.62
3872.224	-64.62
3874.823	-68.62
3877.421	-66.62
3880.016	-63.62
3882.61	-65.62
3885.202	-61.62
3887.792	-59.62
3890.38	-59.62
3892.966	-64.62
3895.55	-66.62
3898.132	-64.62
3900.713	-65.62
3903.291	-67.62
3905.868	-70.62
3908.442	-69.62
3911.015	-75.62
3913.586	-73.62
3916.155	-74.62
3918.722	-70.62
3921.287	-70.62
3923.85	-67.62
3926.411	-67.62
3928.971	-69.62
3931.528	-70.62
3934.084	-68.62
3936.638	-70.62
3939.19	-67.62
3941.74	-70.62
3944.288	-74.62
3946.834	-74.62
3949.378	-71.62
3951.921	-70.62
3954.462	-73.62
3957	-73.62
3959.537	-68.62
3962.072	-69.62
3964.606	-66.62
3967.137	-66.62
3969.667	-67.62
3972.194	-69.62
3974.72	-70.62
3977.244	-69.62
3979.766	-67.62
3982.286	-71.62
3984.805	-70.62
3987.321	-72.62
3989.836	-71.62
3992.349	-73.62
3994.86	-75.62
3997.369	-71.62
3999.877	-66.62
4002.382	-67.62
4004.886	-66.62
4007.388	-64.62
4009.888	-63.62
4012.386	-66.62
4014.883	-65.62
4017.377	-70.62
4019.87	-68.62
4022.361	-68.62
4024.85	-71.62
4027.338	-69.62
4029.823	-72.62
4032.307	-70.62
4034.789	-74.62
4037.269	-70.62
4039.747	-67.62
4042.224	-69.62
4044.699	-71.62
4047.172	-68.62
4049.643	-67.62
4052.112	-66.62
4054.58	-71.62
4057.046	-67.62
4059.51	-70.62
4061.972	-68.62
4064.432	-69.62
4066.891	-71.62
4069.348	-68.62
4071.803	-66.62
4074.256	-68.62
4076.708	-70.62
4079.158	-72.62
4081.606	-73.62
4084.052	-67.62
4086.497	-68.62
4088.939	-67.62
4091.38	-68.62
4093.819	-69.62
4096.257	-74.62
4098.693	-71.62
4101.127	-72.62
4103.559	-73.62
4105.989	-15.62
4108.418	-13.62
4110.845	-11.62
4113.27	-14.62
4115.694	-7.62
4118.115	-7.62
4120.535	-73.62
4122.954	-70.62
4125.37	-69.62
4127.785	-70.62
4130.198	-66.62
4132.609	-69.62
4135.019	-74.62
4137.427	-73.62
4139.833	-71.62
4142.237	-72.62
