Data from Water_100CFU_RamanShift_11-14-43-902.txt Node
Date: Sun Dec 18 11:14:43 IST 2016
User: aro
Spectrometer: QEPB0276
Trigger mode: 0
Integration Time (sec): 5.000000E0
Scans to average: 1
Electric dark correction enabled: true
Nonlinearity correction enabled: false
Boxcar width: 0
XAxis mode: Raman Shifts
Number of Pixels in Spectrum: 1044
>>>>>Begin Spectral Data<<<<<
160.701	0.38
166.742	19.38
172.777	62.38
178.805	207.38
184.826	625.38
190.841	1465.38
196.849	2695.38
202.85	3811.38
208.845	4349.38
214.833	4329.38
220.815	4171.38
226.789	3984.38
232.758	3855.38
238.719	3751.38
244.674	3602.38
250.623	3443.38
256.565	3280.38
262.5	3109.38
268.429	2946.38
274.351	2798.38
280.267	2675.38
286.176	2553.38
292.079	2445.38
297.975	2349.38
303.865	2267.38
309.748	2175.38
315.625	2127.38
321.495	2076.38
327.359	2040.38
333.217	2001.38
339.068	1995.38
344.912	1977.38
350.751	1938.38
356.583	1943.38
362.408	1950.38
368.227	1953.38
374.04	1956.38
379.847	1958.38
385.647	1955.38
391.44	1971.38
397.228	1998.38
403.009	2013.38
408.784	2019.38
414.553	2025.38
420.315	2031.38
426.071	2036.38
431.821	2030.38
437.565	2020.38
443.302	2034.38
449.033	2023.38
454.758	1989.38
460.477	1993.38
466.189	1975.38
471.896	1963.38
477.596	1939.38
483.29	1937.38
488.978	1936.38
494.66	1920.38
500.335	1908.38
506.005	1853.38
511.668	1837.38
517.325	1792.38
522.977	1749.38
528.622	1730.38
534.261	1687.38
539.894	1662.38
545.521	1643.38
551.141	1646.38
556.756	1624.38
562.365	1594.38
567.968	1596.38
573.565	1582.38
579.155	1577.38
584.74	1547.38
590.319	1540.38
595.892	1521.38
601.459	1515.38
607.02	1510.38
612.575	1484.38
618.124	1473.38
623.667	1460.38
629.204	1425.38
634.735	1425.38
640.261	1422.38
645.781	1410.38
651.294	1386.38
656.802	1389.38
662.304	1364.38
667.8	1365.38
673.29	1338.38
678.775	1343.38
684.254	1334.38
689.726	1325.38
695.193	1330.38
700.655	1316.38
706.11	1295.38
711.56	1286.38
717.004	1261.38
722.442	1270.38
727.874	1243.38
733.301	1240.38
738.722	1231.38
744.137	1220.38
749.547	1214.38
754.951	1220.38
760.349	1216.38
765.741	1188.38
771.128	1202.38
776.509	1208.38
781.885	1195.38
787.254	1200.38
792.618	1184.38
797.977	1175.38
803.33	1169.38
808.677	1162.38
814.019	1143.38
819.355	1127.38
824.686	1113.38
830.011	1086.38
835.33	1086.38
840.644	1065.38
845.952	1065.38
851.255	1051.38
856.552	1033.38
861.844	1031.38
867.13	1014.38
872.41	1005.38
877.686	991.38
882.955	980.38
888.219	953.38
893.478	943.38
898.731	917.38
903.979	903.38
909.221	902.38
914.458	888.38
919.69	872.38
924.916	857.38
930.136	849.38
935.351	845.38
940.561	838.38
945.766	836.38
950.965	840.38
956.158	827.38
961.347	822.38
966.529	797.38
971.707	792.38
976.879	786.38
982.046	765.38
987.208	748.38
992.364	756.38
997.515	745.38
1002.66	751.38
1007.801	755.38
1012.936	761.38
1018.066	769.38
1023.19	769.38
1028.309	775.38
1033.423	762.38
1038.532	756.38
1043.636	753.38
1048.734	750.38
1053.827	746.38
1058.915	725.38
1063.998	722.38
1069.075	730.38
1074.147	714.38
1079.214	718.38
1084.276	727.38
1089.333	731.38
1094.385	730.38
1099.431	725.38
1104.472	729.38
1109.509	722.38
1114.54	718.38
1119.565	716.38
1124.586	702.38
1129.602	702.38
1134.613	694.38
1139.618	684.38
1144.619	683.38
1149.614	687.38
1154.604	677.38
1159.589	680.38
1164.57	682.38
1169.545	688.38
1174.515	702.38
1179.48	691.38
1184.44	683.38
1189.395	679.38
1194.345	682.38
1199.29	673.38
1204.23	649.38
1209.165	670.38
1214.095	672.38
1219.021	670.38
1223.941	675.38
1228.856	689.38
1233.766	685.38
1238.672	687.38
1243.572	691.38
1248.467	689.38
1253.358	675.38
1258.244	666.38
1263.124	656.38
1268	646.38
1272.871	627.38
1277.737	627.38
1282.599	609.38
1287.455	627.38
1292.306	615.38
1297.153	634.38
1301.995	626.38
1306.832	625.38
1311.664	630.38
1316.491	636.38
1321.314	632.38
1326.132	630.38
1330.945	611.38
1335.753	605.38
1340.556	591.38
1345.354	574.38
1350.148	561.38
1354.937	561.38
1359.722	546.38
1364.501	559.38
1369.276	562.38
1374.046	578.38
1378.811	581.38
1383.572	588.38
1388.327	580.38
1393.079	577.38
1397.825	574.38
1402.567	564.38
1407.304	545.38
1412.036	542.38
1416.764	535.38
1421.487	540.38
1426.205	530.38
1430.919	537.38
1435.628	545.38
1440.333	545.38
1445.032	533.38
1449.727	550.38
1454.418	548.38
1459.104	554.38
1463.785	542.38
1468.462	541.38
1473.134	525.38
1477.802	538.38
1482.465	524.38
1487.123	526.38
1491.777	533.38
1496.426	521.38
1501.071	546.38
1505.711	549.38
1510.347	566.38
1514.978	566.38
1519.604	586.38
1524.226	581.38
1528.844	595.38
1533.457	598.38
1538.065	602.38
1542.669	602.38
1547.269	606.38
1551.864	597.38
1556.454	613.38
1561.041	622.38
1565.622	621.38
1570.199	620.38
1574.772	645.38
1579.34	656.38
1583.904	681.38
1588.464	686.38
1593.019	707.38
1597.569	728.38
1602.115	746.38
1606.657	746.38
1611.195	773.38
1615.728	777.38
1620.256	788.38
1624.78	822.38
1629.3	826.38
1633.816	840.38
1638.327	855.38
1642.834	878.38
1647.336	887.38
1651.834	900.38
1656.328	890.38
1660.817	865.38
1665.302	860.38
1669.783	845.38
1674.259	827.38
1678.732	785.38
1683.199	769.38
1687.663	716.38
1692.122	660.38
1696.577	643.38
1701.028	614.38
1705.474	608.38
1709.917	583.38
1714.355	558.38
1718.788	541.38
1723.218	519.38
1727.643	487.38
1732.064	485.38
1736.481	442.38
1740.893	427.38
1745.301	402.38
1749.705	386.38
1754.105	367.38
1758.501	358.38
1762.893	342.38
1767.28	326.38
1771.663	312.38
1776.042	306.38
1780.417	301.38
1784.787	304.38
1789.154	305.38
1793.516	306.38
1797.874	313.38
1802.228	310.38
1806.578	313.38
1810.924	311.38
1815.266	293.38
1819.603	292.38
1823.937	284.38
1828.266	280.38
1832.591	275.38
1836.913	266.38
1841.23	266.38
1845.543	252.38
1849.852	247.38
1854.156	250.38
1858.457	250.38
1862.754	260.38
1867.047	258.38
1871.335	255.38
1875.62	261.38
1879.9	258.38
1884.177	266.38
1888.449	249.38
1892.718	255.38
1896.982	257.38
1901.243	252.38
1905.499	256.38
1909.752	247.38
1914	246.38
1918.245	249.38
1922.485	260.38
1926.722	262.38
1930.954	270.38
1935.183	267.38
1939.408	280.38
1943.628	290.38
1947.845	279.38
1952.058	273.38
1956.267	282.38
1960.472	281.38
1964.673	270.38
1968.87	272.38
1973.063	266.38
1977.252	263.38
1981.438	259.38
1985.619	260.38
1989.797	257.38
1993.971	255.38
1998.14	262.38
2002.306	259.38
2006.469	270.38
2010.627	266.38
2014.781	266.38
2018.932	268.38
2023.078	270.38
2027.221	268.38
2031.36	263.38
2035.495	268.38
2039.627	263.38
2043.754	262.38
2047.878	258.38
2051.998	265.38
2056.114	264.38
2060.226	259.38
2064.334	271.38
2068.439	268.38
2072.54	275.38
2076.637	282.38
2080.73	275.38
2084.82	277.38
2088.906	290.38
2092.988	290.38
2097.066	292.38
2101.14	288.38
2105.211	292.38
2109.278	282.38
2113.342	281.38
2117.401	284.38
2121.457	277.38
2125.509	278.38
2129.558	276.38
2133.602	276.38
2137.643	270.38
2141.681	272.38
2145.714	273.38
2149.744	267.38
2153.77	266.38
2157.793	258.38
2161.812	258.38
2165.827	253.38
2169.838	257.38
2173.846	251.38
2177.851	246.38
2181.851	235.38
2185.848	234.38
2189.841	225.38
2193.831	220.38
2197.817	215.38
2201.799	214.38
2205.778	210.38
2209.753	208.38
2213.725	211.38
2217.693	201.38
2221.657	209.38
2225.618	205.38
2229.575	202.38
2233.529	199.38
2237.479	202.38
2241.425	200.38
2245.368	188.38
2249.307	192.38
2253.243	183.38
2257.175	173.38
2261.104	172.38
2265.029	170.38
2268.95	165.38
2272.868	169.38
2276.783	163.38
2280.694	152.38
2284.601	152.38
2288.505	153.38
2292.405	160.38
2296.302	150.38
2300.195	150.38
2304.085	147.38
2307.971	141.38
2311.854	140.38
2315.734	127.38
2319.609	124.38
2323.482	123.38
2327.351	118.38
2331.216	118.38
2335.078	123.38
2338.937	120.38
2342.792	114.38
2346.643	111.38
2350.492	112.38
2354.336	113.38
2358.178	119.38
2362.015	111.38
2365.85	110.38
2369.681	108.38
2373.508	105.38
2377.333	108.38
2381.153	107.38
2384.971	108.38
2388.785	105.38
2392.595	102.38
2396.402	101.38
2400.206	92.38
2404.007	100.38
2407.804	98.38
2411.597	94.38
2415.388	97.38
2419.174	90.38
2422.958	92.38
2426.738	91.38
2430.515	90.38
2434.289	88.38
2438.059	88.38
2441.825	92.38
2445.589	87.38
2449.349	88.38
2453.106	82.38
2456.859	78.38
2460.61	80.38
2464.356	78.38
2468.1	72.38
2471.84	78.38
2475.577	71.38
2479.311	77.38
2483.041	77.38
2486.768	74.38
2490.492	77.38
2494.213	73.38
2497.93	78.38
2501.644	76.38
2505.355	76.38
2509.062	74.38
2512.766	79.38
2516.467	78.38
2520.165	71.38
2523.859	73.38
2527.551	71.38
2531.239	62.38
2534.923	67.38
2538.605	66.38
2542.283	69.38
2545.958	60.38
2549.63	64.38
2553.299	66.38
2556.964	65.38
2560.626	68.38
2564.285	64.38
2567.941	60.38
2571.594	61.38
2575.243	59.38
2578.89	54.38
2582.533	59.38
2586.173	56.38
2589.809	58.38
2593.443	52.38
2597.073	55.38
2600.701	57.38
2604.325	52.38
2607.946	59.38
2611.564	54.38
2615.178	54.38
2618.79	54.38
2622.398	54.38
2626.004	57.38
2629.606	54.38
2633.205	50.38
2636.801	49.38
2640.394	52.38
2643.983	47.38
2647.57	48.38
2651.153	47.38
2654.734	45.38
2658.311	52.38
2661.885	49.38
2665.456	39.38
2669.025	45.38
2672.589	44.38
2676.151	43.38
2679.71	39.38
2683.266	42.38
2686.819	43.38
2690.368	41.38
2693.915	43.38
2697.458	42.38
2700.999	40.38
2704.536	40.38
2708.071	38.38
2711.602	31.38
2715.13	39.38
2718.656	36.38
2722.178	39.38
2725.697	35.38
2729.214	35.38
2732.727	38.38
2736.237	35.38
2739.744	44.38
2743.249	44.38
2746.75	44.38
2750.248	44.38
2753.743	43.38
2757.236	47.38
2760.725	46.38
2764.211	49.38
2767.695	51.38
2771.175	50.38
2774.652	53.38
2778.127	48.38
2781.598	51.38
2785.067	49.38
2788.532	50.38
2791.995	48.38
2795.455	53.38
2798.911	58.38
2802.365	58.38
2805.816	63.38
2809.264	63.38
2812.709	65.38
2816.151	68.38
2819.59	68.38
2823.026	71.38
2826.46	69.38
2829.89	62.38
2833.318	73.38
2836.742	74.38
2840.164	78.38
2843.583	75.38
2846.999	80.38
2850.412	81.38
2853.822	88.38
2857.229	88.38
2860.634	89.38
2864.035	89.38
2867.434	96.38
2870.83	100.38
2874.223	103.38
2877.613	107.38
2881	118.38
2884.385	112.38
2887.766	112.38
2891.145	120.38
2894.521	115.38
2897.894	121.38
2901.264	119.38
2904.631	127.38
2907.996	129.38
2911.358	132.38
2914.717	136.38
2918.073	139.38
2921.426	137.38
2924.777	148.38
2928.124	152.38
2931.469	150.38
2934.811	163.38
2938.15	164.38
2941.487	172.38
2944.821	181.38
2948.152	183.38
2951.48	187.38
2954.805	186.38
2958.128	211.38
2961.447	205.38
2964.765	211.38
2968.079	218.38
2971.39	225.38
2974.699	236.38
2978.005	250.38
2981.308	251.38
2984.609	265.38
2987.907	268.38
2991.202	277.38
2994.494	296.38
2997.784	315.38
3001.07	319.38
3004.355	328.38
3007.636	338.38
3010.915	355.38
3014.191	360.38
3017.464	369.38
3020.734	383.38
3024.002	390.38
3027.267	392.38
3030.53	401.38
3033.789	412.38
3037.046	425.38
3040.301	436.38
3043.552	458.38
3046.801	471.38
3050.048	474.38
3053.291	503.38
3056.532	517.38
3059.771	535.38
3063.006	553.38
3066.239	569.38
3069.469	589.38
3072.697	609.38
3075.922	621.38
3079.144	637.38
3082.364	658.38
3085.581	675.38
3088.795	690.38
3092.007	711.38
3095.216	728.38
3098.423	751.38
3101.627	770.38
3104.828	799.38
3108.026	812.38
3111.222	836.38
3114.416	849.38
3117.607	891.38
3120.795	898.38
3123.98	928.38
3127.163	949.38
3130.344	979.38
3133.521	991.38
3136.696	1012.38
3139.869	1040.38
3143.039	1043.38
3146.206	1082.38
3149.371	1099.38
3152.533	1118.38
3155.693	1112.38
3158.85	1122.38
3162.005	1130.38
3165.157	1150.38
3168.306	1154.38
3171.453	1134.38
3174.597	1163.38
3177.739	1165.38
3180.878	1164.38
3184.014	1172.38
3187.149	1174.38
3190.28	1165.38
3193.409	1165.38
3196.536	1159.38
3199.659	1172.38
3202.781	1188.38
3205.9	1196.38
3209.016	1191.38
3212.13	1203.38
3215.241	1169.38
3218.35	1174.38
3221.456	1153.38
3224.56	1166.38
3227.661	1138.38
3230.76	1139.38
3233.856	1134.38
3236.95	1115.38
3240.041	1104.38
3243.13	1100.38
3246.216	1082.38
3249.3	1101.38
3252.382	1089.38
3255.46	1074.38
3258.537	1069.38
3261.611	1072.38
3264.682	1055.38
3267.751	1047.38
3270.818	1057.38
3273.882	1052.38
3276.943	1066.38
3280.002	1042.38
3283.059	1034.38
3286.113	1021.38
3289.165	1002.38
3292.214	1000.38
3295.261	978.38
3298.306	963.38
3301.348	946.38
3304.387	936.38
3307.425	923.38
3310.459	911.38
3313.492	902.38
3316.521	887.38
3319.549	879.38
3322.574	875.38
3325.597	867.38
3328.617	851.38
3331.635	849.38
3334.65	841.38
3337.663	839.38
3340.674	836.38
3343.682	852.38
3346.688	835.38
3349.691	829.38
3352.692	837.38
3355.691	815.38
3358.687	816.38
3361.681	808.38
3364.673	794.38
3367.662	783.38
3370.649	783.38
3373.633	758.38
3376.615	743.38
3379.595	758.38
3382.572	738.38
3385.547	728.38
3388.52	733.38
3391.49	717.38
3394.458	704.38
3397.424	704.38
3400.387	691.38
3403.348	688.38
3406.307	670.38
3409.263	661.38
3412.217	675.38
3415.168	644.38
3418.118	649.38
3421.065	640.38
3424.009	635.38
3426.951	628.38
3429.891	611.38
3432.829	611.38
3435.764	598.38
3438.697	589.38
3441.628	571.38
3444.557	551.38
3447.483	536.38
3450.407	522.38
3453.328	500.38
3456.247	498.38
3459.164	490.38
3462.079	473.38
3464.991	462.38
3467.902	444.38
3470.809	430.38
3473.715	422.38
3476.618	408.38
3479.519	398.38
3482.418	384.38
3485.315	379.38
3488.209	368.38
3491.101	354.38
3493.99	341.38
3496.878	338.38
3499.763	329.38
3502.646	317.38
3505.527	307.38
3508.405	295.38
3511.281	290.38
3514.155	275.38
3517.027	260.38
3519.897	253.38
3522.764	244.38
3525.629	230.38
3528.492	221.38
3531.352	210.38
3534.211	194.38
3537.067	187.38
3539.921	172.38
3542.773	166.38
3545.622	156.38
3548.469	155.38
3551.315	149.38
3554.157	145.38
3556.998	136.38
3559.837	128.38
3562.673	122.38
3565.507	113.38
3568.339	104.38
3571.169	100.38
3573.996	95.38
3576.822	100.38
3579.645	84.38
3582.466	74.38
3585.285	68.38
3588.101	64.38
3590.916	61.38
3593.728	57.38
3596.538	48.38
3599.346	49.38
3602.152	44.38
3604.956	43.38
3607.757	35.38
3610.556	27.38
3613.354	23.38
3616.149	24.38
3618.942	26.38
3621.732	16.38
3624.521	16.38
3627.307	6.38
3630.092	8.38
3632.874	8.38
3635.654	4.38
3638.432	-0.62
3641.208	-5.62
3643.982	3.38
3646.753	-6.62
3649.523	-7.62
3652.29	-13.62
3655.055	-14.62
3657.818	-12.62
3660.579	-20.62
3663.338	-18.62
3666.095	-21.62
3668.849	-22.62
3671.602	-27.62
3674.352	-25.62
3677.101	-26.62
3679.847	-30.62
3682.591	-35.62
3685.333	-38.62
3688.073	-38.62
3690.811	-45.62
3693.547	-45.62
3696.281	-42.62
3699.013	-44.62
3701.742	-43.62
3704.47	-44.62
3707.195	-46.62
3709.919	-44.62
3712.64	-46.62
3715.359	-43.62
3718.076	-42.62
3720.792	-49.62
3723.505	-49.62
3726.216	-54.62
3728.925	-57.62
3731.632	-55.62
3734.336	-56.62
3737.039	-61.62
3739.74	-59.62
3742.439	-61.62
3745.136	-56.62
3747.83	-53.62
3750.523	-56.62
3753.213	-53.62
3755.902	-57.62
3758.589	-56.62
3761.273	-55.62
3763.956	-60.62
3766.636	-60.62
3769.315	-63.62
3771.991	-63.62
3774.665	-65.62
3777.338	-64.62
3780.008	-64.62
3782.677	-66.62
3785.343	-62.62
3788.007	-60.62
3790.67	-60.62
3793.33	-64.62
3795.989	-63.62
3798.645	-58.62
3801.299	-64.62
3803.952	-68.62
3806.602	-65.62
3809.251	-65.62
3811.897	-66.62
3814.542	-69.62
3817.184	-67.62
3819.825	-66.62
3822.463	-65.62
3825.1	-68.62
3827.735	-70.62
3830.367	-65.62
3832.998	-69.62
3835.627	-67.62
3838.253	-69.62
3840.878	-68.62
3843.501	-68.62
3846.122	-66.62
3848.741	-66.62
3851.358	-65.62
3853.973	-69.62
3856.586	-69.62
3859.197	-66.62
3861.806	-65.62
3864.414	-72.62
3867.019	-67.62
3869.622	-70.62
3872.224	-68.62
3874.823	-70.62
3877.421	-70.62
3880.016	-66.62
3882.61	-63.62
3885.202	-61.62
3887.792	-58.62
3890.38	-57.62
3892.966	-66.62
3895.55	-66.62
3898.132	-66.62
3900.713	-67.62
3903.291	-67.62
3905.868	-69.62
3908.442	-71.62
3911.015	-73.62
3913.586	-73.62
3916.155	-75.62
3918.722	-71.62
3921.287	-72.62
3923.85	-70.62
3926.411	-65.62
3928.971	-69.62
3931.528	-70.62
3934.084	-68.62
3936.638	-70.62
3939.19	-70.62
3941.74	-70.62
3944.288	-74.62
3946.834	-73.62
3949.378	-75.62
3951.921	-71.62
3954.462	-74.62
3957	-74.62
3959.537	-72.62
3962.072	-69.62
3964.606	-67.62
3967.137	-68.62
3969.667	-68.62
3972.194	-72.62
3974.72	-74.62
3977.244	-67.62
3979.766	-70.62
3982.286	-68.62
3984.805	-70.62
3987.321	-70.62
3989.836	-70.62
3992.349	-74.62
3994.86	-74.62
3997.369	-72.62
3999.877	-70.62
4002.382	-74.62
4004.886	-69.62
4007.388	-68.62
4009.888	-69.62
4012.386	-68.62
4014.883	-68.62
4017.377	-69.62
4019.87	-67.62
4022.361	-71.62
4024.85	-72.62
4027.338	-66.62
4029.823	-72.62
4032.307	-70.62
4034.789	-70.62
4037.269	-68.62
4039.747	-71.62
4042.224	-68.62
4044.699	-71.62
4047.172	-67.62
4049.643	-70.62
4052.112	-69.62
4054.58	-75.62
4057.046	-73.62
4059.51	-73.62
4061.972	-72.62
4064.432	-69.62
4066.891	-72.62
4069.348	-66.62
4071.803	-67.62
4074.256	-69.62
4076.708	-69.62
4079.158	-68.62
4081.606	-70.62
4084.052	-68.62
4086.497	-68.62
4088.939	-68.62
4091.38	-69.62
4093.819	-71.62
4096.257	-75.62
4098.693	-73.62
4101.127	-72.62
4103.559	-72.62
4105.989	-14.62
4108.418	-13.62
4110.845	-9.62
4113.27	-6.62
4115.694	-13.62
4118.115	-6.62
4120.535	-75.62
4122.954	-73.62
4125.37	-71.62
4127.785	-74.62
4130.198	-71.62
4132.609	-73.62
4135.019	-73.62
4137.427	-70.62
4139.833	-71.62
4142.237	-73.62
