Data from Water2_RamanShift_11-11-18-915_RamanShift_13-58-04-832.txt Node
Date: Sun Dec 18 13:58:04 IST 2016
User: aro
Spectrometer: QEPB0276
Trigger mode: 0
Integration Time (sec): 5.000000E0
Scans to average: 1
Electric dark correction enabled: true
Nonlinearity correction enabled: false
Boxcar width: 0
XAxis mode: Raman Shifts
Number of Pixels in Spectrum: 1044
>>>>>Begin Spectral Data<<<<<
160.701	5.25
166.742	22.25
172.777	65.25
178.805	191.25
184.826	571.25
190.841	1391.25
196.849	2571.25
202.85	3675.25
208.845	4214.25
214.833	4232.25
220.815	4075.25
226.789	3923.25
232.758	3794.25
238.719	3713.25
244.674	3570.25
250.623	3453.25
256.565	3298.25
262.5	3149.25
268.429	2978.25
274.351	2863.25
280.267	2755.25
286.176	2658.25
292.079	2571.25
297.975	2447.25
303.865	2401.25
309.748	2307.25
315.625	2273.25
321.495	2218.25
327.359	2177.25
333.217	2113.25
339.068	2127.25
344.912	2099.25
350.751	2084.25
356.583	2075.25
362.408	2071.25
368.227	2098.25
374.04	2069.25
379.847	2081.25
385.647	2077.25
391.44	2084.25
397.228	2111.25
403.009	2132.25
408.784	2137.25
414.553	2152.25
420.315	2167.25
426.071	2158.25
431.821	2150.25
437.565	2167.25
443.302	2141.25
449.033	2143.25
454.758	2121.25
460.477	2117.25
466.189	2109.25
471.896	2095.25
477.596	2113.25
483.29	2071.25
488.978	2062.25
494.66	2041.25
500.335	2055.25
506.005	2011.25
511.668	1983.25
517.325	1930.25
522.977	1896.25
528.622	1894.25
534.261	1858.25
539.894	1831.25
545.521	1803.25
551.141	1819.25
556.756	1798.25
562.365	1768.25
567.968	1756.25
573.565	1760.25
579.155	1763.25
584.74	1735.25
590.319	1724.25
595.892	1726.25
601.459	1696.25
607.02	1702.25
612.575	1670.25
618.124	1668.25
623.667	1653.25
629.204	1632.25
634.735	1632.25
640.261	1600.25
645.781	1603.25
651.294	1570.25
656.802	1592.25
662.304	1591.25
667.8	1584.25
673.29	1564.25
678.775	1560.25
684.254	1561.25
689.726	1559.25
695.193	1553.25
700.655	1528.25
706.11	1517.25
711.56	1507.25
717.004	1492.25
722.442	1496.25
727.874	1491.25
733.301	1471.25
738.722	1479.25
744.137	1463.25
749.547	1457.25
754.951	1446.25
760.349	1460.25
765.741	1432.25
771.128	1448.25
776.509	1460.25
781.885	1463.25
787.254	1443.25
792.618	1448.25
797.977	1441.25
803.33	1433.25
808.677	1420.25
814.019	1384.25
819.355	1394.25
824.686	1408.25
830.011	1380.25
835.33	1370.25
840.644	1348.25
845.952	1365.25
851.255	1342.25
856.552	1352.25
861.844	1327.25
867.13	1340.25
872.41	1362.25
877.686	1364.25
882.955	1395.25
888.219	1368.25
893.478	1326.25
898.731	1296.25
903.979	1251.25
909.221	1227.25
914.458	1212.25
919.69	1196.25
924.916	1198.25
930.136	1198.25
935.351	1187.25
940.561	1202.25
945.766	1180.25
950.965	1178.25
956.158	1178.25
961.347	1157.25
966.529	1152.25
971.707	1122.25
976.879	1129.25
982.046	1101.25
987.208	1097.25
992.364	1100.25
997.515	1095.25
1002.66	1103.25
1007.801	1118.25
1012.936	1124.25
1018.066	1126.25
1023.19	1145.25
1028.309	1144.25
1033.423	1155.25
1038.532	1155.25
1043.636	1154.25
1048.734	1157.25
1053.827	1153.25
1058.915	1125.25
1063.998	1129.25
1069.075	1117.25
1074.147	1131.25
1079.214	1123.25
1084.276	1124.25
1089.333	1120.25
1094.385	1146.25
1099.431	1147.25
1104.472	1147.25
1109.509	1135.25
1114.54	1140.25
1119.565	1117.25
1124.586	1112.25
1129.602	1103.25
1134.613	1086.25
1139.618	1084.25
1144.619	1088.25
1149.614	1074.25
1154.604	1075.25
1159.589	1094.25
1164.57	1091.25
1169.545	1101.25
1174.515	1109.25
1179.48	1102.25
1184.44	1087.25
1189.395	1095.25
1194.345	1087.25
1199.29	1062.25
1204.23	1073.25
1209.165	1079.25
1214.095	1106.25
1219.021	1094.25
1223.941	1091.25
1228.856	1105.25
1233.766	1113.25
1238.672	1107.25
1243.572	1107.25
1248.467	1102.25
1253.358	1089.25
1258.244	1090.25
1263.124	1092.25
1268	1066.25
1272.871	1056.25
1277.737	1050.25
1282.599	1045.25
1287.455	1044.25
1292.306	1033.25
1297.153	1030.25
1301.995	1057.25
1306.832	1060.25
1311.664	1063.25
1316.491	1052.25
1321.314	1074.25
1326.132	1066.25
1330.945	1044.25
1335.753	1044.25
1340.556	1040.25
1345.354	1027.25
1350.148	1017.25
1354.937	999.25
1359.722	991.25
1364.501	990.25
1369.276	980.25
1374.046	960.25
1378.811	963.25
1383.572	963.25
1388.327	971.25
1393.079	963.25
1397.825	954.25
1402.567	951.25
1407.304	956.25
1412.036	939.25
1416.764	942.25
1421.487	948.25
1426.205	940.25
1430.919	952.25
1435.628	972.25
1440.333	968.25
1445.032	990.25
1449.727	993.25
1454.418	1015.25
1459.104	1010.25
1463.785	1031.25
1468.462	1010.25
1473.134	998.25
1477.802	982.25
1482.465	950.25
1487.123	961.25
1491.777	957.25
1496.426	965.25
1501.071	963.25
1505.711	963.25
1510.347	957.25
1514.978	968.25
1519.604	982.25
1524.226	994.25
1528.844	984.25
1533.457	996.25
1538.065	988.25
1542.669	1001.25
1547.269	987.25
1551.864	993.25
1556.454	1004.25
1561.041	992.25
1565.622	1020.25
1570.199	1028.25
1574.772	1035.25
1579.34	1051.25
1583.904	1078.25
1588.464	1089.25
1593.019	1106.25
1597.569	1115.25
1602.115	1130.25
1606.657	1133.25
1611.195	1159.25
1615.728	1179.25
1620.256	1161.25
1624.78	1183.25
1629.3	1217.25
1633.816	1235.25
1638.327	1244.25
1642.834	1238.25
1647.336	1276.25
1651.834	1273.25
1656.328	1280.25
1660.817	1271.25
1665.302	1254.25
1669.783	1239.25
1674.259	1207.25
1678.732	1175.25
1683.199	1132.25
1687.663	1112.25
1692.122	1066.25
1696.577	1026.25
1701.028	995.25
1705.474	938.25
1709.917	899.25
1714.355	901.25
1718.788	873.25
1723.218	851.25
1727.643	849.25
1732.064	832.25
1736.481	815.25
1740.893	804.25
1745.301	789.25
1749.705	765.25
1754.105	748.25
1758.501	734.25
1762.893	718.25
1767.28	705.25
1771.663	702.25
1776.042	700.25
1780.417	682.25
1784.787	693.25
1789.154	683.25
1793.516	684.25
1797.874	675.25
1802.228	684.25
1806.578	672.25
1810.924	658.25
1815.266	655.25
1819.603	647.25
1823.937	644.25
1828.266	640.25
1832.591	627.25
1836.913	625.25
1841.23	624.25
1845.543	632.25
1849.852	629.25
1854.156	637.25
1858.457	637.25
1862.754	633.25
1867.047	643.25
1871.335	640.25
1875.62	647.25
1879.9	638.25
1884.177	629.25
1888.449	636.25
1892.718	643.25
1896.982	638.25
1901.243	636.25
1905.499	626.25
1909.752	618.25
1914	630.25
1918.245	626.25
1922.485	621.25
1926.722	617.25
1930.954	625.25
1935.183	615.25
1939.408	634.25
1943.628	636.25
1947.845	635.25
1952.058	628.25
1956.267	630.25
1960.472	622.25
1964.673	622.25
1968.87	624.25
1973.063	607.25
1977.252	604.25
1981.438	602.25
1985.619	610.25
1989.797	606.25
1993.971	607.25
1998.14	606.25
2002.306	611.25
2006.469	606.25
2010.627	605.25
2014.781	621.25
2018.932	617.25
2023.078	618.25
2027.221	620.25
2031.36	621.25
2035.495	617.25
2039.627	612.25
2043.754	603.25
2047.878	600.25
2051.998	604.25
2056.114	598.25
2060.226	612.25
2064.334	602.25
2068.439	609.25
2072.54	616.25
2076.637	623.25
2080.73	618.25
2084.82	607.25
2088.906	618.25
2092.988	603.25
2097.066	616.25
2101.14	604.25
2105.211	614.25
2109.278	607.25
2113.342	597.25
2117.401	594.25
2121.457	587.25
2125.509	591.25
2129.558	585.25
2133.602	589.25
2137.643	595.25
2141.681	589.25
2145.714	582.25
2149.744	583.25
2153.77	576.25
2157.793	582.25
2161.812	577.25
2165.827	566.25
2169.838	550.25
2173.846	550.25
2177.851	552.25
2181.851	542.25
2185.848	541.25
2189.841	541.25
2193.831	532.25
2197.817	523.25
2201.799	517.25
2205.778	516.25
2209.753	503.25
2213.725	522.25
2217.693	510.25
2221.657	523.25
2225.618	512.25
2229.575	519.25
2233.529	518.25
2237.479	519.25
2241.425	505.25
2245.368	503.25
2249.307	491.25
2253.243	493.25
2257.175	491.25
2261.104	480.25
2265.029	471.25
2268.95	466.25
2272.868	463.25
2276.783	456.25
2280.694	449.25
2284.601	451.25
2288.505	444.25
2292.405	437.25
2296.302	430.25
2300.195	434.25
2304.085	426.25
2307.971	424.25
2311.854	414.25
2315.734	418.25
2319.609	404.25
2323.482	405.25
2327.351	391.25
2331.216	389.25
2335.078	397.25
2338.937	396.25
2342.792	386.25
2346.643	386.25
2350.492	385.25
2354.336	388.25
2358.178	380.25
2362.015	378.25
2365.85	386.25
2369.681	383.25
2373.508	379.25
2377.333	393.25
2381.153	393.25
2384.971	383.25
2388.785	382.25
2392.595	388.25
2396.402	383.25
2400.206	375.25
2404.007	374.25
2407.804	383.25
2411.597	384.25
2415.388	380.25
2419.174	380.25
2422.958	372.25
2426.738	370.25
2430.515	373.25
2434.289	368.25
2438.059	372.25
2441.825	361.25
2445.589	359.25
2449.349	357.25
2453.106	361.25
2456.859	355.25
2460.61	352.25
2464.356	344.25
2468.1	354.25
2471.84	358.25
2475.577	344.25
2479.311	345.25
2483.041	347.25
2486.768	345.25
2490.492	352.25
2494.213	346.25
2497.93	349.25
2501.644	354.25
2505.355	349.25
2509.062	345.25
2512.766	344.25
2516.467	335.25
2520.165	343.25
2523.859	340.25
2527.551	338.25
2531.239	329.25
2534.923	326.25
2538.605	325.25
2542.283	319.25
2545.958	322.25
2549.63	313.25
2553.299	316.25
2556.964	314.25
2560.626	311.25
2564.285	309.25
2567.941	308.25
2571.594	312.25
2575.243	306.25
2578.89	307.25
2582.533	306.25
2586.173	308.25
2589.809	305.25
2593.443	298.25
2597.073	299.25
2600.701	295.25
2604.325	288.25
2607.946	294.25
2611.564	290.25
2615.178	297.25
2618.79	283.25
2622.398	289.25
2626.004	281.25
2629.606	285.25
2633.205	286.25
2636.801	286.25
2640.394	285.25
2643.983	281.25
2647.57	278.25
2651.153	275.25
2654.734	274.25
2658.311	274.25
2661.885	269.25
2665.456	267.25
2669.025	264.25
2672.589	261.25
2676.151	261.25
2679.71	258.25
2683.266	261.25
2686.819	253.25
2690.368	254.25
2693.915	254.25
2697.458	243.25
2700.999	253.25
2704.536	240.25
2708.071	242.25
2711.602	233.25
2715.13	241.25
2718.656	240.25
2722.178	239.25
2725.697	239.25
2729.214	233.25
2732.727	248.25
2736.237	241.25
2739.744	245.25
2743.249	243.25
2746.75	244.25
2750.248	244.25
2753.743	231.25
2757.236	242.25
2760.725	231.25
2764.211	235.25
2767.695	229.25
2771.175	227.25
2774.652	223.25
2778.127	224.25
2781.598	221.25
2785.067	223.25
2788.532	227.25
2791.995	227.25
2795.455	223.25
2798.911	227.25
2802.365	236.25
2805.816	230.25
2809.264	237.25
2812.709	239.25
2816.151	234.25
2819.59	242.25
2823.026	232.25
2826.46	238.25
2829.89	238.25
2833.318	240.25
2836.742	237.25
2840.164	235.25
2843.583	243.25
2846.999	234.25
2850.412	235.25
2853.822	237.25
2857.229	248.25
2860.634	256.25
2864.035	260.25
2867.434	265.25
2870.83	258.25
2874.223	272.25
2877.613	276.25
2881	281.25
2884.385	286.25
2887.766	287.25
2891.145	284.25
2894.521	286.25
2897.894	287.25
2901.264	294.25
2904.631	290.25
2907.996	288.25
2911.358	289.25
2914.717	286.25
2918.073	287.25
2921.426	295.25
2924.777	301.25
2928.124	301.25
2931.469	312.25
2934.811	326.25
2938.15	335.25
2941.487	341.25
2944.821	331.25
2948.152	332.25
2951.48	333.25
2954.805	343.25
2958.128	347.25
2961.447	345.25
2964.765	338.25
2968.079	341.25
2971.39	349.25
2974.699	348.25
2978.005	359.25
2981.308	357.25
2984.609	372.25
2987.907	378.25
2991.202	385.25
2994.494	393.25
2997.784	409.25
3001.07	412.25
3004.355	412.25
3007.636	420.25
3010.915	440.25
3014.191	439.25
3017.464	446.25
3020.734	448.25
3024.002	461.25
3027.267	471.25
3030.53	479.25
3033.789	480.25
3037.046	489.25
3040.301	495.25
3043.552	509.25
3046.801	526.25
3050.048	526.25
3053.291	544.25
3056.532	561.25
3059.771	566.25
3063.006	593.25
3066.239	608.25
3069.469	626.25
3072.697	632.25
3075.922	648.25
3079.144	667.25
3082.364	681.25
3085.581	702.25
3088.795	718.25
3092.007	732.25
3095.216	750.25
3098.423	762.25
3101.627	778.25
3104.828	793.25
3108.026	805.25
3111.222	829.25
3114.416	829.25
3117.607	851.25
3120.795	873.25
3123.98	896.25
3127.163	928.25
3130.344	930.25
3133.521	957.25
3136.696	974.25
3139.869	980.25
3143.039	1009.25
3146.206	1038.25
3149.371	1055.25
3152.533	1064.25
3155.693	1057.25
3158.85	1063.25
3162.005	1080.25
3165.157	1070.25
3168.306	1093.25
3171.453	1085.25
3174.597	1101.25
3177.739	1091.25
3180.878	1095.25
3184.014	1097.25
3187.149	1108.25
3190.28	1113.25
3193.409	1103.25
3196.536	1112.25
3199.659	1122.25
3202.781	1124.25
3205.9	1139.25
3209.016	1114.25
3212.13	1132.25
3215.241	1131.25
3218.35	1123.25
3221.456	1112.25
3224.56	1105.25
3227.661	1088.25
3230.76	1087.25
3233.856	1076.25
3236.95	1052.25
3240.041	1037.25
3243.13	1039.25
3246.216	1038.25
3249.3	1016.25
3252.382	1012.25
3255.46	1007.25
3258.537	1000.25
3261.611	997.25
3264.682	987.25
3267.751	974.25
3270.818	989.25
3273.882	975.25
3276.943	992.25
3280.002	970.25
3283.059	972.25
3286.113	962.25
3289.165	943.25
3292.214	924.25
3295.261	923.25
3298.306	898.25
3301.348	900.25
3304.387	877.25
3307.425	878.25
3310.459	865.25
3313.492	850.25
3316.521	838.25
3319.549	830.25
3322.574	818.25
3325.597	824.25
3328.617	805.25
3331.635	804.25
3334.65	805.25
3337.663	804.25
3340.674	791.25
3343.682	786.25
3346.688	785.25
3349.691	789.25
3352.692	789.25
3355.691	781.25
3358.687	781.25
3361.681	762.25
3364.673	760.25
3367.662	736.25
3370.649	736.25
3373.633	727.25
3376.615	718.25
3379.595	720.25
3382.572	695.25
3385.547	690.25
3388.52	687.25
3391.49	668.25
3394.458	651.25
3397.424	665.25
3400.387	648.25
3403.348	638.25
3406.307	636.25
3409.263	634.25
3412.217	629.25
3415.168	619.25
3418.118	609.25
3421.065	611.25
3424.009	595.25
3426.951	586.25
3429.891	577.25
3432.829	576.25
3435.764	566.25
3438.697	554.25
3441.628	534.25
3444.557	515.25
3447.483	520.25
3450.407	502.25
3453.328	494.25
3456.247	486.25
3459.164	461.25
3462.079	450.25
3464.991	440.25
3467.902	427.25
3470.809	424.25
3473.715	401.25
3476.618	383.25
3479.519	387.25
3482.418	358.25
3485.315	357.25
3488.209	337.25
3491.101	344.25
3493.99	324.25
3496.878	322.25
3499.763	307.25
3502.646	294.25
3505.527	291.25
3508.405	284.25
3511.281	269.25
3514.155	262.25
3517.027	251.25
3519.897	245.25
3522.764	235.25
3525.629	222.25
3528.492	217.25
3531.352	202.25
3534.211	198.25
3537.067	188.25
3539.921	179.25
3542.773	158.25
3545.622	158.25
3548.469	152.25
3551.315	140.25
3554.157	128.25
3556.998	133.25
3559.837	119.25
3562.673	118.25
3565.507	106.25
3568.339	98.25
3571.169	100.25
3573.996	94.25
3576.822	92.25
3579.645	89.25
3582.466	81.25
3585.285	72.25
3588.101	73.25
3590.916	70.25
3593.728	59.25
3596.538	58.25
3599.346	53.25
3602.152	46.25
3604.956	44.25
3607.757	41.25
3610.556	40.25
3613.354	33.25
3616.149	25.25
3618.942	29.25
3621.732	24.25
3624.521	18.25
3627.307	18.25
3630.092	15.25
3632.874	17.25
3635.654	8.25
3638.432	8.25
3641.208	4.25
3643.982	4.25
3646.753	2.25
3649.523	-2.75
3652.29	-7.75
3655.055	-5.75
3657.818	-5.75
3660.579	-10.75
3663.338	-15.75
3666.095	-13.75
3668.849	-9.75
3671.602	-16.75
3674.352	-16.75
3677.101	-20.75
3679.847	-20.75
3682.591	-24.75
3685.333	-27.75
3688.073	-31.75
3690.811	-31.75
3693.547	-31.75
3696.281	-31.75
3699.013	-30.75
3701.742	-36.75
3704.47	-36.75
3707.195	-38.75
3709.919	-38.75
3712.64	-36.75
3715.359	-44.75
3718.076	-42.75
3720.792	-37.75
3723.505	-42.75
3726.216	-41.75
3728.925	-40.75
3731.632	-44.75
3734.336	-41.75
3737.039	-46.75
3739.74	-46.75
3742.439	-46.75
3745.136	-52.75
3747.83	-48.75
3750.523	-48.75
3753.213	-53.75
3755.902	-51.75
3758.589	-49.75
3761.273	-53.75
3763.956	-53.75
3766.636	-52.75
3769.315	-56.75
3771.991	-51.75
3774.665	-51.75
3777.338	-54.75
3780.008	-53.75
3782.677	-52.75
3785.343	-53.75
3788.007	-53.75
3790.67	-55.75
3793.33	-55.75
3795.989	-56.75
3798.645	-54.75
3801.299	-57.75
3803.952	-56.75
3806.602	-60.75
3809.251	-60.75
3811.897	-58.75
3814.542	-61.75
3817.184	-60.75
3819.825	-57.75
3822.463	-59.75
3825.1	-61.75
3827.735	-64.75
3830.367	-63.75
3832.998	-62.75
3835.627	-62.75
3838.253	-60.75
3840.878	-59.75
3843.501	-59.75
3846.122	-56.75
3848.741	-59.75
3851.358	-61.75
3853.973	-62.75
3856.586	-62.75
3859.197	-58.75
3861.806	-63.75
3864.414	-59.75
3867.019	-60.75
3869.622	-63.75
3872.224	-55.75
3874.823	-59.75
3877.421	-60.75
3880.016	-60.75
3882.61	-57.75
3885.202	-58.75
3887.792	-57.75
3890.38	-61.75
3892.966	-60.75
3895.55	-64.75
3898.132	-62.75
3900.713	-63.75
3903.291	-61.75
3905.868	-65.75
3908.442	-63.75
3911.015	-61.75
3913.586	-63.75
3916.155	-62.75
3918.722	-63.75
3921.287	-60.75
3923.85	-65.75
3926.411	-71.75
3928.971	-70.75
3931.528	-67.75
3934.084	-70.75
3936.638	-65.75
3939.19	-69.75
3941.74	-65.75
3944.288	-70.75
3946.834	-70.75
3949.378	-67.75
3951.921	-65.75
3954.462	-63.75
3957	-65.75
3959.537	-61.75
3962.072	-62.75
3964.606	-61.75
3967.137	-65.75
3969.667	-64.75
3972.194	-66.75
3974.72	-68.75
3977.244	-62.75
3979.766	-67.75
3982.286	-63.75
3984.805	-67.75
3987.321	-66.75
3989.836	-66.75
3992.349	-68.75
3994.86	-66.75
3997.369	-66.75
3999.877	-65.75
4002.382	-63.75
4004.886	-62.75
4007.388	-62.75
4009.888	-64.75
4012.386	-59.75
4014.883	-61.75
4017.377	-66.75
4019.87	-63.75
4022.361	-65.75
4024.85	-64.75
4027.338	-63.75
4029.823	-65.75
4032.307	-68.75
4034.789	-67.75
4037.269	-67.75
4039.747	-65.75
4042.224	-68.75
4044.699	-68.75
4047.172	-66.75
4049.643	-64.75
4052.112	-69.75
4054.58	-63.75
4057.046	-68.75
4059.51	-64.75
4061.972	-65.75
4064.432	-63.75
4066.891	-64.75
4069.348	-65.75
4071.803	-62.75
4074.256	-62.75
4076.708	-64.75
4079.158	-60.75
4081.606	-62.75
4084.052	-64.75
4086.497	-67.75
4088.939	-66.75
4091.38	-68.75
4093.819	-64.75
4096.257	-69.75
4098.693	-71.75
4101.127	-69.75
4103.559	-67.75
4105.989	-17.75
4108.418	-9.75
4110.845	-8.75
4113.27	-5.75
4115.694	-2.75
4118.115	-0.75
4120.535	-70.75
4122.954	-65.75
4125.37	-68.75
4127.785	-67.75
4130.198	-67.75
4132.609	-67.75
4135.019	-70.75
4137.427	-68.75
4139.833	-72.75
4142.237	-71.75
