Data from 100000CFU3_C_ramanshift_RamanShift_15-29-22-525.txt Node
Date: Sun Dec 25 15:29:22 IST 2016
User: aro
Spectrometer: QEPB0276
Trigger mode: 0
Integration Time (sec): 5.000000E0
Scans to average: 1
Electric dark correction enabled: true
Nonlinearity correction enabled: false
Boxcar width: 0
XAxis mode: Raman Shifts
Number of Pixels in Spectrum: 1044
>>>>>Begin Spectral Data<<<<<
160.701	7.25
166.742	18.25
172.777	73.25
178.805	222.25
184.826	673.25
190.841	1613.25
196.849	2978.25
202.85	4239.25
208.845	4881.25
214.833	4859.25
220.815	4693.25
226.789	4571.25
232.758	4418.25
238.719	4278.25
244.674	4162.25
250.623	4035.25
256.565	3835.25
262.5	3642.25
268.429	3498.25
274.351	3342.25
280.267	3220.25
286.176	3063.25
292.079	2972.25
297.975	2864.25
303.865	2764.25
309.748	2681.25
315.625	2591.25
321.495	2535.25
327.359	2510.25
333.217	2477.25
339.068	2452.25
344.912	2424.25
350.751	2380.25
356.583	2373.25
362.408	2387.25
368.227	2390.25
374.04	2401.25
379.847	2405.25
385.647	2405.25
391.44	2414.25
397.228	2445.25
403.009	2448.25
408.784	2464.25
414.553	2468.25
420.315	2488.25
426.071	2472.25
431.821	2489.25
437.565	2480.25
443.302	2490.25
449.033	2467.25
454.758	2490.25
460.477	2494.25
466.189	2458.25
471.896	2433.25
477.596	2453.25
483.29	2428.25
488.978	2425.25
494.66	2398.25
500.335	2402.25
506.005	2340.25
511.668	2314.25
517.325	2298.25
522.977	2248.25
528.622	2223.25
534.261	2198.25
539.894	2185.25
545.521	2163.25
551.141	2154.25
556.756	2129.25
562.365	2116.25
567.968	2120.25
573.565	2118.25
579.155	2105.25
584.74	2080.25
590.319	2046.25
595.892	2059.25
601.459	2053.25
607.02	2031.25
612.575	2027.25
618.124	1993.25
623.667	1978.25
629.204	1970.25
634.735	1961.25
640.261	1941.25
645.781	1942.25
651.294	1925.25
656.802	1905.25
662.304	1901.25
667.8	1907.25
673.29	1885.25
678.775	1893.25
684.254	1864.25
689.726	1865.25
695.193	1872.25
700.655	1866.25
706.11	1843.25
711.56	1833.25
717.004	1822.25
722.442	1802.25
727.874	1790.25
733.301	1803.25
738.722	1773.25
744.137	1764.25
749.547	1772.25
754.951	1769.25
760.349	1767.25
765.741	1761.25
771.128	1762.25
776.509	1770.25
781.885	1779.25
787.254	1762.25
792.618	1762.25
797.977	1761.25
803.33	1738.25
808.677	1726.25
814.019	1714.25
819.355	1701.25
824.686	1671.25
830.011	1689.25
835.33	1677.25
840.644	1671.25
845.952	1660.25
851.255	1671.25
856.552	1644.25
861.844	1657.25
867.13	1626.25
872.41	1634.25
877.686	1608.25
882.955	1624.25
888.219	1595.25
893.478	1571.25
898.731	1538.25
903.979	1513.25
909.221	1514.25
914.458	1496.25
919.69	1472.25
924.916	1472.25
930.136	1467.25
935.351	1468.25
940.561	1476.25
945.766	1482.25
950.965	1457.25
956.158	1466.25
961.347	1456.25
966.529	1423.25
971.707	1415.25
976.879	1398.25
982.046	1379.25
987.208	1388.25
992.364	1368.25
997.515	1368.25
1002.66	1357.25
1007.801	1374.25
1012.936	1401.25
1018.066	1392.25
1023.19	1420.25
1028.309	1405.25
1033.423	1430.25
1038.532	1416.25
1043.636	1414.25
1048.734	1407.25
1053.827	1405.25
1058.915	1368.25
1063.998	1377.25
1069.075	1363.25
1074.147	1362.25
1079.214	1358.25
1084.276	1364.25
1089.333	1374.25
1094.385	1387.25
1099.431	1399.25
1104.472	1402.25
1109.509	1416.25
1114.54	1378.25
1119.565	1383.25
1124.586	1378.25
1129.602	1351.25
1134.613	1340.25
1139.618	1333.25
1144.619	1332.25
1149.614	1319.25
1154.604	1333.25
1159.589	1356.25
1164.57	1357.25
1169.545	1358.25
1174.515	1368.25
1179.48	1361.25
1184.44	1356.25
1189.395	1351.25
1194.345	1341.25
1199.29	1352.25
1204.23	1343.25
1209.165	1344.25
1214.095	1347.25
1219.021	1354.25
1223.941	1365.25
1228.856	1377.25
1233.766	1369.25
1238.672	1388.25
1243.572	1388.25
1248.467	1392.25
1253.358	1383.25
1258.244	1354.25
1263.124	1331.25
1268	1314.25
1272.871	1311.25
1277.737	1285.25
1282.599	1280.25
1287.455	1304.25
1292.306	1300.25
1297.153	1302.25
1301.995	1296.25
1306.832	1324.25
1311.664	1314.25
1316.491	1327.25
1321.314	1323.25
1326.132	1322.25
1330.945	1321.25
1335.753	1303.25
1340.556	1294.25
1345.354	1274.25
1350.148	1258.25
1354.937	1251.25
1359.722	1249.25
1364.501	1226.25
1369.276	1202.25
1374.046	1192.25
1378.811	1199.25
1383.572	1204.25
1388.327	1197.25
1393.079	1183.25
1397.825	1192.25
1402.567	1186.25
1407.304	1188.25
1412.036	1167.25
1416.764	1154.25
1421.487	1164.25
1426.205	1173.25
1430.919	1183.25
1435.628	1181.25
1440.333	1186.25
1445.032	1200.25
1449.727	1211.25
1454.418	1216.25
1459.104	1225.25
1463.785	1225.25
1468.462	1227.25
1473.134	1204.25
1477.802	1180.25
1482.465	1173.25
1487.123	1185.25
1491.777	1179.25
1496.426	1179.25
1501.071	1181.25
1505.711	1186.25
1510.347	1190.25
1514.978	1202.25
1519.604	1226.25
1524.226	1213.25
1528.844	1229.25
1533.457	1230.25
1538.065	1230.25
1542.669	1230.25
1547.269	1223.25
1551.864	1220.25
1556.454	1211.25
1561.041	1231.25
1565.622	1247.25
1570.199	1245.25
1574.772	1260.25
1579.34	1302.25
1583.904	1309.25
1588.464	1331.25
1593.019	1366.25
1597.569	1369.25
1602.115	1380.25
1606.657	1392.25
1611.195	1396.25
1615.728	1394.25
1620.256	1415.25
1624.78	1437.25
1629.3	1450.25
1633.816	1477.25
1638.327	1481.25
1642.834	1498.25
1647.336	1513.25
1651.834	1535.25
1656.328	1528.25
1660.817	1520.25
1665.302	1512.25
1669.783	1488.25
1674.259	1446.25
1678.732	1426.25
1683.199	1393.25
1687.663	1363.25
1692.122	1299.25
1696.577	1265.25
1701.028	1195.25
1705.474	1157.25
1709.917	1115.25
1714.355	1092.25
1718.788	1073.25
1723.218	1068.25
1727.643	1052.25
1732.064	1051.25
1736.481	1011.25
1740.893	979.25
1745.301	972.25
1749.705	962.25
1754.105	919.25
1758.501	902.25
1762.893	886.25
1767.28	884.25
1771.663	868.25
1776.042	861.25
1780.417	857.25
1784.787	844.25
1789.154	857.25
1793.516	861.25
1797.874	859.25
1802.228	848.25
1806.578	842.25
1810.924	829.25
1815.266	825.25
1819.603	811.25
1823.937	800.25
1828.266	797.25
1832.591	797.25
1836.913	791.25
1841.23	783.25
1845.543	767.25
1849.852	790.25
1854.156	796.25
1858.457	790.25
1862.754	793.25
1867.047	790.25
1871.335	799.25
1875.62	796.25
1879.9	796.25
1884.177	811.25
1888.449	810.25
1892.718	779.25
1896.982	775.25
1901.243	795.25
1905.499	789.25
1909.752	779.25
1914	786.25
1918.245	777.25
1922.485	773.25
1926.722	771.25
1930.954	778.25
1935.183	781.25
1939.408	802.25
1943.628	784.25
1947.845	788.25
1952.058	796.25
1956.267	785.25
1960.472	763.25
1964.673	773.25
1968.87	771.25
1973.063	763.25
1977.252	744.25
1981.438	745.25
1985.619	749.25
1989.797	749.25
1993.971	734.25
1998.14	753.25
2002.306	750.25
2006.469	751.25
2010.627	752.25
2014.781	760.25
2018.932	752.25
2023.078	761.25
2027.221	755.25
2031.36	745.25
2035.495	762.25
2039.627	737.25
2043.754	739.25
2047.878	736.25
2051.998	722.25
2056.114	737.25
2060.226	728.25
2064.334	752.25
2068.439	735.25
2072.54	744.25
2076.637	750.25
2080.73	738.25
2084.82	756.25
2088.906	757.25
2092.988	752.25
2097.066	760.25
2101.14	757.25
2105.211	746.25
2109.278	749.25
2113.342	735.25
2117.401	740.25
2121.457	723.25
2125.509	703.25
2129.558	724.25
2133.602	708.25
2137.643	715.25
2141.681	721.25
2145.714	724.25
2149.744	715.25
2153.77	713.25
2157.793	711.25
2161.812	687.25
2165.827	695.25
2169.838	679.25
2173.846	689.25
2177.851	663.25
2181.851	667.25
2185.848	655.25
2189.841	654.25
2193.831	652.25
2197.817	635.25
2201.799	647.25
2205.778	639.25
2209.753	627.25
2213.725	630.25
2217.693	629.25
2221.657	634.25
2225.618	617.25
2229.575	633.25
2233.529	626.25
2237.479	617.25
2241.425	623.25
2245.368	611.25
2249.307	611.25
2253.243	585.25
2257.175	588.25
2261.104	584.25
2265.029	573.25
2268.95	563.25
2272.868	564.25
2276.783	560.25
2280.694	553.25
2284.601	539.25
2288.505	547.25
2292.405	540.25
2296.302	539.25
2300.195	522.25
2304.085	520.25
2307.971	520.25
2311.854	505.25
2315.734	505.25
2319.609	480.25
2323.482	479.25
2327.351	474.25
2331.216	473.25
2335.078	464.25
2338.937	468.25
2342.792	456.25
2346.643	456.25
2350.492	465.25
2354.336	458.25
2358.178	457.25
2362.015	462.25
2365.85	472.25
2369.681	472.25
2373.508	465.25
2377.333	468.25
2381.153	468.25
2384.971	471.25
2388.785	464.25
2392.595	444.25
2396.402	466.25
2400.206	444.25
2404.007	466.25
2407.804	458.25
2411.597	452.25
2415.388	457.25
2419.174	449.25
2422.958	433.25
2426.738	445.25
2430.515	442.25
2434.289	453.25
2438.059	448.25
2441.825	439.25
2445.589	434.25
2449.349	440.25
2453.106	429.25
2456.859	427.25
2460.61	440.25
2464.356	425.25
2468.1	416.25
2471.84	426.25
2475.577	409.25
2479.311	409.25
2483.041	417.25
2486.768	423.25
2490.492	409.25
2494.213	413.25
2497.93	414.25
2501.644	418.25
2505.355	408.25
2509.062	416.25
2512.766	413.25
2516.467	406.25
2520.165	402.25
2523.859	400.25
2527.551	398.25
2531.239	395.25
2534.923	391.25
2538.605	395.25
2542.283	387.25
2545.958	386.25
2549.63	379.25
2553.299	379.25
2556.964	380.25
2560.626	376.25
2564.285	378.25
2567.941	368.25
2571.594	370.25
2575.243	364.25
2578.89	364.25
2582.533	361.25
2586.173	354.25
2589.809	354.25
2593.443	354.25
2597.073	357.25
2600.701	353.25
2604.325	351.25
2607.946	347.25
2611.564	350.25
2615.178	337.25
2618.79	341.25
2622.398	356.25
2626.004	341.25
2629.606	343.25
2633.205	339.25
2636.801	337.25
2640.394	333.25
2643.983	322.25
2647.57	319.25
2651.153	313.25
2654.734	312.25
2658.311	314.25
2661.885	311.25
2665.456	311.25
2669.025	311.25
2672.589	307.25
2676.151	311.25
2679.71	305.25
2683.266	313.25
2686.819	306.25
2690.368	290.25
2693.915	297.25
2697.458	296.25
2700.999	294.25
2704.536	286.25
2708.071	281.25
2711.602	279.25
2715.13	283.25
2718.656	284.25
2722.178	285.25
2725.697	280.25
2729.214	284.25
2732.727	277.25
2736.237	281.25
2739.744	291.25
2743.249	280.25
2746.75	280.25
2750.248	278.25
2753.743	273.25
2757.236	279.25
2760.725	272.25
2764.211	277.25
2767.695	274.25
2771.175	267.25
2774.652	275.25
2778.127	260.25
2781.598	265.25
2785.067	270.25
2788.532	265.25
2791.995	268.25
2795.455	262.25
2798.911	265.25
2802.365	267.25
2805.816	275.25
2809.264	278.25
2812.709	273.25
2816.151	282.25
2819.59	277.25
2823.026	272.25
2826.46	271.25
2829.89	267.25
2833.318	271.25
2836.742	273.25
2840.164	267.25
2843.583	276.25
2846.999	276.25
2850.412	280.25
2853.822	286.25
2857.229	291.25
2860.634	292.25
2864.035	291.25
2867.434	291.25
2870.83	297.25
2874.223	302.25
2877.613	300.25
2881	311.25
2884.385	307.25
2887.766	305.25
2891.145	296.25
2894.521	312.25
2897.894	302.25
2901.264	307.25
2904.631	308.25
2907.996	319.25
2911.358	308.25
2914.717	309.25
2918.073	317.25
2921.426	322.25
2924.777	328.25
2928.124	328.25
2931.469	332.25
2934.811	340.25
2938.15	341.25
2941.487	343.25
2944.821	359.25
2948.152	365.25
2951.48	359.25
2954.805	355.25
2958.128	369.25
2961.447	367.25
2964.765	383.25
2968.079	379.25
2971.39	393.25
2974.699	388.25
2978.005	396.25
2981.308	408.25
2984.609	413.25
2987.907	423.25
2991.202	443.25
2994.494	440.25
2997.784	452.25
3001.07	476.25
3004.355	480.25
3007.636	493.25
3010.915	499.25
3014.191	513.25
3017.464	522.25
3020.734	525.25
3024.002	540.25
3027.267	543.25
3030.53	547.25
3033.789	553.25
3037.046	559.25
3040.301	582.25
3043.552	595.25
3046.801	609.25
3050.048	618.25
3053.291	642.25
3056.532	654.25
3059.771	674.25
3063.006	676.25
3066.239	709.25
3069.469	740.25
3072.697	739.25
3075.922	766.25
3079.144	789.25
3082.364	811.25
3085.581	833.25
3088.795	842.25
3092.007	852.25
3095.216	878.25
3098.423	891.25
3101.627	922.25
3104.828	925.25
3108.026	949.25
3111.222	969.25
3114.416	988.25
3117.607	1008.25
3120.795	1023.25
3123.98	1049.25
3127.163	1075.25
3130.344	1101.25
3133.521	1118.25
3136.696	1145.25
3139.869	1163.25
3143.039	1170.25
3146.206	1201.25
3149.371	1214.25
3152.533	1231.25
3155.693	1243.25
3158.85	1254.25
3162.005	1244.25
3165.157	1253.25
3168.306	1271.25
3171.453	1275.25
3174.597	1283.25
3177.739	1272.25
3180.878	1288.25
3184.014	1272.25
3187.149	1295.25
3190.28	1300.25
3193.409	1282.25
3196.536	1291.25
3199.659	1292.25
3202.781	1316.25
3205.9	1293.25
3209.016	1284.25
3212.13	1308.25
3215.241	1300.25
3218.35	1261.25
3221.456	1277.25
3224.56	1254.25
3227.661	1250.25
3230.76	1229.25
3233.856	1221.25
3236.95	1206.25
3240.041	1208.25
3243.13	1178.25
3246.216	1179.25
3249.3	1166.25
3252.382	1169.25
3255.46	1166.25
3258.537	1141.25
3261.611	1152.25
3264.682	1149.25
3267.751	1134.25
3270.818	1124.25
3273.882	1116.25
3276.943	1119.25
3280.002	1090.25
3283.059	1090.25
3286.113	1079.25
3289.165	1075.25
3292.214	1045.25
3295.261	1038.25
3298.306	1025.25
3301.348	1016.25
3304.387	1005.25
3307.425	988.25
3310.459	974.25
3313.492	984.25
3316.521	952.25
3319.549	953.25
3322.574	930.25
3325.597	929.25
3328.617	910.25
3331.635	903.25
3334.65	905.25
3337.663	897.25
3340.674	893.25
3343.682	894.25
3346.688	888.25
3349.691	884.25
3352.692	885.25
3355.691	886.25
3358.687	872.25
3361.681	865.25
3364.673	840.25
3367.662	846.25
3370.649	825.25
3373.633	820.25
3376.615	811.25
3379.595	795.25
3382.572	789.25
3385.547	787.25
3388.52	769.25
3391.49	760.25
3394.458	748.25
3397.424	731.25
3400.387	713.25
3403.348	724.25
3406.307	717.25
3409.263	698.25
3412.217	703.25
3415.168	683.25
3418.118	693.25
3421.065	669.25
3424.009	658.25
3426.951	669.25
3429.891	648.25
3432.829	638.25
3435.764	631.25
3438.697	622.25
3441.628	596.25
3444.557	581.25
3447.483	571.25
3450.407	555.25
3453.328	543.25
3456.247	531.25
3459.164	523.25
3462.079	504.25
3464.991	484.25
3467.902	467.25
3470.809	456.25
3473.715	443.25
3476.618	433.25
3479.519	420.25
3482.418	401.25
3485.315	402.25
3488.209	388.25
3491.101	374.25
3493.99	354.25
3496.878	359.25
3499.763	349.25
3502.646	335.25
3505.527	321.25
3508.405	317.25
3511.281	309.25
3514.155	289.25
3517.027	277.25
3519.897	267.25
3522.764	254.25
3525.629	240.25
3528.492	233.25
3531.352	228.25
3534.211	220.25
3537.067	194.25
3539.921	192.25
3542.773	188.25
3545.622	175.25
3548.469	159.25
3551.315	155.25
3554.157	146.25
3556.998	141.25
3559.837	130.25
3562.673	128.25
3565.507	118.25
3568.339	113.25
3571.169	113.25
3573.996	103.25
3576.822	102.25
3579.645	93.25
3582.466	78.25
3585.285	78.25
3588.101	69.25
3590.916	67.25
3593.728	64.25
3596.538	57.25
3599.346	50.25
3602.152	51.25
3604.956	48.25
3607.757	45.25
3610.556	35.25
3613.354	34.25
3616.149	26.25
3618.942	26.25
3621.732	22.25
3624.521	21.25
3627.307	19.25
3630.092	15.25
3632.874	14.25
3635.654	9.25
3638.432	6.25
3641.208	2.25
3643.982	3.25
3646.753	1.25
3649.523	0.25
3652.29	-4.75
3655.055	-7.75
3657.818	-10.75
3660.579	-12.75
3663.338	-17.75
3666.095	-17.75
3668.849	-24.75
3671.602	-23.75
3674.352	-29.75
3677.101	-26.75
3679.847	-31.75
3682.591	-30.75
3685.333	-35.75
3688.073	-32.75
3690.811	-39.75
3693.547	-38.75
3696.281	-42.75
3699.013	-38.75
3701.742	-41.75
3704.47	-43.75
3707.195	-41.75
3709.919	-45.75
3712.64	-50.75
3715.359	-45.75
3718.076	-46.75
3720.792	-51.75
3723.505	-48.75
3726.216	-51.75
3728.925	-52.75
3731.632	-58.75
3734.336	-51.75
3737.039	-57.75
3739.74	-55.75
3742.439	-50.75
3745.136	-50.75
3747.83	-55.75
3750.523	-57.75
3753.213	-57.75
3755.902	-59.75
3758.589	-58.75
3761.273	-58.75
3763.956	-59.75
3766.636	-58.75
3769.315	-58.75
3771.991	-60.75
3774.665	-61.75
3777.338	-63.75
3780.008	-60.75
3782.677	-63.75
3785.343	-60.75
3788.007	-63.75
3790.67	-60.75
3793.33	-59.75
3795.989	-64.75
3798.645	-67.75
3801.299	-65.75
3803.952	-63.75
3806.602	-66.75
3809.251	-65.75
3811.897	-65.75
3814.542	-68.75
3817.184	-63.75
3819.825	-65.75
3822.463	-70.75
3825.1	-71.75
3827.735	-70.75
3830.367	-73.75
3832.998	-63.75
3835.627	-68.75
3838.253	-62.75
3840.878	-70.75
3843.501	-68.75
3846.122	-70.75
3848.741	-72.75
3851.358	-75.75
3853.973	-70.75
3856.586	-63.75
3859.197	-71.75
3861.806	-70.75
3864.414	-73.75
3867.019	-74.75
3869.622	-68.75
3872.224	-70.75
3874.823	-70.75
3877.421	-67.75
3880.016	-69.75
3882.61	-66.75
3885.202	-65.75
3887.792	-68.75
3890.38	-70.75
3892.966	-69.75
3895.55	-68.75
3898.132	-76.75
3900.713	-75.75
3903.291	-73.75
3905.868	-73.75
3908.442	-75.75
3911.015	-75.75
3913.586	-77.75
3916.155	-75.75
3918.722	-74.75
3921.287	-69.75
3923.85	-74.75
3926.411	-71.75
3928.971	-77.75
3931.528	-76.75
3934.084	-78.75
3936.638	-78.75
3939.19	-74.75
3941.74	-74.75
3944.288	-76.75
3946.834	-73.75
3949.378	-73.75
3951.921	-76.75
3954.462	-79.75
3957	-75.75
3959.537	-79.75
3962.072	-74.75
3964.606	-72.75
3967.137	-74.75
3969.667	-73.75
3972.194	-77.75
3974.72	-76.75
3977.244	-72.75
3979.766	-77.75
3982.286	-73.75
3984.805	-74.75
3987.321	-76.75
3989.836	-73.75
3992.349	-71.75
3994.86	-70.75
3997.369	-68.75
3999.877	-73.75
4002.382	-73.75
4004.886	-77.75
4007.388	-75.75
4009.888	-70.75
4012.386	-67.75
4014.883	-69.75
4017.377	-73.75
4019.87	-74.75
4022.361	-74.75
4024.85	-72.75
4027.338	-72.75
4029.823	-69.75
4032.307	-68.75
4034.789	-73.75
4037.269	-74.75
4039.747	-78.75
4042.224	-75.75
4044.699	-78.75
4047.172	-75.75
4049.643	-74.75
4052.112	-72.75
4054.58	-76.75
4057.046	-74.75
4059.51	-74.75
4061.972	-72.75
4064.432	-73.75
4066.891	-75.75
4069.348	-76.75
4071.803	-74.75
4074.256	-79.75
4076.708	-77.75
4079.158	-74.75
4081.606	-69.75
4084.052	-73.75
4086.497	-75.75
4088.939	-76.75
4091.38	-74.75
4093.819	-76.75
4096.257	-76.75
4098.693	-77.75
4101.127	-77.75
4103.559	-78.75
4105.989	-25.75
4108.418	-20.75
4110.845	-18.75
4113.27	-18.75
4115.694	-14.75
4118.115	-9.75
4120.535	-74.75
4122.954	-72.75
4125.37	-72.75
4127.785	-74.75
4130.198	-74.75
4132.609	-79.75
4135.019	-81.75
4137.427	-79.75
4139.833	-81.75
4142.237	-77.75
