Data from 10000CFU1_C_ramanshift_RamanShift_15-24-32-554.txt Node
Date: Sun Dec 25 15:24:32 IST 2016
User: aro
Spectrometer: QEPB0276
Trigger mode: 0
Integration Time (sec): 5.000000E0
Scans to average: 1
Electric dark correction enabled: true
Nonlinearity correction enabled: false
Boxcar width: 0
XAxis mode: Raman Shifts
Number of Pixels in Spectrum: 1044
>>>>>Begin Spectral Data<<<<<
160.701	6.25
166.742	23.25
172.777	70.25
178.805	218.25
184.826	641.25
190.841	1534.25
196.849	2838.25
202.85	4078.25
208.845	4667.25
214.833	4699.25
220.815	4527.25
226.789	4329.25
232.758	4213.25
238.719	4114.25
244.674	3991.25
250.623	3822.25
256.565	3646.25
262.5	3476.25
268.429	3327.25
274.351	3183.25
280.267	3055.25
286.176	2925.25
292.079	2826.25
297.975	2719.25
303.865	2638.25
309.748	2570.25
315.625	2485.25
321.495	2418.25
327.359	2363.25
333.217	2330.25
339.068	2302.25
344.912	2289.25
350.751	2269.25
356.583	2246.25
362.408	2257.25
368.227	2261.25
374.04	2256.25
379.847	2252.25
385.647	2269.25
391.44	2288.25
397.228	2298.25
403.009	2322.25
408.784	2320.25
414.553	2317.25
420.315	2335.25
426.071	2360.25
431.821	2340.25
437.565	2328.25
443.302	2356.25
449.033	2355.25
454.758	2345.25
460.477	2336.25
466.189	2313.25
471.896	2320.25
477.596	2307.25
483.29	2298.25
488.978	2279.25
494.66	2289.25
500.335	2285.25
506.005	2228.25
511.668	2182.25
517.325	2160.25
522.977	2153.25
528.622	2081.25
534.261	2081.25
539.894	2065.25
545.521	2041.25
551.141	2024.25
556.756	2037.25
562.365	2004.25
567.968	1998.25
573.565	1987.25
579.155	1976.25
584.74	1958.25
590.319	1953.25
595.892	1935.25
601.459	1915.25
607.02	1921.25
612.575	1899.25
618.124	1888.25
623.667	1862.25
629.204	1843.25
634.735	1836.25
640.261	1832.25
645.781	1807.25
651.294	1819.25
656.802	1816.25
662.304	1797.25
667.8	1776.25
673.29	1797.25
678.775	1768.25
684.254	1768.25
689.726	1757.25
695.193	1754.25
700.655	1738.25
706.11	1749.25
711.56	1735.25
717.004	1718.25
722.442	1727.25
727.874	1693.25
733.301	1678.25
738.722	1668.25
744.137	1689.25
749.547	1657.25
754.951	1678.25
760.349	1679.25
765.741	1664.25
771.128	1656.25
776.509	1660.25
781.885	1675.25
787.254	1645.25
792.618	1655.25
797.977	1664.25
803.33	1626.25
808.677	1629.25
814.019	1619.25
819.355	1586.25
824.686	1574.25
830.011	1581.25
835.33	1542.25
840.644	1569.25
845.952	1555.25
851.255	1546.25
856.552	1549.25
861.844	1547.25
867.13	1520.25
872.41	1507.25
877.686	1518.25
882.955	1494.25
888.219	1473.25
893.478	1462.25
898.731	1431.25
903.979	1411.25
909.221	1409.25
914.458	1404.25
919.69	1379.25
924.916	1370.25
930.136	1374.25
935.351	1371.25
940.561	1379.25
945.766	1375.25
950.965	1370.25
956.158	1355.25
961.347	1346.25
966.529	1327.25
971.707	1311.25
976.879	1301.25
982.046	1271.25
987.208	1275.25
992.364	1272.25
997.515	1291.25
1002.66	1274.25
1007.801	1277.25
1012.936	1279.25
1018.066	1296.25
1023.19	1317.25
1028.309	1300.25
1033.423	1317.25
1038.532	1314.25
1043.636	1313.25
1048.734	1315.25
1053.827	1274.25
1058.915	1272.25
1063.998	1254.25
1069.075	1252.25
1074.147	1272.25
1079.214	1260.25
1084.276	1280.25
1089.333	1275.25
1094.385	1293.25
1099.431	1292.25
1104.472	1307.25
1109.509	1292.25
1114.54	1285.25
1119.565	1270.25
1124.586	1262.25
1129.602	1253.25
1134.613	1242.25
1139.618	1242.25
1144.619	1226.25
1149.614	1252.25
1154.604	1233.25
1159.589	1240.25
1164.57	1256.25
1169.545	1258.25
1174.515	1259.25
1179.48	1263.25
1184.44	1249.25
1189.395	1247.25
1194.345	1242.25
1199.29	1245.25
1204.23	1240.25
1209.165	1227.25
1214.095	1248.25
1219.021	1255.25
1223.941	1259.25
1228.856	1267.25
1233.766	1277.25
1238.672	1269.25
1243.572	1279.25
1248.467	1278.25
1253.358	1257.25
1258.244	1249.25
1263.124	1231.25
1268	1232.25
1272.871	1212.25
1277.737	1186.25
1282.599	1183.25
1287.455	1195.25
1292.306	1199.25
1297.153	1211.25
1301.995	1213.25
1306.832	1220.25
1311.664	1218.25
1316.491	1234.25
1321.314	1235.25
1326.132	1221.25
1330.945	1223.25
1335.753	1202.25
1340.556	1174.25
1345.354	1169.25
1350.148	1154.25
1354.937	1145.25
1359.722	1132.25
1364.501	1126.25
1369.276	1120.25
1374.046	1132.25
1378.811	1108.25
1383.572	1112.25
1388.327	1108.25
1393.079	1108.25
1397.825	1094.25
1402.567	1086.25
1407.304	1075.25
1412.036	1085.25
1416.764	1075.25
1421.487	1089.25
1426.205	1060.25
1430.919	1102.25
1435.628	1097.25
1440.333	1110.25
1445.032	1120.25
1449.727	1117.25
1454.418	1120.25
1459.104	1131.25
1463.785	1123.25
1468.462	1118.25
1473.134	1116.25
1477.802	1091.25
1482.465	1076.25
1487.123	1086.25
1491.777	1091.25
1496.426	1082.25
1501.071	1094.25
1505.711	1101.25
1510.347	1117.25
1514.978	1123.25
1519.604	1138.25
1524.226	1143.25
1528.844	1144.25
1533.457	1138.25
1538.065	1140.25
1542.669	1130.25
1547.269	1119.25
1551.864	1136.25
1556.454	1136.25
1561.041	1156.25
1565.622	1145.25
1570.199	1183.25
1574.772	1179.25
1579.34	1214.25
1583.904	1226.25
1588.464	1236.25
1593.019	1256.25
1597.569	1284.25
1602.115	1284.25
1606.657	1306.25
1611.195	1300.25
1615.728	1313.25
1620.256	1341.25
1624.78	1343.25
1629.3	1368.25
1633.816	1382.25
1638.327	1389.25
1642.834	1394.25
1647.336	1419.25
1651.834	1434.25
1656.328	1431.25
1660.817	1442.25
1665.302	1445.25
1669.783	1398.25
1674.259	1371.25
1678.732	1324.25
1683.199	1294.25
1687.663	1253.25
1692.122	1232.25
1696.577	1185.25
1701.028	1133.25
1705.474	1079.25
1709.917	1050.25
1714.355	1016.25
1718.788	997.25
1723.218	991.25
1727.643	996.25
1732.064	960.25
1736.481	937.25
1740.893	925.25
1745.301	901.25
1749.705	883.25
1754.105	853.25
1758.501	836.25
1762.893	821.25
1767.28	816.25
1771.663	802.25
1776.042	793.25
1780.417	800.25
1784.787	791.25
1789.154	790.25
1793.516	793.25
1797.874	786.25
1802.228	790.25
1806.578	780.25
1810.924	778.25
1815.266	770.25
1819.603	755.25
1823.937	737.25
1828.266	734.25
1832.591	729.25
1836.913	734.25
1841.23	718.25
1845.543	712.25
1849.852	718.25
1854.156	734.25
1858.457	725.25
1862.754	731.25
1867.047	726.25
1871.335	719.25
1875.62	721.25
1879.9	743.25
1884.177	743.25
1888.449	732.25
1892.718	722.25
1896.982	724.25
1901.243	725.25
1905.499	729.25
1909.752	720.25
1914	723.25
1918.245	720.25
1922.485	715.25
1926.722	722.25
1930.954	730.25
1935.183	719.25
1939.408	738.25
1943.628	731.25
1947.845	728.25
1952.058	732.25
1956.267	721.25
1960.472	726.25
1964.673	738.25
1968.87	716.25
1973.063	707.25
1977.252	686.25
1981.438	690.25
1985.619	693.25
1989.797	688.25
1993.971	686.25
1998.14	704.25
2002.306	699.25
2006.469	701.25
2010.627	705.25
2014.781	712.25
2018.932	709.25
2023.078	703.25
2027.221	700.25
2031.36	705.25
2035.495	696.25
2039.627	694.25
2043.754	682.25
2047.878	676.25
2051.998	690.25
2056.114	685.25
2060.226	690.25
2064.334	668.25
2068.439	693.25
2072.54	688.25
2076.637	682.25
2080.73	695.25
2084.82	699.25
2088.906	704.25
2092.988	703.25
2097.066	702.25
2101.14	697.25
2105.211	690.25
2109.278	696.25
2113.342	691.25
2117.401	682.25
2121.457	676.25
2125.509	677.25
2129.558	678.25
2133.602	674.25
2137.643	670.25
2141.681	668.25
2145.714	666.25
2149.744	664.25
2153.77	664.25
2157.793	649.25
2161.812	654.25
2165.827	655.25
2169.838	640.25
2173.846	632.25
2177.851	625.25
2181.851	620.25
2185.848	609.25
2189.841	600.25
2193.831	599.25
2197.817	598.25
2201.799	600.25
2205.778	587.25
2209.753	598.25
2213.725	601.25
2217.693	586.25
2221.657	576.25
2225.618	581.25
2229.575	583.25
2233.529	577.25
2237.479	571.25
2241.425	573.25
2245.368	572.25
2249.307	565.25
2253.243	555.25
2257.175	544.25
2261.104	529.25
2265.029	532.25
2268.95	517.25
2272.868	523.25
2276.783	510.25
2280.694	511.25
2284.601	494.25
2288.505	502.25
2292.405	498.25
2296.302	490.25
2300.195	488.25
2304.085	475.25
2307.971	470.25
2311.854	459.25
2315.734	452.25
2319.609	455.25
2323.482	446.25
2327.351	442.25
2331.216	438.25
2335.078	429.25
2338.937	432.25
2342.792	431.25
2346.643	420.25
2350.492	420.25
2354.336	421.25
2358.178	417.25
2362.015	430.25
2365.85	422.25
2369.681	427.25
2373.508	432.25
2377.333	433.25
2381.153	437.25
2384.971	428.25
2388.785	420.25
2392.595	417.25
2396.402	416.25
2400.206	418.25
2404.007	420.25
2407.804	412.25
2411.597	418.25
2415.388	404.25
2419.174	415.25
2422.958	407.25
2426.738	409.25
2430.515	406.25
2434.289	400.25
2438.059	406.25
2441.825	409.25
2445.589	397.25
2449.349	390.25
2453.106	385.25
2456.859	392.25
2460.61	387.25
2464.356	389.25
2468.1	382.25
2471.84	381.25
2475.577	374.25
2479.311	375.25
2483.041	374.25
2486.768	377.25
2490.492	373.25
2494.213	367.25
2497.93	368.25
2501.644	375.25
2505.355	369.25
2509.062	372.25
2512.766	373.25
2516.467	366.25
2520.165	372.25
2523.859	368.25
2527.551	357.25
2531.239	368.25
2534.923	356.25
2538.605	349.25
2542.283	350.25
2545.958	345.25
2549.63	345.25
2553.299	346.25
2556.964	339.25
2560.626	338.25
2564.285	333.25
2567.941	333.25
2571.594	334.25
2575.243	339.25
2578.89	336.25
2582.533	330.25
2586.173	329.25
2589.809	325.25
2593.443	327.25
2597.073	316.25
2600.701	326.25
2604.325	322.25
2607.946	314.25
2611.564	319.25
2615.178	319.25
2618.79	312.25
2622.398	305.25
2626.004	308.25
2629.606	313.25
2633.205	301.25
2636.801	299.25
2640.394	308.25
2643.983	292.25
2647.57	294.25
2651.153	292.25
2654.734	292.25
2658.311	293.25
2661.885	284.25
2665.456	287.25
2669.025	287.25
2672.589	277.25
2676.151	271.25
2679.71	277.25
2683.266	278.25
2686.819	278.25
2690.368	272.25
2693.915	272.25
2697.458	273.25
2700.999	268.25
2704.536	269.25
2708.071	253.25
2711.602	257.25
2715.13	256.25
2718.656	255.25
2722.178	254.25
2725.697	251.25
2729.214	248.25
2732.727	260.25
2736.237	264.25
2739.744	259.25
2743.249	255.25
2746.75	258.25
2750.248	246.25
2753.743	258.25
2757.236	250.25
2760.725	257.25
2764.211	258.25
2767.695	253.25
2771.175	240.25
2774.652	245.25
2778.127	241.25
2781.598	249.25
2785.067	248.25
2788.532	250.25
2791.995	248.25
2795.455	241.25
2798.911	247.25
2802.365	245.25
2805.816	242.25
2809.264	257.25
2812.709	252.25
2816.151	252.25
2819.59	252.25
2823.026	246.25
2826.46	245.25
2829.89	245.25
2833.318	248.25
2836.742	255.25
2840.164	258.25
2843.583	251.25
2846.999	252.25
2850.412	260.25
2853.822	257.25
2857.229	266.25
2860.634	271.25
2864.035	258.25
2867.434	265.25
2870.83	273.25
2874.223	277.25
2877.613	286.25
2881	290.25
2884.385	281.25
2887.766	288.25
2891.145	287.25
2894.521	280.25
2897.894	286.25
2901.264	288.25
2904.631	278.25
2907.996	298.25
2911.358	290.25
2914.717	286.25
2918.073	299.25
2921.426	294.25
2924.777	306.25
2928.124	312.25
2931.469	311.25
2934.811	322.25
2938.15	327.25
2941.487	330.25
2944.821	327.25
2948.152	339.25
2951.48	340.25
2954.805	348.25
2958.128	351.25
2961.447	351.25
2964.765	356.25
2968.079	355.25
2971.39	377.25
2974.699	364.25
2978.005	386.25
2981.308	382.25
2984.609	398.25
2987.907	410.25
2991.202	423.25
2994.494	422.25
2997.784	439.25
3001.07	454.25
3004.355	455.25
3007.636	471.25
3010.915	478.25
3014.191	489.25
3017.464	509.25
3020.734	493.25
3024.002	525.25
3027.267	513.25
3030.53	530.25
3033.789	528.25
3037.046	545.25
3040.301	556.25
3043.552	577.25
3046.801	595.25
3050.048	599.25
3053.291	625.25
3056.532	628.25
3059.771	636.25
3063.006	670.25
3066.239	673.25
3069.469	710.25
3072.697	739.25
3075.922	734.25
3079.144	768.25
3082.364	770.25
3085.581	794.25
3088.795	821.25
3092.007	832.25
3095.216	843.25
3098.423	875.25
3101.627	881.25
3104.828	905.25
3108.026	928.25
3111.222	944.25
3114.416	962.25
3117.607	978.25
3120.795	999.25
3123.98	1023.25
3127.163	1046.25
3130.344	1080.25
3133.521	1097.25
3136.696	1107.25
3139.869	1130.25
3143.039	1151.25
3146.206	1175.25
3149.371	1193.25
3152.533	1198.25
3155.693	1216.25
3158.85	1219.25
3162.005	1239.25
3165.157	1242.25
3168.306	1224.25
3171.453	1234.25
3174.597	1243.25
3177.739	1243.25
3180.878	1257.25
3184.014	1244.25
3187.149	1260.25
3190.28	1266.25
3193.409	1271.25
3196.536	1265.25
3199.659	1282.25
3202.781	1273.25
3205.9	1274.25
3209.016	1266.25
3212.13	1263.25
3215.241	1268.25
3218.35	1249.25
3221.456	1257.25
3224.56	1238.25
3227.661	1235.25
3230.76	1216.25
3233.856	1195.25
3236.95	1184.25
3240.041	1178.25
3243.13	1161.25
3246.216	1161.25
3249.3	1160.25
3252.382	1135.25
3255.46	1133.25
3258.537	1132.25
3261.611	1129.25
3264.682	1128.25
3267.751	1100.25
3270.818	1108.25
3273.882	1109.25
3276.943	1107.25
3280.002	1086.25
3283.059	1075.25
3286.113	1058.25
3289.165	1050.25
3292.214	1040.25
3295.261	1017.25
3298.306	999.25
3301.348	980.25
3304.387	974.25
3307.425	959.25
3310.459	943.25
3313.492	950.25
3316.521	924.25
3319.549	925.25
3322.574	915.25
3325.597	891.25
3328.617	888.25
3331.635	897.25
3334.65	889.25
3337.663	895.25
3340.674	882.25
3343.682	880.25
3346.688	873.25
3349.691	861.25
3352.692	868.25
3355.691	850.25
3358.687	854.25
3361.681	831.25
3364.673	837.25
3367.662	826.25
3370.649	811.25
3373.633	800.25
3376.615	794.25
3379.595	782.25
3382.572	767.25
3385.547	749.25
3388.52	742.25
3391.49	743.25
3394.458	723.25
3397.424	727.25
3400.387	707.25
3403.348	699.25
3406.307	703.25
3409.263	694.25
3412.217	679.25
3415.168	682.25
3418.118	680.25
3421.065	660.25
3424.009	653.25
3426.951	648.25
3429.891	643.25
3432.829	621.25
3435.764	605.25
3438.697	604.25
3441.628	585.25
3444.557	569.25
3447.483	559.25
3450.407	541.25
3453.328	529.25
3456.247	522.25
3459.164	498.25
3462.079	490.25
3464.991	472.25
3467.902	457.25
3470.809	437.25
3473.715	435.25
3476.618	415.25
3479.519	412.25
3482.418	398.25
3485.315	391.25
3488.209	379.25
3491.101	366.25
3493.99	352.25
3496.878	350.25
3499.763	335.25
3502.646	327.25
3505.527	321.25
3508.405	300.25
3511.281	300.25
3514.155	279.25
3517.027	269.25
3519.897	260.25
3522.764	257.25
3525.629	242.25
3528.492	227.25
3531.352	220.25
3534.211	209.25
3537.067	187.25
3539.921	186.25
3542.773	182.25
3545.622	175.25
3548.469	164.25
3551.315	154.25
3554.157	140.25
3556.998	136.25
3559.837	130.25
3562.673	117.25
3565.507	110.25
3568.339	110.25
3571.169	112.25
3573.996	100.25
3576.822	93.25
3579.645	89.25
3582.466	83.25
3585.285	86.25
3588.101	70.25
3590.916	65.25
3593.728	63.25
3596.538	56.25
3599.346	51.25
3602.152	47.25
3604.956	42.25
3607.757	36.25
3610.556	33.25
3613.354	35.25
3616.149	25.25
3618.942	25.25
3621.732	22.25
3624.521	20.25
3627.307	19.25
3630.092	15.25
3632.874	11.25
3635.654	6.25
3638.432	5.25
3641.208	2.25
3643.982	3.25
3646.753	0.25
3649.523	-1.75
3652.29	-7.75
3655.055	-12.75
3657.818	-14.75
3660.579	-17.75
3663.338	-15.75
3666.095	-14.75
3668.849	-18.75
3671.602	-24.75
3674.352	-29.75
3677.101	-31.75
3679.847	-34.75
3682.591	-34.75
3685.333	-36.75
3688.073	-32.75
3690.811	-32.75
3693.547	-34.75
3696.281	-43.75
3699.013	-44.75
3701.742	-39.75
3704.47	-44.75
3707.195	-41.75
3709.919	-43.75
3712.64	-47.75
3715.359	-44.75
3718.076	-48.75
3720.792	-50.75
3723.505	-51.75
3726.216	-52.75
3728.925	-55.75
3731.632	-51.75
3734.336	-51.75
3737.039	-56.75
3739.74	-54.75
3742.439	-55.75
3745.136	-56.75
3747.83	-57.75
3750.523	-56.75
3753.213	-57.75
3755.902	-59.75
3758.589	-58.75
3761.273	-58.75
3763.956	-59.75
3766.636	-59.75
3769.315	-59.75
3771.991	-61.75
3774.665	-58.75
3777.338	-62.75
3780.008	-60.75
3782.677	-59.75
3785.343	-60.75
3788.007	-65.75
3790.67	-63.75
3793.33	-64.75
3795.989	-66.75
3798.645	-63.75
3801.299	-60.75
3803.952	-63.75
3806.602	-66.75
3809.251	-66.75
3811.897	-71.75
3814.542	-70.75
3817.184	-62.75
3819.825	-66.75
3822.463	-63.75
3825.1	-68.75
3827.735	-66.75
3830.367	-74.75
3832.998	-69.75
3835.627	-69.75
3838.253	-65.75
3840.878	-70.75
3843.501	-65.75
3846.122	-69.75
3848.741	-73.75
3851.358	-73.75
3853.973	-69.75
3856.586	-66.75
3859.197	-69.75
3861.806	-70.75
3864.414	-71.75
3867.019	-71.75
3869.622	-67.75
3872.224	-69.75
3874.823	-72.75
3877.421	-68.75
3880.016	-72.75
3882.61	-71.75
3885.202	-68.75
3887.792	-66.75
3890.38	-66.75
3892.966	-70.75
3895.55	-72.75
3898.132	-72.75
3900.713	-72.75
3903.291	-78.75
3905.868	-69.75
3908.442	-71.75
3911.015	-75.75
3913.586	-74.75
3916.155	-71.75
3918.722	-74.75
3921.287	-75.75
3923.85	-75.75
3926.411	-71.75
3928.971	-73.75
3931.528	-74.75
3934.084	-76.75
3936.638	-74.75
3939.19	-75.75
3941.74	-75.75
3944.288	-77.75
3946.834	-75.75
3949.378	-72.75
3951.921	-71.75
3954.462	-70.75
3957	-71.75
3959.537	-74.75
3962.072	-74.75
3964.606	-76.75
3967.137	-76.75
3969.667	-74.75
3972.194	-75.75
3974.72	-72.75
3977.244	-71.75
3979.766	-74.75
3982.286	-68.75
3984.805	-73.75
3987.321	-70.75
3989.836	-74.75
3992.349	-73.75
3994.86	-70.75
3997.369	-69.75
3999.877	-71.75
4002.382	-72.75
4004.886	-74.75
4007.388	-73.75
4009.888	-70.75
4012.386	-72.75
4014.883	-71.75
4017.377	-73.75
4019.87	-74.75
4022.361	-73.75
4024.85	-71.75
4027.338	-74.75
4029.823	-70.75
4032.307	-71.75
4034.789	-73.75
4037.269	-75.75
4039.747	-76.75
4042.224	-76.75
4044.699	-71.75
4047.172	-74.75
4049.643	-70.75
4052.112	-74.75
4054.58	-77.75
4057.046	-73.75
4059.51	-74.75
4061.972	-71.75
4064.432	-74.75
4066.891	-73.75
4069.348	-75.75
4071.803	-77.75
4074.256	-78.75
4076.708	-75.75
4079.158	-72.75
4081.606	-71.75
4084.052	-74.75
4086.497	-72.75
4088.939	-73.75
4091.38	-76.75
4093.819	-75.75
4096.257	-77.75
4098.693	-76.75
4101.127	-76.75
4103.559	-77.75
4105.989	-25.75
4108.418	-17.75
4110.845	-21.75
4113.27	-19.75
4115.694	-15.75
4118.115	-9.75
4120.535	-74.75
4122.954	-73.75
4125.37	-73.75
4127.785	-73.75
4130.198	-72.75
4132.609	-76.75
4135.019	-81.75
4137.427	-78.75
4139.833	-80.75
4142.237	-76.75
