Data from 1000CFU1_C_ramanshift_RamanShift_15-21-47-569.txt Node
Date: Sun Dec 25 15:21:47 IST 2016
User: aro
Spectrometer: QEPB0276
Trigger mode: 0
Integration Time (sec): 5.000000E0
Scans to average: 1
Electric dark correction enabled: true
Nonlinearity correction enabled: false
Boxcar width: 0
XAxis mode: Raman Shifts
Number of Pixels in Spectrum: 1044
>>>>>Begin Spectral Data<<<<<
160.701	7
166.742	22
172.777	70
178.805	213
184.826	649
190.841	1517
196.849	2831
202.85	4062
208.845	4651
214.833	4683
220.815	4523
226.789	4357
232.758	4246
238.719	4123
244.674	4000
250.623	3849
256.565	3704
262.5	3537
268.429	3353
274.351	3218
280.267	3110
286.176	2976
292.079	2873
297.975	2793
303.865	2692
309.748	2630
315.625	2556
321.495	2513
327.359	2453
333.217	2407
339.068	2385
344.912	2366
350.751	2355
356.583	2337
362.408	2317
368.227	2322
374.04	2322
379.847	2351
385.647	2349
391.44	2369
397.228	2376
403.009	2390
408.784	2401
414.553	2408
420.315	2420
426.071	2418
431.821	2452
437.565	2430
443.302	2425
449.033	2412
454.758	2432
460.477	2410
466.189	2374
471.896	2395
477.596	2386
483.29	2382
488.978	2367
494.66	2367
500.335	2344
506.005	2307
511.668	2308
517.325	2249
522.977	2230
528.622	2182
534.261	2174
539.894	2150
545.521	2139
551.141	2133
556.756	2108
562.365	2093
567.968	2078
573.565	2081
579.155	2066
584.74	2055
590.319	2035
595.892	2049
601.459	2013
607.02	2014
612.575	2000
618.124	1993
623.667	1969
629.204	1948
634.735	1934
640.261	1928
645.781	1913
651.294	1891
656.802	1893
662.304	1893
667.8	1869
673.29	1897
678.775	1866
684.254	1859
689.726	1849
695.193	1860
700.655	1849
706.11	1839
711.56	1829
717.004	1825
722.442	1811
727.874	1795
733.301	1784
738.722	1788
744.137	1758
749.547	1786
754.951	1752
760.349	1763
765.741	1760
771.128	1763
776.509	1769
781.885	1747
787.254	1772
792.618	1762
797.977	1754
803.33	1763
808.677	1732
814.019	1714
819.355	1698
824.686	1695
830.011	1682
835.33	1680
840.644	1689
845.952	1659
851.255	1664
856.552	1646
861.844	1647
867.13	1642
872.41	1639
877.686	1627
882.955	1625
888.219	1586
893.478	1575
898.731	1558
903.979	1538
909.221	1512
914.458	1505
919.69	1511
924.916	1481
930.136	1495
935.351	1497
940.561	1489
945.766	1493
950.965	1491
956.158	1486
961.347	1470
966.529	1470
971.707	1434
976.879	1408
982.046	1405
987.208	1405
992.364	1391
997.515	1396
1002.66	1414
1007.801	1414
1012.936	1434
1018.066	1432
1023.19	1422
1028.309	1451
1033.423	1462
1038.532	1452
1043.636	1429
1048.734	1439
1053.827	1416
1058.915	1384
1063.998	1393
1069.075	1392
1074.147	1378
1079.214	1393
1084.276	1403
1089.333	1416
1094.385	1430
1099.431	1435
1104.472	1435
1109.509	1437
1114.54	1418
1119.565	1415
1124.586	1398
1129.602	1391
1134.613	1383
1139.618	1372
1144.619	1371
1149.614	1377
1154.604	1381
1159.589	1380
1164.57	1382
1169.545	1383
1174.515	1377
1179.48	1403
1184.44	1388
1189.395	1383
1194.345	1377
1199.29	1386
1204.23	1361
1209.165	1368
1214.095	1379
1219.021	1389
1223.941	1407
1228.856	1420
1233.766	1414
1238.672	1418
1243.572	1429
1248.467	1408
1253.358	1404
1258.244	1406
1263.124	1356
1268	1361
1272.871	1333
1277.737	1338
1282.599	1322
1287.455	1328
1292.306	1331
1297.153	1331
1301.995	1345
1306.832	1347
1311.664	1367
1316.491	1370
1321.314	1365
1326.132	1362
1330.945	1357
1335.753	1346
1340.556	1320
1345.354	1301
1350.148	1304
1354.937	1287
1359.722	1296
1364.501	1288
1369.276	1254
1374.046	1267
1378.811	1272
1383.572	1256
1388.327	1253
1393.079	1258
1397.825	1244
1402.567	1229
1407.304	1241
1412.036	1220
1416.764	1210
1421.487	1215
1426.205	1210
1430.919	1219
1435.628	1230
1440.333	1235
1445.032	1258
1449.727	1269
1454.418	1277
1459.104	1272
1463.785	1270
1468.462	1264
1473.134	1244
1477.802	1235
1482.465	1212
1487.123	1233
1491.777	1229
1496.426	1226
1501.071	1234
1505.711	1241
1510.347	1250
1514.978	1264
1519.604	1278
1524.226	1292
1528.844	1291
1533.457	1303
1538.065	1303
1542.669	1283
1547.269	1285
1551.864	1291
1556.454	1288
1561.041	1302
1565.622	1296
1570.199	1311
1574.772	1339
1579.34	1344
1583.904	1376
1588.464	1379
1593.019	1411
1597.569	1430
1602.115	1412
1606.657	1435
1611.195	1425
1615.728	1448
1620.256	1462
1624.78	1480
1629.3	1488
1633.816	1525
1638.327	1509
1642.834	1540
1647.336	1559
1651.834	1565
1656.328	1575
1660.817	1558
1665.302	1557
1669.783	1538
1674.259	1504
1678.732	1469
1683.199	1441
1687.663	1399
1692.122	1354
1696.577	1306
1701.028	1275
1705.474	1233
1709.917	1187
1714.355	1150
1718.788	1144
1723.218	1135
1727.643	1128
1732.064	1099
1736.481	1099
1740.893	1057
1745.301	1039
1749.705	1012
1754.105	986
1758.501	970
1762.893	963
1767.28	938
1771.663	934
1776.042	920
1780.417	904
1784.787	922
1789.154	924
1793.516	935
1797.874	938
1802.228	929
1806.578	924
1810.924	912
1815.266	897
1819.603	897
1823.937	860
1828.266	855
1832.591	853
1836.913	846
1841.23	848
1845.543	849
1849.852	838
1854.156	846
1858.457	848
1862.754	849
1867.047	845
1871.335	874
1875.62	871
1879.9	871
1884.177	864
1888.449	889
1892.718	857
1896.982	848
1901.243	847
1905.499	851
1909.752	844
1914	841
1918.245	835
1922.485	850
1926.722	860
1930.954	841
1935.183	856
1939.408	857
1943.628	862
1947.845	868
1952.058	862
1956.267	848
1960.472	847
1964.673	828
1968.87	843
1973.063	828
1977.252	824
1981.438	820
1985.619	807
1989.797	812
1993.971	817
1998.14	820
2002.306	814
2006.469	829
2010.627	816
2014.781	836
2018.932	834
2023.078	824
2027.221	828
2031.36	825
2035.495	808
2039.627	810
2043.754	800
2047.878	802
2051.998	796
2056.114	793
2060.226	803
2064.334	821
2068.439	799
2072.54	811
2076.637	817
2080.73	807
2084.82	819
2088.906	811
2092.988	824
2097.066	816
2101.14	810
2105.211	813
2109.278	815
2113.342	804
2117.401	798
2121.457	798
2125.509	790
2129.558	781
2133.602	806
2137.643	777
2141.681	783
2145.714	779
2149.744	784
2153.77	769
2157.793	775
2161.812	755
2165.827	762
2169.838	752
2173.846	741
2177.851	719
2181.851	727
2185.848	710
2189.841	697
2193.831	696
2197.817	693
2201.799	702
2205.778	680
2209.753	683
2213.725	701
2217.693	697
2221.657	683
2225.618	683
2229.575	676
2233.529	679
2237.479	671
2241.425	680
2245.368	672
2249.307	663
2253.243	647
2257.175	651
2261.104	635
2265.029	620
2268.95	627
2272.868	623
2276.783	616
2280.694	610
2284.601	610
2288.505	592
2292.405	583
2296.302	590
2300.195	579
2304.085	571
2307.971	557
2311.854	549
2315.734	542
2319.609	530
2323.482	527
2327.351	530
2331.216	515
2335.078	514
2338.937	509
2342.792	507
2346.643	502
2350.492	507
2354.336	511
2358.178	501
2362.015	517
2365.85	507
2369.681	512
2373.508	504
2377.333	513
2381.153	513
2384.971	511
2388.785	504
2392.595	505
2396.402	500
2400.206	500
2404.007	492
2407.804	496
2411.597	502
2415.388	493
2419.174	488
2422.958	484
2426.738	492
2430.515	477
2434.289	472
2438.059	481
2441.825	476
2445.589	478
2449.349	474
2453.106	470
2456.859	468
2460.61	465
2464.356	473
2468.1	452
2471.84	455
2475.577	448
2479.311	447
2483.041	458
2486.768	448
2490.492	452
2494.213	450
2497.93	450
2501.644	448
2505.355	439
2509.062	454
2512.766	458
2516.467	449
2520.165	451
2523.859	446
2527.551	437
2531.239	431
2534.923	425
2538.605	433
2542.283	423
2545.958	414
2549.63	419
2553.299	423
2556.964	409
2560.626	423
2564.285	424
2567.941	411
2571.594	411
2575.243	407
2578.89	405
2582.533	404
2586.173	399
2589.809	396
2593.443	401
2597.073	397
2600.701	389
2604.325	387
2607.946	387
2611.564	384
2615.178	391
2618.79	390
2622.398	388
2626.004	374
2629.606	374
2633.205	373
2636.801	380
2640.394	374
2643.983	376
2647.57	364
2651.153	358
2654.734	359
2658.311	353
2661.885	348
2665.456	358
2669.025	352
2672.589	343
2676.151	345
2679.71	338
2683.266	342
2686.819	332
2690.368	327
2693.915	329
2697.458	319
2700.999	324
2704.536	321
2708.071	319
2711.602	314
2715.13	309
2718.656	303
2722.178	315
2725.697	309
2729.214	304
2732.727	317
2736.237	309
2739.744	302
2743.249	310
2746.75	307
2750.248	308
2753.743	310
2757.236	312
2760.725	318
2764.211	308
2767.695	307
2771.175	295
2774.652	304
2778.127	292
2781.598	296
2785.067	300
2788.532	300
2791.995	303
2795.455	292
2798.911	297
2802.365	292
2805.816	293
2809.264	298
2812.709	302
2816.151	298
2819.59	295
2823.026	303
2826.46	302
2829.89	301
2833.318	303
2836.742	296
2840.164	298
2843.583	295
2846.999	299
2850.412	297
2853.822	314
2857.229	308
2860.634	317
2864.035	310
2867.434	317
2870.83	322
2874.223	321
2877.613	323
2881	320
2884.385	327
2887.766	331
2891.145	323
2894.521	314
2897.894	331
2901.264	335
2904.631	332
2907.996	342
2911.358	326
2914.717	334
2918.073	336
2921.426	329
2924.777	345
2928.124	350
2931.469	360
2934.811	350
2938.15	360
2941.487	371
2944.821	367
2948.152	374
2951.48	372
2954.805	385
2958.128	373
2961.447	375
2964.765	396
2968.079	384
2971.39	394
2974.699	403
2978.005	421
2981.308	431
2984.609	438
2987.907	451
2991.202	449
2994.494	465
2997.784	480
3001.07	486
3004.355	497
3007.636	502
3010.915	518
3014.191	525
3017.464	538
3020.734	540
3024.002	544
3027.267	547
3030.53	565
3033.789	566
3037.046	574
3040.301	581
3043.552	601
3046.801	618
3050.048	628
3053.291	653
3056.532	645
3059.771	684
3063.006	692
3066.239	706
3069.469	743
3072.697	748
3075.922	772
3079.144	789
3082.364	813
3085.581	825
3088.795	845
3092.007	852
3095.216	872
3098.423	883
3101.627	912
3104.828	935
3108.026	943
3111.222	970
3114.416	984
3117.607	1015
3120.795	1025
3123.98	1057
3127.163	1082
3130.344	1100
3133.521	1124
3136.696	1153
3139.869	1172
3143.039	1189
3146.206	1198
3149.371	1228
3152.533	1229
3155.693	1244
3158.85	1251
3162.005	1264
3165.157	1250
3168.306	1251
3171.453	1266
3174.597	1276
3177.739	1280
3180.878	1278
3184.014	1280
3187.149	1289
3190.28	1284
3193.409	1296
3196.536	1281
3199.659	1298
3202.781	1295
3205.9	1282
3209.016	1287
3212.13	1284
3215.241	1293
3218.35	1279
3221.456	1278
3224.56	1265
3227.661	1247
3230.76	1240
3233.856	1208
3236.95	1207
3240.041	1205
3243.13	1182
3246.216	1205
3249.3	1168
3252.382	1171
3255.46	1163
3258.537	1155
3261.611	1156
3264.682	1137
3267.751	1134
3270.818	1131
3273.882	1135
3276.943	1136
3280.002	1105
3283.059	1101
3286.113	1102
3289.165	1068
3292.214	1065
3295.261	1034
3298.306	1036
3301.348	1003
3304.387	1003
3307.425	984
3310.459	962
3313.492	958
3316.521	942
3319.549	934
3322.574	937
3325.597	908
3328.617	917
3331.635	902
3334.65	922
3337.663	890
3340.674	881
3343.682	885
3346.688	883
3349.691	885
3352.692	892
3355.691	857
3358.687	862
3361.681	855
3364.673	831
3367.662	833
3370.649	818
3373.633	816
3376.615	799
3379.595	787
3382.572	791
3385.547	777
3388.52	754
3391.49	745
3394.458	736
3397.424	730
3400.387	737
3403.348	710
3406.307	711
3409.263	700
3412.217	700
3415.168	688
3418.118	678
3421.065	674
3424.009	660
3426.951	655
3429.891	657
3432.829	631
3435.764	620
3438.697	612
3441.628	601
3444.557	591
3447.483	567
3450.407	555
3453.328	550
3456.247	533
3459.164	514
3462.079	489
3464.991	499
3467.902	468
3470.809	459
3473.715	444
3476.618	432
3479.519	421
3482.418	416
3485.315	392
3488.209	384
3491.101	369
3493.99	359
3496.878	364
3499.763	345
3502.646	336
3505.527	334
3508.405	314
3511.281	302
3514.155	294
3517.027	275
3519.897	271
3522.764	267
3525.629	250
3528.492	242
3531.352	222
3534.211	216
3537.067	199
3539.921	191
3542.773	187
3545.622	177
3548.469	173
3551.315	153
3554.157	150
3556.998	137
3559.837	134
3562.673	126
3565.507	119
3568.339	119
3571.169	111
3573.996	105
3576.822	99
3579.645	97
3582.466	92
3585.285	85
3588.101	79
3590.916	67
3593.728	66
3596.538	61
3599.346	55
3602.152	52
3604.956	52
3607.757	46
3610.556	39
3613.354	34
3616.149	31
3618.942	29
3621.732	25
3624.521	25
3627.307	23
3630.092	11
3632.874	17
3635.654	11
3638.432	15
3641.208	4
3643.982	5
3646.753	-1
3649.523	0
3652.29	-2
3655.055	-10
3657.818	-18
3660.579	-15
3663.338	-16
3666.095	-16
3668.849	-19
3671.602	-21
3674.352	-26
3677.101	-28
3679.847	-27
3682.591	-33
3685.333	-33
3688.073	-37
3690.811	-33
3693.547	-33
3696.281	-42
3699.013	-41
3701.742	-39
3704.47	-43
3707.195	-42
3709.919	-45
3712.64	-47
3715.359	-46
3718.076	-48
3720.792	-52
3723.505	-50
3726.216	-53
3728.925	-54
3731.632	-58
3734.336	-51
3737.039	-59
3739.74	-52
3742.439	-51
3745.136	-54
3747.83	-57
3750.523	-54
3753.213	-58
3755.902	-60
3758.589	-56
3761.273	-57
3763.956	-54
3766.636	-54
3769.315	-58
3771.991	-59
3774.665	-62
3777.338	-63
3780.008	-61
3782.677	-62
3785.343	-60
3788.007	-62
3790.67	-62
3793.33	-64
3795.989	-64
3798.645	-63
3801.299	-64
3803.952	-62
3806.602	-62
3809.251	-61
3811.897	-69
3814.542	-65
3817.184	-61
3819.825	-66
3822.463	-68
3825.1	-72
3827.735	-67
3830.367	-68
3832.998	-63
3835.627	-65
3838.253	-66
3840.878	-70
3843.501	-70
3846.122	-72
3848.741	-73
3851.358	-73
3853.973	-66
3856.586	-66
3859.197	-70
3861.806	-69
3864.414	-73
3867.019	-71
3869.622	-70
3872.224	-70
3874.823	-69
3877.421	-70
3880.016	-70
3882.61	-63
3885.202	-62
3887.792	-67
3890.38	-68
3892.966	-67
3895.55	-69
3898.132	-70
3900.713	-73
3903.291	-73
3905.868	-69
3908.442	-71
3911.015	-79
3913.586	-78
3916.155	-72
3918.722	-73
3921.287	-72
3923.85	-74
3926.411	-72
3928.971	-72
3931.528	-75
3934.084	-78
3936.638	-77
3939.19	-74
3941.74	-73
3944.288	-75
3946.834	-75
3949.378	-75
3951.921	-76
3954.462	-77
3957	-72
3959.537	-74
3962.072	-75
3964.606	-74
3967.137	-75
3969.667	-73
3972.194	-75
3974.72	-76
3977.244	-73
3979.766	-73
3982.286	-71
3984.805	-72
3987.321	-71
3989.836	-72
3992.349	-74
3994.86	-70
3997.369	-69
3999.877	-76
4002.382	-73
4004.886	-75
4007.388	-73
4009.888	-68
4012.386	-69
4014.883	-71
4017.377	-79
4019.87	-73
4022.361	-78
4024.85	-74
4027.338	-72
4029.823	-67
4032.307	-66
4034.789	-73
4037.269	-77
4039.747	-77
4042.224	-76
4044.699	-74
4047.172	-72
4049.643	-69
4052.112	-73
4054.58	-73
4057.046	-73
4059.51	-73
4061.972	-75
4064.432	-73
4066.891	-74
4069.348	-72
4071.803	-74
4074.256	-76
4076.708	-77
4079.158	-75
4081.606	-76
4084.052	-75
4086.497	-75
4088.939	-77
4091.38	-75
4093.819	-76
4096.257	-77
4098.693	-76
4101.127	-78
4103.559	-78
4105.989	-30
4108.418	-22
4110.845	-19
4113.27	-19
4115.694	-10
4118.115	-3
4120.535	-74
4122.954	-72
4125.37	-73
4127.785	-78
4130.198	-74
4132.609	-76
4135.019	-82
4137.427	-75
4139.833	-78
4142.237	-77
