Data from 1000000CFU2_C_ramanshift_RamanShift_15-31-27-514.txt Node
Date: Sun Dec 25 15:31:27 IST 2016
User: aro
Spectrometer: QEPB0276
Trigger mode: 0
Integration Time (sec): 5.000000E0
Scans to average: 1
Electric dark correction enabled: true
Nonlinearity correction enabled: false
Boxcar width: 0
XAxis mode: Raman Shifts
Number of Pixels in Spectrum: 1044
>>>>>Begin Spectral Data<<<<<
160.701	11.25
166.742	18.25
172.777	63.25
178.805	192.25
184.826	591.25
190.841	1420.25
196.849	2657.25
202.85	3795.25
208.845	4382.25
214.833	4409.25
220.815	4200.25
226.789	4073.25
232.758	3970.25
238.719	3846.25
244.674	3757.25
250.623	3600.25
256.565	3446.25
262.5	3276.25
268.429	3132.25
274.351	3041.25
280.267	2900.25
286.176	2797.25
292.079	2715.25
297.975	2602.25
303.865	2516.25
309.748	2442.25
315.625	2392.25
321.495	2309.25
327.359	2272.25
333.217	2244.25
339.068	2235.25
344.912	2225.25
350.751	2203.25
356.583	2188.25
362.408	2185.25
368.227	2182.25
374.04	2202.25
379.847	2177.25
385.647	2220.25
391.44	2226.25
397.228	2235.25
403.009	2237.25
408.784	2235.25
414.553	2262.25
420.315	2267.25
426.071	2275.25
431.821	2272.25
437.565	2267.25
443.302	2261.25
449.033	2261.25
454.758	2272.25
460.477	2257.25
466.189	2248.25
471.896	2225.25
477.596	2220.25
483.29	2240.25
488.978	2217.25
494.66	2209.25
500.335	2183.25
506.005	2165.25
511.668	2141.25
517.325	2104.25
522.977	2083.25
528.622	2038.25
534.261	2026.25
539.894	2006.25
545.521	2000.25
551.141	1983.25
556.756	1956.25
562.365	1950.25
567.968	1938.25
573.565	1938.25
579.155	1941.25
584.74	1927.25
590.319	1927.25
595.892	1915.25
601.459	1900.25
607.02	1890.25
612.575	1873.25
618.124	1866.25
623.667	1843.25
629.204	1823.25
634.735	1810.25
640.261	1783.25
645.781	1788.25
651.294	1781.25
656.802	1785.25
662.304	1776.25
667.8	1768.25
673.29	1764.25
678.775	1753.25
684.254	1762.25
689.726	1748.25
695.193	1748.25
700.655	1721.25
706.11	1708.25
711.56	1712.25
717.004	1696.25
722.442	1691.25
727.874	1688.25
733.301	1674.25
738.722	1660.25
744.137	1651.25
749.547	1654.25
754.951	1655.25
760.349	1656.25
765.741	1647.25
771.128	1665.25
776.509	1650.25
781.885	1663.25
787.254	1649.25
792.618	1639.25
797.977	1638.25
803.33	1638.25
808.677	1633.25
814.019	1620.25
819.355	1605.25
824.686	1591.25
830.011	1569.25
835.33	1550.25
840.644	1568.25
845.952	1568.25
851.255	1565.25
856.552	1564.25
861.844	1561.25
867.13	1545.25
872.41	1561.25
877.686	1535.25
882.955	1528.25
888.219	1518.25
893.478	1489.25
898.731	1463.25
903.979	1459.25
909.221	1438.25
914.458	1432.25
919.69	1412.25
924.916	1390.25
930.136	1403.25
935.351	1406.25
940.561	1401.25
945.766	1408.25
950.965	1397.25
956.158	1386.25
961.347	1374.25
966.529	1355.25
971.707	1356.25
976.879	1332.25
982.046	1331.25
987.208	1297.25
992.364	1301.25
997.515	1315.25
1002.66	1317.25
1007.801	1327.25
1012.936	1332.25
1018.066	1356.25
1023.19	1362.25
1028.309	1359.25
1033.423	1353.25
1038.532	1354.25
1043.636	1368.25
1048.734	1349.25
1053.827	1334.25
1058.915	1329.25
1063.998	1315.25
1069.075	1315.25
1074.147	1303.25
1079.214	1314.25
1084.276	1323.25
1089.333	1336.25
1094.385	1347.25
1099.431	1358.25
1104.472	1358.25
1109.509	1358.25
1114.54	1355.25
1119.565	1323.25
1124.586	1312.25
1129.602	1291.25
1134.613	1300.25
1139.618	1298.25
1144.619	1284.25
1149.614	1292.25
1154.604	1300.25
1159.589	1320.25
1164.57	1310.25
1169.545	1307.25
1174.515	1312.25
1179.48	1315.25
1184.44	1311.25
1189.395	1291.25
1194.345	1302.25
1199.29	1304.25
1204.23	1279.25
1209.165	1284.25
1214.095	1306.25
1219.021	1313.25
1223.941	1316.25
1228.856	1317.25
1233.766	1333.25
1238.672	1337.25
1243.572	1317.25
1248.467	1321.25
1253.358	1330.25
1258.244	1315.25
1263.124	1304.25
1268	1280.25
1272.871	1259.25
1277.737	1249.25
1282.599	1246.25
1287.455	1247.25
1292.306	1250.25
1297.153	1261.25
1301.995	1286.25
1306.832	1277.25
1311.664	1277.25
1316.491	1280.25
1321.314	1295.25
1326.132	1290.25
1330.945	1278.25
1335.753	1272.25
1340.556	1253.25
1345.354	1235.25
1350.148	1230.25
1354.937	1214.25
1359.722	1223.25
1364.501	1201.25
1369.276	1185.25
1374.046	1169.25
1378.811	1163.25
1383.572	1161.25
1388.327	1144.25
1393.079	1163.25
1397.825	1172.25
1402.567	1153.25
1407.304	1139.25
1412.036	1156.25
1416.764	1137.25
1421.487	1142.25
1426.205	1132.25
1430.919	1153.25
1435.628	1174.25
1440.333	1170.25
1445.032	1178.25
1449.727	1193.25
1454.418	1200.25
1459.104	1220.25
1463.785	1212.25
1468.462	1200.25
1473.134	1177.25
1477.802	1166.25
1482.465	1162.25
1487.123	1142.25
1491.777	1160.25
1496.426	1153.25
1501.071	1153.25
1505.711	1159.25
1510.347	1183.25
1514.978	1184.25
1519.604	1191.25
1524.226	1191.25
1528.844	1196.25
1533.457	1204.25
1538.065	1202.25
1542.669	1202.25
1547.269	1188.25
1551.864	1185.25
1556.454	1185.25
1561.041	1199.25
1565.622	1212.25
1570.199	1227.25
1574.772	1233.25
1579.34	1261.25
1583.904	1277.25
1588.464	1278.25
1593.019	1310.25
1597.569	1312.25
1602.115	1323.25
1606.657	1326.25
1611.195	1345.25
1615.728	1361.25
1620.256	1361.25
1624.78	1389.25
1629.3	1402.25
1633.816	1405.25
1638.327	1432.25
1642.834	1428.25
1647.336	1467.25
1651.834	1474.25
1656.328	1469.25
1660.817	1483.25
1665.302	1452.25
1669.783	1430.25
1674.259	1405.25
1678.732	1359.25
1683.199	1343.25
1687.663	1315.25
1692.122	1277.25
1696.577	1246.25
1701.028	1182.25
1705.474	1122.25
1709.917	1094.25
1714.355	1057.25
1718.788	1056.25
1723.218	1042.25
1727.643	1026.25
1732.064	1021.25
1736.481	993.25
1740.893	983.25
1745.301	961.25
1749.705	925.25
1754.105	919.25
1758.501	893.25
1762.893	883.25
1767.28	872.25
1771.663	860.25
1776.042	856.25
1780.417	853.25
1784.787	856.25
1789.154	861.25
1793.516	876.25
1797.874	860.25
1802.228	857.25
1806.578	844.25
1810.924	840.25
1815.266	818.25
1819.603	809.25
1823.937	802.25
1828.266	802.25
1832.591	794.25
1836.913	784.25
1841.23	779.25
1845.543	772.25
1849.852	778.25
1854.156	783.25
1858.457	797.25
1862.754	786.25
1867.047	796.25
1871.335	795.25
1875.62	794.25
1879.9	810.25
1884.177	807.25
1888.449	791.25
1892.718	790.25
1896.982	792.25
1901.243	784.25
1905.499	795.25
1909.752	788.25
1914	792.25
1918.245	781.25
1922.485	797.25
1926.722	784.25
1930.954	798.25
1935.183	788.25
1939.408	800.25
1943.628	799.25
1947.845	791.25
1952.058	785.25
1956.267	785.25
1960.472	781.25
1964.673	770.25
1968.87	770.25
1973.063	755.25
1977.252	752.25
1981.438	740.25
1985.619	750.25
1989.797	745.25
1993.971	743.25
1998.14	749.25
2002.306	743.25
2006.469	757.25
2010.627	759.25
2014.781	769.25
2018.932	758.25
2023.078	754.25
2027.221	758.25
2031.36	757.25
2035.495	753.25
2039.627	736.25
2043.754	734.25
2047.878	730.25
2051.998	737.25
2056.114	739.25
2060.226	746.25
2064.334	734.25
2068.439	739.25
2072.54	755.25
2076.637	752.25
2080.73	750.25
2084.82	756.25
2088.906	764.25
2092.988	757.25
2097.066	756.25
2101.14	750.25
2105.211	743.25
2109.278	752.25
2113.342	736.25
2117.401	737.25
2121.457	737.25
2125.509	736.25
2129.558	719.25
2133.602	713.25
2137.643	722.25
2141.681	710.25
2145.714	712.25
2149.744	709.25
2153.77	714.25
2157.793	697.25
2161.812	715.25
2165.827	703.25
2169.838	677.25
2173.846	681.25
2177.851	662.25
2181.851	664.25
2185.848	648.25
2189.841	651.25
2193.831	649.25
2197.817	643.25
2201.799	633.25
2205.778	635.25
2209.753	631.25
2213.725	636.25
2217.693	631.25
2221.657	628.25
2225.618	634.25
2229.575	626.25
2233.529	638.25
2237.479	620.25
2241.425	616.25
2245.368	609.25
2249.307	608.25
2253.243	602.25
2257.175	584.25
2261.104	579.25
2265.029	576.25
2268.95	575.25
2272.868	568.25
2276.783	555.25
2280.694	555.25
2284.601	544.25
2288.505	542.25
2292.405	548.25
2296.302	540.25
2300.195	526.25
2304.085	530.25
2307.971	517.25
2311.854	511.25
2315.734	496.25
2319.609	498.25
2323.482	485.25
2327.351	480.25
2331.216	488.25
2335.078	487.25
2338.937	479.25
2342.792	474.25
2346.643	466.25
2350.492	462.25
2354.336	467.25
2358.178	475.25
2362.015	478.25
2365.85	468.25
2369.681	466.25
2373.508	475.25
2377.333	481.25
2381.153	471.25
2384.971	481.25
2388.785	479.25
2392.595	471.25
2396.402	478.25
2400.206	458.25
2404.007	463.25
2407.804	465.25
2411.597	468.25
2415.388	455.25
2419.174	463.25
2422.958	465.25
2426.738	455.25
2430.515	461.25
2434.289	452.25
2438.059	449.25
2441.825	454.25
2445.589	442.25
2449.349	447.25
2453.106	438.25
2456.859	446.25
2460.61	446.25
2464.356	435.25
2468.1	426.25
2471.84	429.25
2475.577	433.25
2479.311	431.25
2483.041	422.25
2486.768	418.25
2490.492	433.25
2494.213	422.25
2497.93	418.25
2501.644	428.25
2505.355	414.25
2509.062	418.25
2512.766	419.25
2516.467	422.25
2520.165	421.25
2523.859	422.25
2527.551	411.25
2531.239	413.25
2534.923	408.25
2538.605	402.25
2542.283	400.25
2545.958	387.25
2549.63	390.25
2553.299	394.25
2556.964	392.25
2560.626	391.25
2564.285	387.25
2567.941	386.25
2571.594	389.25
2575.243	369.25
2578.89	370.25
2582.533	374.25
2586.173	380.25
2589.809	370.25
2593.443	364.25
2597.073	368.25
2600.701	363.25
2604.325	357.25
2607.946	355.25
2611.564	357.25
2615.178	359.25
2618.79	364.25
2622.398	364.25
2626.004	359.25
2629.606	352.25
2633.205	346.25
2636.801	349.25
2640.394	343.25
2643.983	344.25
2647.57	338.25
2651.153	336.25
2654.734	333.25
2658.311	335.25
2661.885	334.25
2665.456	330.25
2669.025	330.25
2672.589	314.25
2676.151	314.25
2679.71	320.25
2683.266	322.25
2686.819	314.25
2690.368	312.25
2693.915	308.25
2697.458	304.25
2700.999	303.25
2704.536	299.25
2708.071	290.25
2711.602	310.25
2715.13	294.25
2718.656	287.25
2722.178	295.25
2725.697	293.25
2729.214	289.25
2732.727	290.25
2736.237	292.25
2739.744	296.25
2743.249	295.25
2746.75	294.25
2750.248	290.25
2753.743	291.25
2757.236	281.25
2760.725	292.25
2764.211	289.25
2767.695	270.25
2771.175	280.25
2774.652	273.25
2778.127	267.25
2781.598	277.25
2785.067	269.25
2788.532	274.25
2791.995	277.25
2795.455	268.25
2798.911	272.25
2802.365	280.25
2805.816	270.25
2809.264	283.25
2812.709	288.25
2816.151	280.25
2819.59	272.25
2823.026	275.25
2826.46	274.25
2829.89	278.25
2833.318	281.25
2836.742	284.25
2840.164	283.25
2843.583	279.25
2846.999	284.25
2850.412	283.25
2853.822	288.25
2857.229	285.25
2860.634	290.25
2864.035	296.25
2867.434	297.25
2870.83	300.25
2874.223	298.25
2877.613	295.25
2881	301.25
2884.385	307.25
2887.766	300.25
2891.145	304.25
2894.521	310.25
2897.894	306.25
2901.264	311.25
2904.631	314.25
2907.996	314.25
2911.358	308.25
2914.717	300.25
2918.073	314.25
2921.426	326.25
2924.777	331.25
2928.124	320.25
2931.469	331.25
2934.811	334.25
2938.15	336.25
2941.487	344.25
2944.821	347.25
2948.152	353.25
2951.48	361.25
2954.805	358.25
2958.128	357.25
2961.447	364.25
2964.765	369.25
2968.079	371.25
2971.39	375.25
2974.699	381.25
2978.005	390.25
2981.308	402.25
2984.609	413.25
2987.907	414.25
2991.202	421.25
2994.494	433.25
2997.784	436.25
3001.07	449.25
3004.355	451.25
3007.636	469.25
3010.915	473.25
3014.191	488.25
3017.464	486.25
3020.734	494.25
3024.002	507.25
3027.267	502.25
3030.53	514.25
3033.789	525.25
3037.046	534.25
3040.301	550.25
3043.552	550.25
3046.801	563.25
3050.048	578.25
3053.291	588.25
3056.532	603.25
3059.771	621.25
3063.006	641.25
3066.239	652.25
3069.469	670.25
3072.697	689.25
3075.922	709.25
3079.144	714.25
3082.364	747.25
3085.581	770.25
3088.795	782.25
3092.007	802.25
3095.216	808.25
3098.423	827.25
3101.627	835.25
3104.828	848.25
3108.026	882.25
3111.222	898.25
3114.416	916.25
3117.607	944.25
3120.795	949.25
3123.98	967.25
3127.163	997.25
3130.344	995.25
3133.521	1052.25
3136.696	1050.25
3139.869	1067.25
3143.039	1102.25
3146.206	1110.25
3149.371	1111.25
3152.533	1129.25
3155.693	1138.25
3158.85	1136.25
3162.005	1150.25
3165.157	1158.25
3168.306	1161.25
3171.453	1146.25
3174.597	1166.25
3177.739	1169.25
3180.878	1164.25
3184.014	1182.25
3187.149	1165.25
3190.28	1182.25
3193.409	1183.25
3196.536	1185.25
3199.659	1174.25
3202.781	1189.25
3205.9	1191.25
3209.016	1191.25
3212.13	1195.25
3215.241	1164.25
3218.35	1178.25
3221.456	1164.25
3224.56	1148.25
3227.661	1151.25
3230.76	1133.25
3233.856	1133.25
3236.95	1110.25
3240.041	1107.25
3243.13	1088.25
3246.216	1082.25
3249.3	1068.25
3252.382	1078.25
3255.46	1061.25
3258.537	1052.25
3261.611	1035.25
3264.682	1034.25
3267.751	1042.25
3270.818	1035.25
3273.882	1025.25
3276.943	1019.25
3280.002	1017.25
3283.059	1007.25
3286.113	997.25
3289.165	979.25
3292.214	954.25
3295.261	949.25
3298.306	931.25
3301.348	922.25
3304.387	918.25
3307.425	900.25
3310.459	888.25
3313.492	882.25
3316.521	868.25
3319.549	850.25
3322.574	849.25
3325.597	842.25
3328.617	836.25
3331.635	835.25
3334.65	823.25
3337.663	829.25
3340.674	826.25
3343.682	816.25
3346.688	804.25
3349.691	809.25
3352.692	811.25
3355.691	814.25
3358.687	801.25
3361.681	789.25
3364.673	770.25
3367.662	762.25
3370.649	756.25
3373.633	754.25
3376.615	752.25
3379.595	733.25
3382.572	722.25
3385.547	702.25
3388.52	706.25
3391.49	694.25
3394.458	688.25
3397.424	672.25
3400.387	657.25
3403.348	652.25
3406.307	646.25
3409.263	646.25
3412.217	637.25
3415.168	634.25
3418.118	628.25
3421.065	609.25
3424.009	609.25
3426.951	599.25
3429.891	590.25
3432.829	586.25
3435.764	577.25
3438.697	565.25
3441.628	553.25
3444.557	539.25
3447.483	519.25
3450.407	508.25
3453.328	487.25
3456.247	483.25
3459.164	470.25
3462.079	465.25
3464.991	445.25
3467.902	426.25
3470.809	414.25
3473.715	408.25
3476.618	388.25
3479.519	381.25
3482.418	382.25
3485.315	360.25
3488.209	351.25
3491.101	342.25
3493.99	332.25
3496.878	323.25
3499.763	319.25
3502.646	305.25
3505.527	294.25
3508.405	280.25
3511.281	280.25
3514.155	270.25
3517.027	252.25
3519.897	248.25
3522.764	235.25
3525.629	226.25
3528.492	212.25
3531.352	200.25
3534.211	197.25
3537.067	182.25
3539.921	176.25
3542.773	168.25
3545.622	162.25
3548.469	149.25
3551.315	136.25
3554.157	135.25
3556.998	133.25
3559.837	121.25
3562.673	118.25
3565.507	114.25
3568.339	107.25
3571.169	104.25
3573.996	90.25
3576.822	88.25
3579.645	83.25
3582.466	78.25
3585.285	79.25
3588.101	68.25
3590.916	65.25
3593.728	61.25
3596.538	56.25
3599.346	51.25
3602.152	46.25
3604.956	43.25
3607.757	42.25
3610.556	39.25
3613.354	31.25
3616.149	23.25
3618.942	28.25
3621.732	21.25
3624.521	19.25
3627.307	21.25
3630.092	16.25
3632.874	14.25
3635.654	9.25
3638.432	9.25
3641.208	10.25
3643.982	4.25
3646.753	-0.75
3649.523	2.25
3652.29	0.25
3655.055	-5.75
3657.818	-4.75
3660.579	-11.75
3663.338	-14.75
3666.095	-10.75
3668.849	-17.75
3671.602	-19.75
3674.352	-22.75
3677.101	-22.75
3679.847	-26.75
3682.591	-24.75
3685.333	-28.75
3688.073	-29.75
3690.811	-28.75
3693.547	-34.75
3696.281	-35.75
3699.013	-36.75
3701.742	-30.75
3704.47	-36.75
3707.195	-34.75
3709.919	-36.75
3712.64	-41.75
3715.359	-41.75
3718.076	-40.75
3720.792	-45.75
3723.505	-41.75
3726.216	-42.75
3728.925	-46.75
3731.632	-45.75
3734.336	-45.75
3737.039	-48.75
3739.74	-46.75
3742.439	-46.75
3745.136	-47.75
3747.83	-46.75
3750.523	-50.75
3753.213	-50.75
3755.902	-50.75
3758.589	-52.75
3761.273	-51.75
3763.956	-50.75
3766.636	-50.75
3769.315	-53.75
3771.991	-52.75
3774.665	-53.75
3777.338	-55.75
3780.008	-53.75
3782.677	-54.75
3785.343	-55.75
3788.007	-55.75
3790.67	-56.75
3793.33	-54.75
3795.989	-56.75
3798.645	-55.75
3801.299	-58.75
3803.952	-58.75
3806.602	-56.75
3809.251	-57.75
3811.897	-60.75
3814.542	-58.75
3817.184	-56.75
3819.825	-55.75
3822.463	-58.75
3825.1	-60.75
3827.735	-60.75
3830.367	-61.75
3832.998	-58.75
3835.627	-59.75
3838.253	-59.75
3840.878	-61.75
3843.501	-60.75
3846.122	-63.75
3848.741	-65.75
3851.358	-65.75
3853.973	-62.75
3856.586	-60.75
3859.197	-61.75
3861.806	-62.75
3864.414	-60.75
3867.019	-62.75
3869.622	-58.75
3872.224	-59.75
3874.823	-64.75
3877.421	-59.75
3880.016	-61.75
3882.61	-58.75
3885.202	-58.75
3887.792	-55.75
3890.38	-58.75
3892.966	-59.75
3895.55	-63.75
3898.132	-66.75
3900.713	-65.75
3903.291	-65.75
3905.868	-62.75
3908.442	-61.75
3911.015	-67.75
3913.586	-64.75
3916.155	-64.75
3918.722	-66.75
3921.287	-66.75
3923.85	-69.75
3926.411	-62.75
3928.971	-67.75
3931.528	-64.75
3934.084	-68.75
3936.638	-66.75
3939.19	-66.75
3941.74	-70.75
3944.288	-67.75
3946.834	-65.75
3949.378	-65.75
3951.921	-64.75
3954.462	-65.75
3957	-65.75
3959.537	-66.75
3962.072	-67.75
3964.606	-65.75
3967.137	-70.75
3969.667	-67.75
3972.194	-65.75
3974.72	-68.75
3977.244	-62.75
3979.766	-64.75
3982.286	-63.75
3984.805	-65.75
3987.321	-66.75
3989.836	-68.75
3992.349	-66.75
3994.86	-63.75
3997.369	-59.75
3999.877	-65.75
4002.382	-63.75
4004.886	-65.75
4007.388	-65.75
4009.888	-62.75
4012.386	-67.75
4014.883	-66.75
4017.377	-65.75
4019.87	-64.75
4022.361	-63.75
4024.85	-63.75
4027.338	-64.75
4029.823	-58.75
4032.307	-63.75
4034.789	-66.75
4037.269	-67.75
4039.747	-66.75
4042.224	-65.75
4044.699	-62.75
4047.172	-65.75
4049.643	-63.75
4052.112	-66.75
4054.58	-67.75
4057.046	-66.75
4059.51	-67.75
4061.972	-62.75
4064.432	-62.75
4066.891	-67.75
4069.348	-66.75
4071.803	-68.75
4074.256	-69.75
4076.708	-70.75
4079.158	-66.75
4081.606	-60.75
4084.052	-65.75
4086.497	-64.75
4088.939	-68.75
4091.38	-69.75
4093.819	-68.75
4096.257	-67.75
4098.693	-68.75
4101.127	-69.75
4103.559	-69.75
4105.989	-15.75
4108.418	-19.75
4110.845	-13.75
4113.27	-12.75
4115.694	-5.75
4118.115	-1.75
4120.535	-67.75
4122.954	-66.75
4125.37	-64.75
4127.785	-64.75
4130.198	-64.75
4132.609	-69.75
4135.019	-71.75
4137.427	-69.75
4139.833	-71.75
4142.237	-71.75
