Data from 100CFU2_C_ramanshift_RamanShift_15-20-02-580.txt Node
Date: Sun Dec 25 15:20:02 IST 2016
User: aro
Spectrometer: QEPB0276
Trigger mode: 0
Integration Time (sec): 5.000000E0
Scans to average: 1
Electric dark correction enabled: true
Nonlinearity correction enabled: false
Boxcar width: 0
XAxis mode: Raman Shifts
Number of Pixels in Spectrum: 1044
>>>>>Begin Spectral Data<<<<<
160.701	5.12
166.742	25.12
172.777	71.12
178.805	222.12
184.826	673.12
190.841	1605.12
196.849	2981.12
202.85	4280.12
208.845	4891.12
214.833	4940.12
220.815	4789.12
226.789	4607.12
232.758	4538.12
238.719	4407.12
244.674	4296.12
250.623	4131.12
256.565	3970.12
262.5	3826.12
268.429	3653.12
274.351	3516.12
280.267	3378.12
286.176	3271.12
292.079	3211.12
297.975	3080.12
303.865	3009.12
309.748	2924.12
315.625	2860.12
321.495	2811.12
327.359	2757.12
333.217	2714.12
339.068	2695.12
344.912	2676.12
350.751	2645.12
356.583	2638.12
362.408	2653.12
368.227	2661.12
374.04	2661.12
379.847	2642.12
385.647	2661.12
391.44	2667.12
397.228	2674.12
403.009	2708.12
408.784	2726.12
414.553	2724.12
420.315	2729.12
426.071	2740.12
431.821	2743.12
437.565	2737.12
443.302	2742.12
449.033	2756.12
454.758	2725.12
460.477	2719.12
466.189	2724.12
471.896	2707.12
477.596	2711.12
483.29	2680.12
488.978	2668.12
494.66	2685.12
500.335	2656.12
506.005	2627.12
511.668	2594.12
517.325	2580.12
522.977	2527.12
528.622	2499.12
534.261	2475.12
539.894	2453.12
545.521	2445.12
551.141	2414.12
556.756	2416.12
562.365	2402.12
567.968	2408.12
573.565	2397.12
579.155	2380.12
584.74	2375.12
590.319	2383.12
595.892	2349.12
601.459	2327.12
607.02	2332.12
612.575	2311.12
618.124	2293.12
623.667	2279.12
629.204	2264.12
634.735	2234.12
640.261	2196.12
645.781	2200.12
651.294	2190.12
656.802	2203.12
662.304	2201.12
667.8	2187.12
673.29	2185.12
678.775	2186.12
684.254	2186.12
689.726	2153.12
695.193	2159.12
700.655	2156.12
706.11	2124.12
711.56	2127.12
717.004	2102.12
722.442	2099.12
727.874	2084.12
733.301	2078.12
738.722	2089.12
744.137	2072.12
749.547	2077.12
754.951	2055.12
760.349	2071.12
765.741	2068.12
771.128	2080.12
776.509	2069.12
781.885	2055.12
787.254	2064.12
792.618	2074.12
797.977	2059.12
803.33	2054.12
808.677	2050.12
814.019	2017.12
819.355	1978.12
824.686	1983.12
830.011	1962.12
835.33	1976.12
840.644	1978.12
845.952	1957.12
851.255	1957.12
856.552	1941.12
861.844	1936.12
867.13	1928.12
872.41	1932.12
877.686	1923.12
882.955	1916.12
888.219	1868.12
893.478	1847.12
898.731	1860.12
903.979	1822.12
909.221	1810.12
914.458	1802.12
919.69	1776.12
924.916	1784.12
930.136	1785.12
935.351	1780.12
940.561	1780.12
945.766	1777.12
950.965	1780.12
956.158	1768.12
961.347	1753.12
966.529	1714.12
971.707	1729.12
976.879	1697.12
982.046	1688.12
987.208	1678.12
992.364	1663.12
997.515	1661.12
1002.66	1659.12
1007.801	1663.12
1012.936	1716.12
1018.066	1708.12
1023.19	1741.12
1028.309	1739.12
1033.423	1740.12
1038.532	1720.12
1043.636	1722.12
1048.734	1720.12
1053.827	1689.12
1058.915	1683.12
1063.998	1673.12
1069.075	1654.12
1074.147	1650.12
1079.214	1671.12
1084.276	1682.12
1089.333	1677.12
1094.385	1689.12
1099.431	1715.12
1104.472	1710.12
1109.509	1727.12
1114.54	1693.12
1119.565	1675.12
1124.586	1663.12
1129.602	1647.12
1134.613	1628.12
1139.618	1633.12
1144.619	1626.12
1149.614	1630.12
1154.604	1645.12
1159.589	1656.12
1164.57	1648.12
1169.545	1663.12
1174.515	1662.12
1179.48	1667.12
1184.44	1669.12
1189.395	1648.12
1194.345	1639.12
1199.29	1640.12
1204.23	1624.12
1209.165	1634.12
1214.095	1642.12
1219.021	1656.12
1223.941	1678.12
1228.856	1684.12
1233.766	1691.12
1238.672	1689.12
1243.572	1701.12
1248.467	1673.12
1253.358	1675.12
1258.244	1672.12
1263.124	1640.12
1268	1616.12
1272.871	1594.12
1277.737	1580.12
1282.599	1574.12
1287.455	1579.12
1292.306	1573.12
1297.153	1587.12
1301.995	1595.12
1306.832	1600.12
1311.664	1616.12
1316.491	1620.12
1321.314	1617.12
1326.132	1630.12
1330.945	1614.12
1335.753	1595.12
1340.556	1567.12
1345.354	1547.12
1350.148	1530.12
1354.937	1513.12
1359.722	1525.12
1364.501	1508.12
1369.276	1497.12
1374.046	1479.12
1378.811	1462.12
1383.572	1467.12
1388.327	1427.12
1393.079	1448.12
1397.825	1448.12
1402.567	1450.12
1407.304	1438.12
1412.036	1427.12
1416.764	1417.12
1421.487	1423.12
1426.205	1437.12
1430.919	1451.12
1435.628	1443.12
1440.333	1470.12
1445.032	1469.12
1449.727	1493.12
1454.418	1494.12
1459.104	1487.12
1463.785	1496.12
1468.462	1488.12
1473.134	1458.12
1477.802	1445.12
1482.465	1457.12
1487.123	1439.12
1491.777	1428.12
1496.426	1439.12
1501.071	1456.12
1505.711	1444.12
1510.347	1452.12
1514.978	1460.12
1519.604	1476.12
1524.226	1491.12
1528.844	1487.12
1533.457	1470.12
1538.065	1499.12
1542.669	1471.12
1547.269	1459.12
1551.864	1461.12
1556.454	1461.12
1561.041	1473.12
1565.622	1477.12
1570.199	1500.12
1574.772	1519.12
1579.34	1547.12
1583.904	1564.12
1588.464	1584.12
1593.019	1588.12
1597.569	1602.12
1602.115	1616.12
1606.657	1613.12
1611.195	1625.12
1615.728	1633.12
1620.256	1629.12
1624.78	1661.12
1629.3	1666.12
1633.816	1699.12
1638.327	1703.12
1642.834	1722.12
1647.336	1736.12
1651.834	1763.12
1656.328	1756.12
1660.817	1769.12
1665.302	1726.12
1669.783	1712.12
1674.259	1674.12
1678.732	1631.12
1683.199	1626.12
1687.663	1570.12
1692.122	1527.12
1696.577	1483.12
1701.028	1426.12
1705.474	1381.12
1709.917	1328.12
1714.355	1297.12
1718.788	1293.12
1723.218	1291.12
1727.643	1278.12
1732.064	1261.12
1736.481	1232.12
1740.893	1207.12
1745.301	1201.12
1749.705	1156.12
1754.105	1145.12
1758.501	1127.12
1762.893	1110.12
1767.28	1079.12
1771.663	1085.12
1776.042	1048.12
1780.417	1063.12
1784.787	1060.12
1789.154	1079.12
1793.516	1068.12
1797.874	1074.12
1802.228	1070.12
1806.578	1052.12
1810.924	1036.12
1815.266	1019.12
1819.603	1023.12
1823.937	993.12
1828.266	993.12
1832.591	999.12
1836.913	977.12
1841.23	979.12
1845.543	983.12
1849.852	971.12
1854.156	982.12
1858.457	995.12
1862.754	996.12
1867.047	1001.12
1871.335	1004.12
1875.62	1011.12
1879.9	1005.12
1884.177	1001.12
1888.449	996.12
1892.718	991.12
1896.982	1004.12
1901.243	984.12
1905.499	972.12
1909.752	984.12
1914	975.12
1918.245	971.12
1922.485	972.12
1926.722	962.12
1930.954	968.12
1935.183	983.12
1939.408	994.12
1943.628	988.12
1947.845	983.12
1952.058	973.12
1956.267	975.12
1960.472	969.12
1964.673	950.12
1968.87	947.12
1973.063	935.12
1977.252	929.12
1981.438	920.12
1985.619	923.12
1989.797	929.12
1993.971	926.12
1998.14	927.12
2002.306	927.12
2006.469	934.12
2010.627	945.12
2014.781	931.12
2018.932	935.12
2023.078	948.12
2027.221	940.12
2031.36	935.12
2035.495	917.12
2039.627	902.12
2043.754	909.12
2047.878	903.12
2051.998	914.12
2056.114	896.12
2060.226	895.12
2064.334	896.12
2068.439	904.12
2072.54	915.12
2076.637	909.12
2080.73	901.12
2084.82	914.12
2088.906	911.12
2092.988	918.12
2097.066	919.12
2101.14	918.12
2105.211	891.12
2109.278	892.12
2113.342	902.12
2117.401	881.12
2121.457	894.12
2125.509	884.12
2129.558	879.12
2133.602	878.12
2137.643	878.12
2141.681	874.12
2145.714	863.12
2149.744	862.12
2153.77	851.12
2157.793	858.12
2161.812	847.12
2165.827	841.12
2169.838	831.12
2173.846	816.12
2177.851	808.12
2181.851	795.12
2185.848	794.12
2189.841	786.12
2193.831	769.12
2197.817	779.12
2201.799	783.12
2205.778	770.12
2209.753	766.12
2213.725	773.12
2217.693	771.12
2221.657	769.12
2225.618	764.12
2229.575	754.12
2233.529	762.12
2237.479	762.12
2241.425	754.12
2245.368	736.12
2249.307	731.12
2253.243	715.12
2257.175	721.12
2261.104	710.12
2265.029	699.12
2268.95	682.12
2272.868	681.12
2276.783	675.12
2280.694	672.12
2284.601	666.12
2288.505	655.12
2292.405	647.12
2296.302	656.12
2300.195	642.12
2304.085	637.12
2307.971	620.12
2311.854	597.12
2315.734	611.12
2319.609	602.12
2323.482	593.12
2327.351	587.12
2331.216	586.12
2335.078	571.12
2338.937	579.12
2342.792	569.12
2346.643	570.12
2350.492	557.12
2354.336	578.12
2358.178	561.12
2362.015	573.12
2365.85	576.12
2369.681	570.12
2373.508	567.12
2377.333	573.12
2381.153	566.12
2384.971	573.12
2388.785	572.12
2392.595	566.12
2396.402	562.12
2400.206	552.12
2404.007	553.12
2407.804	553.12
2411.597	554.12
2415.388	546.12
2419.174	549.12
2422.958	537.12
2426.738	554.12
2430.515	550.12
2434.289	559.12
2438.059	539.12
2441.825	532.12
2445.589	541.12
2449.349	526.12
2453.106	525.12
2456.859	531.12
2460.61	525.12
2464.356	522.12
2468.1	511.12
2471.84	506.12
2475.577	498.12
2479.311	512.12
2483.041	496.12
2486.768	504.12
2490.492	500.12
2494.213	511.12
2497.93	505.12
2501.644	508.12
2505.355	505.12
2509.062	500.12
2512.766	499.12
2516.467	503.12
2520.165	490.12
2523.859	491.12
2527.551	486.12
2531.239	486.12
2534.923	488.12
2538.605	473.12
2542.283	480.12
2545.958	466.12
2549.63	463.12
2553.299	469.12
2556.964	465.12
2560.626	461.12
2564.285	465.12
2567.941	464.12
2571.594	447.12
2575.243	460.12
2578.89	446.12
2582.533	445.12
2586.173	447.12
2589.809	437.12
2593.443	440.12
2597.073	442.12
2600.701	427.12
2604.325	430.12
2607.946	430.12
2611.564	426.12
2615.178	420.12
2618.79	427.12
2622.398	427.12
2626.004	421.12
2629.606	414.12
2633.205	406.12
2636.801	414.12
2640.394	403.12
2643.983	403.12
2647.57	407.12
2651.153	396.12
2654.734	397.12
2658.311	390.12
2661.885	377.12
2665.456	372.12
2669.025	376.12
2672.589	377.12
2676.151	381.12
2679.71	372.12
2683.266	373.12
2686.819	364.12
2690.368	368.12
2693.915	357.12
2697.458	363.12
2700.999	348.12
2704.536	346.12
2708.071	346.12
2711.602	353.12
2715.13	344.12
2718.656	347.12
2722.178	338.12
2725.697	336.12
2729.214	341.12
2732.727	350.12
2736.237	347.12
2739.744	355.12
2743.249	342.12
2746.75	336.12
2750.248	332.12
2753.743	329.12
2757.236	325.12
2760.725	332.12
2764.211	328.12
2767.695	331.12
2771.175	320.12
2774.652	321.12
2778.127	315.12
2781.598	316.12
2785.067	316.12
2788.532	317.12
2791.995	318.12
2795.455	321.12
2798.911	321.12
2802.365	325.12
2805.816	322.12
2809.264	325.12
2812.709	315.12
2816.151	327.12
2819.59	319.12
2823.026	319.12
2826.46	310.12
2829.89	323.12
2833.318	316.12
2836.742	327.12
2840.164	321.12
2843.583	318.12
2846.999	322.12
2850.412	323.12
2853.822	332.12
2857.229	331.12
2860.634	330.12
2864.035	324.12
2867.434	337.12
2870.83	337.12
2874.223	335.12
2877.613	340.12
2881	340.12
2884.385	347.12
2887.766	339.12
2891.145	340.12
2894.521	337.12
2897.894	349.12
2901.264	340.12
2904.631	337.12
2907.996	348.12
2911.358	344.12
2914.717	342.12
2918.073	354.12
2921.426	349.12
2924.777	362.12
2928.124	357.12
2931.469	354.12
2934.811	367.12
2938.15	365.12
2941.487	370.12
2944.821	383.12
2948.152	385.12
2951.48	385.12
2954.805	392.12
2958.128	395.12
2961.447	394.12
2964.765	395.12
2968.079	399.12
2971.39	416.12
2974.699	427.12
2978.005	432.12
2981.308	434.12
2984.609	440.12
2987.907	444.12
2991.202	471.12
2994.494	467.12
2997.784	476.12
3001.07	494.12
3004.355	505.12
3007.636	511.12
3010.915	526.12
3014.191	523.12
3017.464	539.12
3020.734	537.12
3024.002	533.12
3027.267	542.12
3030.53	565.12
3033.789	561.12
3037.046	574.12
3040.301	602.12
3043.552	592.12
3046.801	606.12
3050.048	621.12
3053.291	636.12
3056.532	661.12
3059.771	667.12
3063.006	680.12
3066.239	713.12
3069.469	730.12
3072.697	757.12
3075.922	766.12
3079.144	764.12
3082.364	810.12
3085.581	821.12
3088.795	832.12
3092.007	851.12
3095.216	876.12
3098.423	887.12
3101.627	906.12
3104.828	921.12
3108.026	956.12
3111.222	955.12
3114.416	965.12
3117.607	994.12
3120.795	1012.12
3123.98	1034.12
3127.163	1063.12
3130.344	1088.12
3133.521	1118.12
3136.696	1134.12
3139.869	1144.12
3143.039	1156.12
3146.206	1175.12
3149.371	1190.12
3152.533	1200.12
3155.693	1207.12
3158.85	1228.12
3162.005	1227.12
3165.157	1236.12
3168.306	1231.12
3171.453	1245.12
3174.597	1244.12
3177.739	1253.12
3180.878	1261.12
3184.014	1260.12
3187.149	1258.12
3190.28	1260.12
3193.409	1264.12
3196.536	1267.12
3199.659	1255.12
3202.781	1265.12
3205.9	1275.12
3209.016	1275.12
3212.13	1259.12
3215.241	1237.12
3218.35	1252.12
3221.456	1242.12
3224.56	1234.12
3227.661	1229.12
3230.76	1219.12
3233.856	1199.12
3236.95	1181.12
3240.041	1178.12
3243.13	1155.12
3246.216	1148.12
3249.3	1153.12
3252.382	1142.12
3255.46	1115.12
3258.537	1124.12
3261.611	1118.12
3264.682	1091.12
3267.751	1102.12
3270.818	1104.12
3273.882	1085.12
3276.943	1076.12
3280.002	1080.12
3283.059	1056.12
3286.113	1054.12
3289.165	1049.12
3292.214	1033.12
3295.261	1020.12
3298.306	1009.12
3301.348	987.12
3304.387	966.12
3307.425	959.12
3310.459	937.12
3313.492	949.12
3316.521	926.12
3319.549	914.12
3322.574	891.12
3325.597	902.12
3328.617	885.12
3331.635	887.12
3334.65	886.12
3337.663	887.12
3340.674	870.12
3343.682	870.12
3346.688	856.12
3349.691	864.12
3352.692	860.12
3355.691	846.12
3358.687	844.12
3361.681	838.12
3364.673	811.12
3367.662	819.12
3370.649	799.12
3373.633	801.12
3376.615	785.12
3379.595	757.12
3382.572	759.12
3385.547	757.12
3388.52	738.12
3391.49	729.12
3394.458	728.12
3397.424	719.12
3400.387	712.12
3403.348	708.12
3406.307	690.12
3409.263	683.12
3412.217	675.12
3415.168	663.12
3418.118	668.12
3421.065	661.12
3424.009	637.12
3426.951	643.12
3429.891	629.12
3432.829	627.12
3435.764	602.12
3438.697	596.12
3441.628	578.12
3444.557	563.12
3447.483	550.12
3450.407	536.12
3453.328	518.12
3456.247	510.12
3459.164	505.12
3462.079	496.12
3464.991	472.12
3467.902	463.12
3470.809	438.12
3473.715	425.12
3476.618	412.12
3479.519	405.12
3482.418	387.12
3485.315	392.12
3488.209	377.12
3491.101	363.12
3493.99	345.12
3496.878	339.12
3499.763	345.12
3502.646	338.12
3505.527	315.12
3508.405	306.12
3511.281	292.12
3514.155	279.12
3517.027	268.12
3519.897	255.12
3522.764	252.12
3525.629	239.12
3528.492	225.12
3531.352	216.12
3534.211	199.12
3537.067	187.12
3539.921	185.12
3542.773	181.12
3545.622	166.12
3548.469	152.12
3551.315	146.12
3554.157	135.12
3556.998	136.12
3559.837	132.12
3562.673	120.12
3565.507	116.12
3568.339	111.12
3571.169	103.12
3573.996	92.12
3576.822	96.12
3579.645	89.12
3582.466	82.12
3585.285	77.12
3588.101	73.12
3590.916	65.12
3593.728	55.12
3596.538	52.12
3599.346	50.12
3602.152	46.12
3604.956	40.12
3607.757	48.12
3610.556	31.12
3613.354	30.12
3616.149	27.12
3618.942	22.12
3621.732	16.12
3624.521	15.12
3627.307	14.12
3630.092	13.12
3632.874	13.12
3635.654	8.12
3638.432	2.12
3641.208	-0.88
3643.982	-1.88
3646.753	-3.88
3649.523	-4.88
3652.29	-7.88
3655.055	-10.88
3657.818	-16.88
3660.579	-13.88
3663.338	-18.88
3666.095	-17.88
3668.849	-22.88
3671.602	-26.88
3674.352	-29.88
3677.101	-28.88
3679.847	-26.88
3682.591	-33.88
3685.333	-35.88
3688.073	-33.88
3690.811	-31.88
3693.547	-37.88
3696.281	-45.88
3699.013	-43.88
3701.742	-41.88
3704.47	-43.88
3707.195	-42.88
3709.919	-41.88
3712.64	-50.88
3715.359	-48.88
3718.076	-51.88
3720.792	-57.88
3723.505	-53.88
3726.216	-55.88
3728.925	-55.88
3731.632	-54.88
3734.336	-52.88
3737.039	-56.88
3739.74	-57.88
3742.439	-56.88
3745.136	-58.88
3747.83	-57.88
3750.523	-61.88
3753.213	-59.88
3755.902	-62.88
3758.589	-60.88
3761.273	-61.88
3763.956	-59.88
3766.636	-59.88
3769.315	-62.88
3771.991	-62.88
3774.665	-62.88
3777.338	-62.88
3780.008	-62.88
3782.677	-65.88
3785.343	-63.88
3788.007	-67.88
3790.67	-67.88
3793.33	-62.88
3795.989	-65.88
3798.645	-66.88
3801.299	-63.88
3803.952	-64.88
3806.602	-63.88
3809.251	-66.88
3811.897	-68.88
3814.542	-72.88
3817.184	-67.88
3819.825	-69.88
3822.463	-65.88
3825.1	-70.88
3827.735	-68.88
3830.367	-72.88
3832.998	-67.88
3835.627	-72.88
3838.253	-69.88
3840.878	-71.88
3843.501	-68.88
3846.122	-73.88
3848.741	-74.88
3851.358	-73.88
3853.973	-70.88
3856.586	-70.88
3859.197	-73.88
3861.806	-72.88
3864.414	-71.88
3867.019	-70.88
3869.622	-69.88
3872.224	-70.88
3874.823	-74.88
3877.421	-74.88
3880.016	-76.88
3882.61	-71.88
3885.202	-62.88
3887.792	-67.88
3890.38	-66.88
3892.966	-71.88
3895.55	-73.88
3898.132	-78.88
3900.713	-75.88
3903.291	-77.88
3905.868	-75.88
3908.442	-73.88
3911.015	-75.88
3913.586	-74.88
3916.155	-74.88
3918.722	-74.88
3921.287	-75.88
3923.85	-76.88
3926.411	-73.88
3928.971	-75.88
3931.528	-74.88
3934.084	-78.88
3936.638	-76.88
3939.19	-77.88
3941.74	-77.88
3944.288	-80.88
3946.834	-78.88
3949.378	-76.88
3951.921	-77.88
3954.462	-72.88
3957	-75.88
3959.537	-75.88
3962.072	-76.88
3964.606	-76.88
3967.137	-77.88
3969.667	-76.88
3972.194	-77.88
3974.72	-77.88
3977.244	-73.88
3979.766	-74.88
3982.286	-73.88
3984.805	-79.88
3987.321	-78.88
3989.836	-76.88
3992.349	-73.88
3994.86	-68.88
3997.369	-67.88
3999.877	-74.88
4002.382	-73.88
4004.886	-78.88
4007.388	-80.88
4009.888	-75.88
4012.386	-71.88
4014.883	-73.88
4017.377	-77.88
4019.87	-74.88
4022.361	-75.88
4024.85	-77.88
4027.338	-76.88
4029.823	-71.88
4032.307	-68.88
4034.789	-74.88
4037.269	-76.88
4039.747	-78.88
4042.224	-76.88
4044.699	-74.88
4047.172	-75.88
4049.643	-76.88
4052.112	-76.88
4054.58	-76.88
4057.046	-76.88
4059.51	-75.88
4061.972	-74.88
4064.432	-75.88
4066.891	-78.88
4069.348	-77.88
4071.803	-77.88
4074.256	-79.88
4076.708	-78.88
4079.158	-75.88
4081.606	-71.88
4084.052	-76.88
4086.497	-73.88
4088.939	-79.88
4091.38	-77.88
4093.819	-78.88
4096.257	-81.88
4098.693	-80.88
4101.127	-81.88
4103.559	-81.88
4105.989	-25.88
4108.418	-21.88
4110.845	-19.88
4113.27	-19.88
4115.694	-17.88
4118.115	-9.88
4120.535	-76.88
4122.954	-72.88
4125.37	-72.88
4127.785	-76.88
4130.198	-74.88
4132.609	-78.88
4135.019	-83.88
4137.427	-78.88
4139.833	-79.88
4142.237	-80.88
