Data from 100CFU1_C_ramanshift_RamanShift_15-19-07-585.txt Node
Date: Sun Dec 25 15:19:07 IST 2016
User: aro
Spectrometer: QEPB0276
Trigger mode: 0
Integration Time (sec): 5.000000E0
Scans to average: 1
Electric dark correction enabled: true
Nonlinearity correction enabled: false
Boxcar width: 0
XAxis mode: Raman Shifts
Number of Pixels in Spectrum: 1044
>>>>>Begin Spectral Data<<<<<
160.701	6.25
166.742	21.25
172.777	70.25
178.805	208.25
184.826	633.25
190.841	1505.25
196.849	2795.25
202.85	3976.25
208.845	4606.25
214.833	4617.25
220.815	4447.25
226.789	4265.25
232.758	4158.25
238.719	4051.25
244.674	3906.25
250.623	3754.25
256.565	3594.25
262.5	3449.25
268.429	3278.25
274.351	3127.25
280.267	3040.25
286.176	2905.25
292.079	2784.25
297.975	2705.25
303.865	2596.25
309.748	2518.25
315.625	2458.25
321.495	2387.25
327.359	2331.25
333.217	2322.25
339.068	2275.25
344.912	2268.25
350.751	2265.25
356.583	2229.25
362.408	2256.25
368.227	2230.25
374.04	2260.25
379.847	2256.25
385.647	2251.25
391.44	2262.25
397.228	2270.25
403.009	2302.25
408.784	2315.25
414.553	2326.25
420.315	2309.25
426.071	2341.25
431.821	2329.25
437.565	2333.25
443.302	2329.25
449.033	2327.25
454.758	2315.25
460.477	2330.25
466.189	2315.25
471.896	2283.25
477.596	2294.25
483.29	2259.25
488.978	2269.25
494.66	2264.25
500.335	2259.25
506.005	2227.25
511.668	2189.25
517.325	2155.25
522.977	2122.25
528.622	2101.25
534.261	2069.25
539.894	2049.25
545.521	2036.25
551.141	2025.25
556.756	1990.25
562.365	2007.25
567.968	1983.25
573.565	1985.25
579.155	1976.25
584.74	1953.25
590.319	1947.25
595.892	1939.25
601.459	1938.25
607.02	1922.25
612.575	1912.25
618.124	1902.25
623.667	1871.25
629.204	1837.25
634.735	1832.25
640.261	1825.25
645.781	1804.25
651.294	1814.25
656.802	1792.25
662.304	1784.25
667.8	1790.25
673.29	1777.25
678.775	1773.25
684.254	1782.25
689.726	1779.25
695.193	1765.25
700.655	1763.25
706.11	1733.25
711.56	1740.25
717.004	1724.25
722.442	1701.25
727.874	1710.25
733.301	1697.25
738.722	1687.25
744.137	1679.25
749.547	1659.25
754.951	1669.25
760.349	1676.25
765.741	1656.25
771.128	1668.25
776.509	1669.25
781.885	1659.25
787.254	1653.25
792.618	1653.25
797.977	1634.25
803.33	1637.25
808.677	1636.25
814.019	1614.25
819.355	1599.25
824.686	1585.25
830.011	1566.25
835.33	1556.25
840.644	1552.25
845.952	1567.25
851.255	1560.25
856.552	1568.25
861.844	1556.25
867.13	1544.25
872.41	1543.25
877.686	1526.25
882.955	1517.25
888.219	1488.25
893.478	1463.25
898.731	1448.25
903.979	1441.25
909.221	1412.25
914.458	1395.25
919.69	1388.25
924.916	1381.25
930.136	1387.25
935.351	1396.25
940.561	1390.25
945.766	1398.25
950.965	1377.25
956.158	1390.25
961.347	1359.25
966.529	1336.25
971.707	1331.25
976.879	1300.25
982.046	1300.25
987.208	1285.25
992.364	1295.25
997.515	1290.25
1002.66	1283.25
1007.801	1305.25
1012.936	1309.25
1018.066	1326.25
1023.19	1341.25
1028.309	1343.25
1033.423	1334.25
1038.532	1334.25
1043.636	1327.25
1048.734	1319.25
1053.827	1316.25
1058.915	1298.25
1063.998	1296.25
1069.075	1275.25
1074.147	1276.25
1079.214	1290.25
1084.276	1288.25
1089.333	1309.25
1094.385	1310.25
1099.431	1310.25
1104.472	1322.25
1109.509	1317.25
1114.54	1308.25
1119.565	1290.25
1124.586	1263.25
1129.602	1269.25
1134.613	1265.25
1139.618	1266.25
1144.619	1261.25
1149.614	1254.25
1154.604	1261.25
1159.589	1270.25
1164.57	1273.25
1169.545	1264.25
1174.515	1288.25
1179.48	1285.25
1184.44	1287.25
1189.395	1273.25
1194.345	1264.25
1199.29	1253.25
1204.23	1236.25
1209.165	1257.25
1214.095	1260.25
1219.021	1273.25
1223.941	1298.25
1228.856	1283.25
1233.766	1299.25
1238.672	1302.25
1243.572	1298.25
1248.467	1302.25
1253.358	1293.25
1258.244	1269.25
1263.124	1251.25
1268	1240.25
1272.871	1222.25
1277.737	1212.25
1282.599	1217.25
1287.455	1214.25
1292.306	1212.25
1297.153	1221.25
1301.995	1226.25
1306.832	1241.25
1311.664	1239.25
1316.491	1248.25
1321.314	1254.25
1326.132	1238.25
1330.945	1240.25
1335.753	1217.25
1340.556	1212.25
1345.354	1197.25
1350.148	1182.25
1354.937	1175.25
1359.722	1153.25
1364.501	1147.25
1369.276	1143.25
1374.046	1139.25
1378.811	1116.25
1383.572	1124.25
1388.327	1131.25
1393.079	1117.25
1397.825	1127.25
1402.567	1123.25
1407.304	1112.25
1412.036	1107.25
1416.764	1108.25
1421.487	1089.25
1426.205	1089.25
1430.919	1116.25
1435.628	1129.25
1440.333	1138.25
1445.032	1133.25
1449.727	1149.25
1454.418	1161.25
1459.104	1163.25
1463.785	1167.25
1468.462	1149.25
1473.134	1138.25
1477.802	1133.25
1482.465	1105.25
1487.123	1119.25
1491.777	1111.25
1496.426	1101.25
1501.071	1116.25
1505.711	1117.25
1510.347	1131.25
1514.978	1140.25
1519.604	1153.25
1524.226	1180.25
1528.844	1177.25
1533.457	1139.25
1538.065	1162.25
1542.669	1157.25
1547.269	1153.25
1551.864	1146.25
1556.454	1156.25
1561.041	1170.25
1565.622	1170.25
1570.199	1184.25
1574.772	1199.25
1579.34	1214.25
1583.904	1243.25
1588.464	1263.25
1593.019	1280.25
1597.569	1296.25
1602.115	1301.25
1606.657	1315.25
1611.195	1316.25
1615.728	1321.25
1620.256	1340.25
1624.78	1369.25
1629.3	1376.25
1633.816	1395.25
1638.327	1397.25
1642.834	1403.25
1647.336	1445.25
1651.834	1460.25
1656.328	1458.25
1660.817	1446.25
1665.302	1459.25
1669.783	1420.25
1674.259	1394.25
1678.732	1349.25
1683.199	1313.25
1687.663	1278.25
1692.122	1238.25
1696.577	1196.25
1701.028	1150.25
1705.474	1096.25
1709.917	1057.25
1714.355	1031.25
1718.788	1022.25
1723.218	1014.25
1727.643	993.25
1732.064	987.25
1736.481	962.25
1740.893	951.25
1745.301	909.25
1749.705	889.25
1754.105	880.25
1758.501	853.25
1762.893	844.25
1767.28	840.25
1771.663	815.25
1776.042	823.25
1780.417	809.25
1784.787	803.25
1789.154	812.25
1793.516	812.25
1797.874	806.25
1802.228	814.25
1806.578	801.25
1810.924	795.25
1815.266	798.25
1819.603	775.25
1823.937	752.25
1828.266	747.25
1832.591	755.25
1836.913	736.25
1841.23	741.25
1845.543	742.25
1849.852	759.25
1854.156	756.25
1858.457	741.25
1862.754	750.25
1867.047	750.25
1871.335	748.25
1875.62	740.25
1879.9	763.25
1884.177	755.25
1888.449	763.25
1892.718	759.25
1896.982	756.25
1901.243	746.25
1905.499	753.25
1909.752	741.25
1914	740.25
1918.245	743.25
1922.485	737.25
1926.722	730.25
1930.954	748.25
1935.183	738.25
1939.408	754.25
1943.628	755.25
1947.845	746.25
1952.058	743.25
1956.267	749.25
1960.472	746.25
1964.673	735.25
1968.87	721.25
1973.063	722.25
1977.252	718.25
1981.438	706.25
1985.619	696.25
1989.797	705.25
1993.971	715.25
1998.14	715.25
2002.306	722.25
2006.469	730.25
2010.627	718.25
2014.781	714.25
2018.932	733.25
2023.078	732.25
2027.221	715.25
2031.36	725.25
2035.495	723.25
2039.627	713.25
2043.754	704.25
2047.878	713.25
2051.998	698.25
2056.114	694.25
2060.226	697.25
2064.334	702.25
2068.439	708.25
2072.54	706.25
2076.637	711.25
2080.73	706.25
2084.82	719.25
2088.906	728.25
2092.988	708.25
2097.066	724.25
2101.14	707.25
2105.211	697.25
2109.278	719.25
2113.342	707.25
2117.401	694.25
2121.457	683.25
2125.509	687.25
2129.558	696.25
2133.602	691.25
2137.643	682.25
2141.681	680.25
2145.714	682.25
2149.744	695.25
2153.77	672.25
2157.793	665.25
2161.812	668.25
2165.827	672.25
2169.838	661.25
2173.846	647.25
2177.851	640.25
2181.851	633.25
2185.848	631.25
2189.841	614.25
2193.831	606.25
2197.817	612.25
2201.799	613.25
2205.778	606.25
2209.753	608.25
2213.725	604.25
2217.693	608.25
2221.657	606.25
2225.618	590.25
2229.575	597.25
2233.529	587.25
2237.479	593.25
2241.425	586.25
2245.368	585.25
2249.307	577.25
2253.243	551.25
2257.175	550.25
2261.104	542.25
2265.029	543.25
2268.95	539.25
2272.868	538.25
2276.783	522.25
2280.694	514.25
2284.601	510.25
2288.505	514.25
2292.405	511.25
2296.302	499.25
2300.195	496.25
2304.085	496.25
2307.971	475.25
2311.854	485.25
2315.734	466.25
2319.609	467.25
2323.482	459.25
2327.351	450.25
2331.216	448.25
2335.078	444.25
2338.937	436.25
2342.792	440.25
2346.643	427.25
2350.492	444.25
2354.336	441.25
2358.178	440.25
2362.015	438.25
2365.85	451.25
2369.681	435.25
2373.508	443.25
2377.333	437.25
2381.153	441.25
2384.971	446.25
2388.785	439.25
2392.595	434.25
2396.402	429.25
2400.206	434.25
2404.007	428.25
2407.804	426.25
2411.597	430.25
2415.388	428.25
2419.174	422.25
2422.958	422.25
2426.738	426.25
2430.515	422.25
2434.289	414.25
2438.059	416.25
2441.825	417.25
2445.589	422.25
2449.349	412.25
2453.106	402.25
2456.859	406.25
2460.61	404.25
2464.356	400.25
2468.1	391.25
2471.84	393.25
2475.577	383.25
2479.311	390.25
2483.041	394.25
2486.768	389.25
2490.492	389.25
2494.213	394.25
2497.93	387.25
2501.644	390.25
2505.355	380.25
2509.062	383.25
2512.766	386.25
2516.467	386.25
2520.165	379.25
2523.859	373.25
2527.551	375.25
2531.239	369.25
2534.923	370.25
2538.605	368.25
2542.283	362.25
2545.958	360.25
2549.63	366.25
2553.299	347.25
2556.964	354.25
2560.626	347.25
2564.285	355.25
2567.941	356.25
2571.594	346.25
2575.243	348.25
2578.89	346.25
2582.533	338.25
2586.173	333.25
2589.809	342.25
2593.443	334.25
2597.073	343.25
2600.701	335.25
2604.325	329.25
2607.946	332.25
2611.564	330.25
2615.178	332.25
2618.79	330.25
2622.398	332.25
2626.004	329.25
2629.606	322.25
2633.205	312.25
2636.801	318.25
2640.394	315.25
2643.983	315.25
2647.57	306.25
2651.153	300.25
2654.734	298.25
2658.311	298.25
2661.885	291.25
2665.456	299.25
2669.025	297.25
2672.589	289.25
2676.151	293.25
2679.71	283.25
2683.266	286.25
2686.819	285.25
2690.368	286.25
2693.915	276.25
2697.458	283.25
2700.999	268.25
2704.536	265.25
2708.071	264.25
2711.602	267.25
2715.13	271.25
2718.656	259.25
2722.178	267.25
2725.697	261.25
2729.214	258.25
2732.727	261.25
2736.237	269.25
2739.744	266.25
2743.249	262.25
2746.75	272.25
2750.248	264.25
2753.743	258.25
2757.236	266.25
2760.725	269.25
2764.211	255.25
2767.695	257.25
2771.175	258.25
2774.652	257.25
2778.127	249.25
2781.598	256.25
2785.067	253.25
2788.532	257.25
2791.995	251.25
2795.455	251.25
2798.911	252.25
2802.365	258.25
2805.816	257.25
2809.264	263.25
2812.709	261.25
2816.151	256.25
2819.59	252.25
2823.026	253.25
2826.46	252.25
2829.89	258.25
2833.318	254.25
2836.742	260.25
2840.164	255.25
2843.583	254.25
2846.999	260.25
2850.412	268.25
2853.822	266.25
2857.229	271.25
2860.634	273.25
2864.035	271.25
2867.434	279.25
2870.83	278.25
2874.223	287.25
2877.613	287.25
2881	295.25
2884.385	286.25
2887.766	289.25
2891.145	290.25
2894.521	285.25
2897.894	296.25
2901.264	295.25
2904.631	290.25
2907.996	301.25
2911.358	293.25
2914.717	295.25
2918.073	309.25
2921.426	301.25
2924.777	310.25
2928.124	317.25
2931.469	326.25
2934.811	320.25
2938.15	331.25
2941.487	328.25
2944.821	334.25
2948.152	335.25
2951.48	342.25
2954.805	345.25
2958.128	355.25
2961.447	358.25
2964.765	360.25
2968.079	360.25
2971.39	376.25
2974.699	377.25
2978.005	380.25
2981.308	391.25
2984.609	402.25
2987.907	418.25
2991.202	429.25
2994.494	431.25
2997.784	441.25
3001.07	448.25
3004.355	465.25
3007.636	471.25
3010.915	488.25
3014.191	486.25
3017.464	500.25
3020.734	510.25
3024.002	524.25
3027.267	524.25
3030.53	518.25
3033.789	537.25
3037.046	541.25
3040.301	560.25
3043.552	576.25
3046.801	582.25
3050.048	595.25
3053.291	617.25
3056.532	626.25
3059.771	644.25
3063.006	669.25
3066.239	675.25
3069.469	711.25
3072.697	728.25
3075.922	745.25
3079.144	762.25
3082.364	769.25
3085.581	792.25
3088.795	815.25
3092.007	821.25
3095.216	831.25
3098.423	856.25
3101.627	879.25
3104.828	896.25
3108.026	926.25
3111.222	929.25
3114.416	952.25
3117.607	976.25
3120.795	985.25
3123.98	1014.25
3127.163	1036.25
3130.344	1065.25
3133.521	1082.25
3136.696	1100.25
3139.869	1140.25
3143.039	1144.25
3146.206	1161.25
3149.371	1185.25
3152.533	1190.25
3155.693	1211.25
3158.85	1209.25
3162.005	1204.25
3165.157	1211.25
3168.306	1221.25
3171.453	1218.25
3174.597	1244.25
3177.739	1226.25
3180.878	1244.25
3184.014	1244.25
3187.149	1233.25
3190.28	1257.25
3193.409	1257.25
3196.536	1250.25
3199.659	1242.25
3202.781	1265.25
3205.9	1258.25
3209.016	1267.25
3212.13	1271.25
3215.241	1249.25
3218.35	1253.25
3221.456	1244.25
3224.56	1232.25
3227.661	1209.25
3230.76	1203.25
3233.856	1197.25
3236.95	1178.25
3240.041	1154.25
3243.13	1159.25
3246.216	1159.25
3249.3	1144.25
3252.382	1131.25
3255.46	1113.25
3258.537	1124.25
3261.611	1120.25
3264.682	1102.25
3267.751	1104.25
3270.818	1097.25
3273.882	1095.25
3276.943	1076.25
3280.002	1074.25
3283.059	1073.25
3286.113	1062.25
3289.165	1044.25
3292.214	1036.25
3295.261	1019.25
3298.306	992.25
3301.348	985.25
3304.387	956.25
3307.425	953.25
3310.459	945.25
3313.492	947.25
3316.521	932.25
3319.549	909.25
3322.574	895.25
3325.597	903.25
3328.617	885.25
3331.635	879.25
3334.65	874.25
3337.663	868.25
3340.674	867.25
3343.682	870.25
3346.688	863.25
3349.691	855.25
3352.692	854.25
3355.691	847.25
3358.687	851.25
3361.681	826.25
3364.673	828.25
3367.662	830.25
3370.649	804.25
3373.633	803.25
3376.615	785.25
3379.595	774.25
3382.572	748.25
3385.547	745.25
3388.52	741.25
3391.49	728.25
3394.458	726.25
3397.424	702.25
3400.387	714.25
3403.348	698.25
3406.307	684.25
3409.263	690.25
3412.217	675.25
3415.168	680.25
3418.118	670.25
3421.065	650.25
3424.009	656.25
3426.951	641.25
3429.891	634.25
3432.829	618.25
3435.764	603.25
3438.697	603.25
3441.628	596.25
3444.557	568.25
3447.483	554.25
3450.407	536.25
3453.328	529.25
3456.247	523.25
3459.164	505.25
3462.079	485.25
3464.991	482.25
3467.902	457.25
3470.809	433.25
3473.715	422.25
3476.618	406.25
3479.519	403.25
3482.418	401.25
3485.315	392.25
3488.209	376.25
3491.101	376.25
3493.99	359.25
3496.878	357.25
3499.763	335.25
3502.646	337.25
3505.527	311.25
3508.405	305.25
3511.281	301.25
3514.155	285.25
3517.027	273.25
3519.897	271.25
3522.764	246.25
3525.629	244.25
3528.492	229.25
3531.352	216.25
3534.211	206.25
3537.067	194.25
3539.921	186.25
3542.773	181.25
3545.622	178.25
3548.469	160.25
3551.315	151.25
3554.157	139.25
3556.998	139.25
3559.837	129.25
3562.673	125.25
3565.507	121.25
3568.339	112.25
3571.169	107.25
3573.996	98.25
3576.822	94.25
3579.645	85.25
3582.466	84.25
3585.285	82.25
3588.101	76.25
3590.916	71.25
3593.728	69.25
3596.538	61.25
3599.346	55.25
3602.152	48.25
3604.956	50.25
3607.757	42.25
3610.556	40.25
3613.354	32.25
3616.149	30.25
3618.942	29.25
3621.732	25.25
3624.521	22.25
3627.307	18.25
3630.092	15.25
3632.874	17.25
3635.654	10.25
3638.432	12.25
3641.208	10.25
3643.982	1.25
3646.753	-1.75
3649.523	-2.75
3652.29	-5.75
3655.055	-9.75
3657.818	-10.75
3660.579	-13.75
3663.338	-12.75
3666.095	-15.75
3668.849	-19.75
3671.602	-25.75
3674.352	-27.75
3677.101	-29.75
3679.847	-34.75
3682.591	-28.75
3685.333	-29.75
3688.073	-31.75
3690.811	-34.75
3693.547	-34.75
3696.281	-36.75
3699.013	-41.75
3701.742	-40.75
3704.47	-37.75
3707.195	-43.75
3709.919	-41.75
3712.64	-45.75
3715.359	-45.75
3718.076	-43.75
3720.792	-50.75
3723.505	-46.75
3726.216	-53.75
3728.925	-53.75
3731.632	-53.75
3734.336	-51.75
3737.039	-53.75
3739.74	-50.75
3742.439	-49.75
3745.136	-53.75
3747.83	-57.75
3750.523	-57.75
3753.213	-58.75
3755.902	-58.75
3758.589	-53.75
3761.273	-53.75
3763.956	-54.75
3766.636	-53.75
3769.315	-56.75
3771.991	-61.75
3774.665	-64.75
3777.338	-63.75
3780.008	-60.75
3782.677	-60.75
3785.343	-59.75
3788.007	-60.75
3790.67	-59.75
3793.33	-62.75
3795.989	-64.75
3798.645	-65.75
3801.299	-62.75
3803.952	-61.75
3806.602	-64.75
3809.251	-61.75
3811.897	-64.75
3814.542	-65.75
3817.184	-63.75
3819.825	-66.75
3822.463	-63.75
3825.1	-66.75
3827.735	-62.75
3830.367	-66.75
3832.998	-67.75
3835.627	-67.75
3838.253	-66.75
3840.878	-69.75
3843.501	-69.75
3846.122	-67.75
3848.741	-71.75
3851.358	-67.75
3853.973	-66.75
3856.586	-65.75
3859.197	-69.75
3861.806	-69.75
3864.414	-73.75
3867.019	-69.75
3869.622	-65.75
3872.224	-65.75
3874.823	-69.75
3877.421	-66.75
3880.016	-69.75
3882.61	-67.75
3885.202	-62.75
3887.792	-65.75
3890.38	-63.75
3892.966	-63.75
3895.55	-67.75
3898.132	-70.75
3900.713	-73.75
3903.291	-74.75
3905.868	-68.75
3908.442	-73.75
3911.015	-75.75
3913.586	-73.75
3916.155	-68.75
3918.722	-68.75
3921.287	-70.75
3923.85	-74.75
3926.411	-71.75
3928.971	-75.75
3931.528	-74.75
3934.084	-73.75
3936.638	-74.75
3939.19	-73.75
3941.74	-75.75
3944.288	-73.75
3946.834	-73.75
3949.378	-73.75
3951.921	-71.75
3954.462	-74.75
3957	-73.75
3959.537	-70.75
3962.072	-70.75
3964.606	-69.75
3967.137	-75.75
3969.667	-71.75
3972.194	-71.75
3974.72	-74.75
3977.244	-71.75
3979.766	-72.75
3982.286	-69.75
3984.805	-73.75
3987.321	-70.75
3989.836	-73.75
3992.349	-71.75
3994.86	-70.75
3997.369	-70.75
3999.877	-72.75
4002.382	-70.75
4004.886	-71.75
4007.388	-71.75
4009.888	-69.75
4012.386	-66.75
4014.883	-69.75
4017.377	-71.75
4019.87	-70.75
4022.361	-69.75
4024.85	-69.75
4027.338	-69.75
4029.823	-64.75
4032.307	-65.75
4034.789	-70.75
4037.269	-72.75
4039.747	-76.75
4042.224	-76.75
4044.699	-71.75
4047.172	-69.75
4049.643	-70.75
4052.112	-65.75
4054.58	-72.75
4057.046	-70.75
4059.51	-73.75
4061.972	-73.75
4064.432	-70.75
4066.891	-73.75
4069.348	-71.75
4071.803	-72.75
4074.256	-70.75
4076.708	-75.75
4079.158	-73.75
4081.606	-68.75
4084.052	-75.75
4086.497	-72.75
4088.939	-73.75
4091.38	-72.75
4093.819	-69.75
4096.257	-74.75
4098.693	-74.75
4101.127	-75.75
4103.559	-74.75
4105.989	-26.75
4108.418	-22.75
4110.845	-18.75
4113.27	-13.75
4115.694	-9.75
4118.115	-6.75
4120.535	-73.75
4122.954	-70.75
4125.37	-74.75
4127.785	-71.75
4130.198	-73.75
4132.609	-73.75
4135.019	-80.75
4137.427	-74.75
4139.833	-74.75
4142.237	-75.75
