Data from 1CFU1_A_ramanshift_RamanShift_14-45-27-779.txt Node
Date: Sun Dec 25 14:45:27 IST 2016
User: aro
Spectrometer: QEPB0276
Trigger mode: 0
Integration Time (sec): 5.000000E0
Scans to average: 1
Electric dark correction enabled: true
Nonlinearity correction enabled: false
Boxcar width: 0
XAxis mode: Raman Shifts
Number of Pixels in Spectrum: 1044
>>>>>Begin Spectral Data<<<<<
160.701	1.12
166.742	24.12
172.777	69.12
178.805	221.12
184.826	651.12
190.841	1567.12
196.849	2876.12
202.85	4133.12
208.845	4763.12
214.833	4773.12
220.815	4560.12
226.789	4413.12
232.758	4312.12
238.719	4171.12
244.674	4052.12
250.623	3863.12
256.565	3724.12
262.5	3529.12
268.429	3368.12
274.351	3233.12
280.267	3098.12
286.176	2963.12
292.079	2859.12
297.975	2754.12
303.865	2657.12
309.748	2605.12
315.625	2525.12
321.495	2462.12
327.359	2416.12
333.217	2373.12
339.068	2347.12
344.912	2328.12
350.751	2320.12
356.583	2293.12
362.408	2299.12
368.227	2306.12
374.04	2299.12
379.847	2320.12
385.647	2312.12
391.44	2331.12
397.228	2334.12
403.009	2366.12
408.784	2377.12
414.553	2374.12
420.315	2392.12
426.071	2395.12
431.821	2386.12
437.565	2387.12
443.302	2376.12
449.033	2382.12
454.758	2382.12
460.477	2353.12
466.189	2353.12
471.896	2348.12
477.596	2346.12
483.29	2341.12
488.978	2336.12
494.66	2325.12
500.335	2301.12
506.005	2264.12
511.668	2238.12
517.325	2211.12
522.977	2168.12
528.622	2144.12
534.261	2108.12
539.894	2102.12
545.521	2079.12
551.141	2087.12
556.756	2051.12
562.365	2040.12
567.968	2030.12
573.565	2041.12
579.155	2022.12
584.74	2005.12
590.319	1974.12
595.892	1980.12
601.459	1949.12
607.02	1928.12
612.575	1924.12
618.124	1917.12
623.667	1898.12
629.204	1879.12
634.735	1856.12
640.261	1850.12
645.781	1861.12
651.294	1843.12
656.802	1824.12
662.304	1825.12
667.8	1807.12
673.29	1800.12
678.775	1807.12
684.254	1784.12
689.726	1789.12
695.193	1802.12
700.655	1764.12
706.11	1754.12
711.56	1747.12
717.004	1737.12
722.442	1731.12
727.874	1715.12
733.301	1727.12
738.722	1698.12
744.137	1689.12
749.547	1675.12
754.951	1678.12
760.349	1675.12
765.741	1699.12
771.128	1694.12
776.509	1680.12
781.885	1670.12
787.254	1682.12
792.618	1670.12
797.977	1673.12
803.33	1654.12
808.677	1637.12
814.019	1630.12
819.355	1627.12
824.686	1598.12
830.011	1583.12
835.33	1585.12
840.644	1574.12
845.952	1577.12
851.255	1562.12
856.552	1555.12
861.844	1550.12
867.13	1553.12
872.41	1554.12
877.686	1531.12
882.955	1506.12
888.219	1495.12
893.478	1478.12
898.731	1453.12
903.979	1434.12
909.221	1413.12
914.458	1406.12
919.69	1388.12
924.916	1393.12
930.136	1386.12
935.351	1380.12
940.561	1400.12
945.766	1368.12
950.965	1378.12
956.158	1368.12
961.347	1356.12
966.529	1333.12
971.707	1324.12
976.879	1304.12
982.046	1303.12
987.208	1285.12
992.364	1281.12
997.515	1283.12
1002.66	1286.12
1007.801	1291.12
1012.936	1308.12
1018.066	1323.12
1023.19	1331.12
1028.309	1343.12
1033.423	1323.12
1038.532	1321.12
1043.636	1324.12
1048.734	1314.12
1053.827	1303.12
1058.915	1303.12
1063.998	1272.12
1069.075	1278.12
1074.147	1268.12
1079.214	1274.12
1084.276	1295.12
1089.333	1289.12
1094.385	1289.12
1099.431	1297.12
1104.472	1322.12
1109.509	1301.12
1114.54	1303.12
1119.565	1298.12
1124.586	1280.12
1129.602	1260.12
1134.613	1238.12
1139.618	1234.12
1144.619	1231.12
1149.614	1251.12
1154.604	1256.12
1159.589	1253.12
1164.57	1262.12
1169.545	1270.12
1174.515	1269.12
1179.48	1270.12
1184.44	1270.12
1189.395	1254.12
1194.345	1254.12
1199.29	1247.12
1204.23	1247.12
1209.165	1249.12
1214.095	1257.12
1219.021	1247.12
1223.941	1278.12
1228.856	1253.12
1233.766	1272.12
1238.672	1284.12
1243.572	1289.12
1248.467	1280.12
1253.358	1261.12
1258.244	1253.12
1263.124	1250.12
1268	1234.12
1272.871	1216.12
1277.737	1190.12
1282.599	1201.12
1287.455	1195.12
1292.306	1203.12
1297.153	1198.12
1301.995	1217.12
1306.832	1220.12
1311.664	1240.12
1316.491	1234.12
1321.314	1229.12
1326.132	1214.12
1330.945	1222.12
1335.753	1201.12
1340.556	1193.12
1345.354	1168.12
1350.148	1197.12
1354.937	1159.12
1359.722	1154.12
1364.501	1143.12
1369.276	1117.12
1374.046	1121.12
1378.811	1100.12
1383.572	1113.12
1388.327	1106.12
1393.079	1114.12
1397.825	1098.12
1402.567	1091.12
1407.304	1071.12
1412.036	1091.12
1416.764	1067.12
1421.487	1076.12
1426.205	1073.12
1430.919	1086.12
1435.628	1096.12
1440.333	1106.12
1445.032	1107.12
1449.727	1118.12
1454.418	1124.12
1459.104	1139.12
1463.785	1142.12
1468.462	1117.12
1473.134	1111.12
1477.802	1108.12
1482.465	1110.12
1487.123	1093.12
1491.777	1095.12
1496.426	1093.12
1501.071	1095.12
1505.711	1098.12
1510.347	1117.12
1514.978	1127.12
1519.604	1115.12
1524.226	1138.12
1528.844	1161.12
1533.457	1140.12
1538.065	1142.12
1542.669	1135.12
1547.269	1120.12
1551.864	1141.12
1556.454	1131.12
1561.041	1153.12
1565.622	1154.12
1570.199	1160.12
1574.772	1187.12
1579.34	1199.12
1583.904	1212.12
1588.464	1250.12
1593.019	1259.12
1597.569	1288.12
1602.115	1295.12
1606.657	1289.12
1611.195	1308.12
1615.728	1315.12
1620.256	1328.12
1624.78	1360.12
1629.3	1384.12
1633.816	1380.12
1638.327	1404.12
1642.834	1425.12
1647.336	1426.12
1651.834	1443.12
1656.328	1450.12
1660.817	1446.12
1665.302	1430.12
1669.783	1400.12
1674.259	1370.12
1678.732	1342.12
1683.199	1303.12
1687.663	1253.12
1692.122	1233.12
1696.577	1183.12
1701.028	1144.12
1705.474	1082.12
1709.917	1052.12
1714.355	1004.12
1718.788	992.12
1723.218	992.12
1727.643	963.12
1732.064	957.12
1736.481	928.12
1740.893	897.12
1745.301	882.12
1749.705	880.12
1754.105	858.12
1758.501	839.12
1762.893	824.12
1767.28	812.12
1771.663	808.12
1776.042	793.12
1780.417	779.12
1784.787	790.12
1789.154	799.12
1793.516	796.12
1797.874	787.12
1802.228	790.12
1806.578	765.12
1810.924	761.12
1815.266	746.12
1819.603	737.12
1823.937	727.12
1828.266	726.12
1832.591	722.12
1836.913	708.12
1841.23	715.12
1845.543	714.12
1849.852	701.12
1854.156	723.12
1858.457	718.12
1862.754	722.12
1867.047	719.12
1871.335	722.12
1875.62	724.12
1879.9	730.12
1884.177	733.12
1888.449	738.12
1892.718	726.12
1896.982	709.12
1901.243	713.12
1905.499	718.12
1909.752	733.12
1914	723.12
1918.245	717.12
1922.485	720.12
1926.722	713.12
1930.954	721.12
1935.183	712.12
1939.408	726.12
1943.628	723.12
1947.845	708.12
1952.058	730.12
1956.267	725.12
1960.472	710.12
1964.673	704.12
1968.87	709.12
1973.063	694.12
1977.252	683.12
1981.438	677.12
1985.619	686.12
1989.797	686.12
1993.971	682.12
1998.14	688.12
2002.306	690.12
2006.469	694.12
2010.627	695.12
2014.781	705.12
2018.932	695.12
2023.078	699.12
2027.221	691.12
2031.36	689.12
2035.495	699.12
2039.627	678.12
2043.754	674.12
2047.878	670.12
2051.998	671.12
2056.114	670.12
2060.226	684.12
2064.334	675.12
2068.439	689.12
2072.54	689.12
2076.637	695.12
2080.73	686.12
2084.82	689.12
2088.906	695.12
2092.988	699.12
2097.066	702.12
2101.14	693.12
2105.211	681.12
2109.278	678.12
2113.342	687.12
2117.401	680.12
2121.457	673.12
2125.509	657.12
2129.558	668.12
2133.602	663.12
2137.643	663.12
2141.681	657.12
2145.714	656.12
2149.744	655.12
2153.77	650.12
2157.793	656.12
2161.812	642.12
2165.827	641.12
2169.838	628.12
2173.846	624.12
2177.851	607.12
2181.851	618.12
2185.848	591.12
2189.841	603.12
2193.831	590.12
2197.817	586.12
2201.799	576.12
2205.778	580.12
2209.753	580.12
2213.725	579.12
2217.693	572.12
2221.657	579.12
2225.618	587.12
2229.575	565.12
2233.529	568.12
2237.479	572.12
2241.425	575.12
2245.368	568.12
2249.307	543.12
2253.243	537.12
2257.175	536.12
2261.104	526.12
2265.029	518.12
2268.95	515.12
2272.868	515.12
2276.783	512.12
2280.694	505.12
2284.601	495.12
2288.505	486.12
2292.405	487.12
2296.302	472.12
2300.195	476.12
2304.085	474.12
2307.971	461.12
2311.854	458.12
2315.734	445.12
2319.609	441.12
2323.482	442.12
2327.351	413.12
2331.216	430.12
2335.078	433.12
2338.937	429.12
2342.792	422.12
2346.643	416.12
2350.492	421.12
2354.336	412.12
2358.178	415.12
2362.015	420.12
2365.85	417.12
2369.681	418.12
2373.508	419.12
2377.333	413.12
2381.153	427.12
2384.971	416.12
2388.785	422.12
2392.595	411.12
2396.402	407.12
2400.206	407.12
2404.007	409.12
2407.804	405.12
2411.597	404.12
2415.388	402.12
2419.174	402.12
2422.958	405.12
2426.738	395.12
2430.515	397.12
2434.289	408.12
2438.059	401.12
2441.825	387.12
2445.589	399.12
2449.349	387.12
2453.106	379.12
2456.859	389.12
2460.61	389.12
2464.356	379.12
2468.1	368.12
2471.84	367.12
2475.577	372.12
2479.311	369.12
2483.041	369.12
2486.768	374.12
2490.492	378.12
2494.213	362.12
2497.93	368.12
2501.644	364.12
2505.355	361.12
2509.062	369.12
2512.766	363.12
2516.467	356.12
2520.165	353.12
2523.859	354.12
2527.551	354.12
2531.239	353.12
2534.923	353.12
2538.605	350.12
2542.283	344.12
2545.958	345.12
2549.63	334.12
2553.299	338.12
2556.964	344.12
2560.626	346.12
2564.285	338.12
2567.941	328.12
2571.594	328.12
2575.243	329.12
2578.89	311.12
2582.533	318.12
2586.173	319.12
2589.809	320.12
2593.443	322.12
2597.073	315.12
2600.701	310.12
2604.325	317.12
2607.946	312.12
2611.564	309.12
2615.178	307.12
2618.79	307.12
2622.398	312.12
2626.004	304.12
2629.606	292.12
2633.205	297.12
2636.801	294.12
2640.394	295.12
2643.983	284.12
2647.57	287.12
2651.153	287.12
2654.734	287.12
2658.311	284.12
2661.885	270.12
2665.456	280.12
2669.025	283.12
2672.589	275.12
2676.151	273.12
2679.71	272.12
2683.266	274.12
2686.819	269.12
2690.368	268.12
2693.915	269.12
2697.458	259.12
2700.999	253.12
2704.536	247.12
2708.071	257.12
2711.602	257.12
2715.13	250.12
2718.656	254.12
2722.178	249.12
2725.697	248.12
2729.214	245.12
2732.727	243.12
2736.237	251.12
2739.744	260.12
2743.249	249.12
2746.75	251.12
2750.248	252.12
2753.743	252.12
2757.236	249.12
2760.725	242.12
2764.211	252.12
2767.695	243.12
2771.175	231.12
2774.652	238.12
2778.127	227.12
2781.598	235.12
2785.067	238.12
2788.532	238.12
2791.995	240.12
2795.455	235.12
2798.911	241.12
2802.365	242.12
2805.816	243.12
2809.264	249.12
2812.709	242.12
2816.151	251.12
2819.59	243.12
2823.026	242.12
2826.46	241.12
2829.89	248.12
2833.318	250.12
2836.742	251.12
2840.164	245.12
2843.583	253.12
2846.999	251.12
2850.412	248.12
2853.822	258.12
2857.229	254.12
2860.634	264.12
2864.035	265.12
2867.434	264.12
2870.83	269.12
2874.223	275.12
2877.613	274.12
2881	277.12
2884.385	276.12
2887.766	272.12
2891.145	280.12
2894.521	283.12
2897.894	281.12
2901.264	285.12
2904.631	288.12
2907.996	289.12
2911.358	297.12
2914.717	288.12
2918.073	293.12
2921.426	295.12
2924.777	307.12
2928.124	308.12
2931.469	309.12
2934.811	311.12
2938.15	316.12
2941.487	315.12
2944.821	325.12
2948.152	330.12
2951.48	338.12
2954.805	336.12
2958.128	344.12
2961.447	354.12
2964.765	354.12
2968.079	357.12
2971.39	368.12
2974.699	367.12
2978.005	384.12
2981.308	375.12
2984.609	400.12
2987.907	409.12
2991.202	418.12
2994.494	420.12
2997.784	439.12
3001.07	447.12
3004.355	455.12
3007.636	464.12
3010.915	477.12
3014.191	488.12
3017.464	504.12
3020.734	499.12
3024.002	511.12
3027.267	525.12
3030.53	528.12
3033.789	537.12
3037.046	537.12
3040.301	557.12
3043.552	570.12
3046.801	581.12
3050.048	608.12
3053.291	609.12
3056.532	630.12
3059.771	640.12
3063.006	668.12
3066.239	686.12
3069.469	704.12
3072.697	726.12
3075.922	748.12
3079.144	752.12
3082.364	770.12
3085.581	800.12
3088.795	807.12
3092.007	816.12
3095.216	838.12
3098.423	861.12
3101.627	886.12
3104.828	891.12
3108.026	926.12
3111.222	956.12
3114.416	955.12
3117.607	977.12
3120.795	1001.12
3123.98	1031.12
3127.163	1049.12
3130.344	1067.12
3133.521	1089.12
3136.696	1111.12
3139.869	1132.12
3143.039	1161.12
3146.206	1160.12
3149.371	1181.12
3152.533	1198.12
3155.693	1225.12
3158.85	1212.12
3162.005	1216.12
3165.157	1229.12
3168.306	1236.12
3171.453	1231.12
3174.597	1255.12
3177.739	1255.12
3180.878	1245.12
3184.014	1259.12
3187.149	1264.12
3190.28	1255.12
3193.409	1265.12
3196.536	1278.12
3199.659	1266.12
3202.781	1274.12
3205.9	1281.12
3209.016	1284.12
3212.13	1275.12
3215.241	1276.12
3218.35	1260.12
3221.456	1248.12
3224.56	1240.12
3227.661	1237.12
3230.76	1217.12
3233.856	1204.12
3236.95	1189.12
3240.041	1187.12
3243.13	1180.12
3246.216	1179.12
3249.3	1154.12
3252.382	1156.12
3255.46	1146.12
3258.537	1138.12
3261.611	1108.12
3264.682	1110.12
3267.751	1118.12
3270.818	1110.12
3273.882	1114.12
3276.943	1112.12
3280.002	1098.12
3283.059	1095.12
3286.113	1083.12
3289.165	1058.12
3292.214	1045.12
3295.261	1044.12
3298.306	1019.12
3301.348	1005.12
3304.387	982.12
3307.425	973.12
3310.459	965.12
3313.492	947.12
3316.521	945.12
3319.549	925.12
3322.574	921.12
3325.597	907.12
3328.617	896.12
3331.635	898.12
3334.65	900.12
3337.663	886.12
3340.674	886.12
3343.682	890.12
3346.688	870.12
3349.691	867.12
3352.692	874.12
3355.691	875.12
3358.687	860.12
3361.681	850.12
3364.673	838.12
3367.662	823.12
3370.649	822.12
3373.633	825.12
3376.615	795.12
3379.595	785.12
3382.572	778.12
3385.547	759.12
3388.52	761.12
3391.49	751.12
3394.458	747.12
3397.424	731.12
3400.387	733.12
3403.348	716.12
3406.307	705.12
3409.263	704.12
3412.217	683.12
3415.168	679.12
3418.118	674.12
3421.065	676.12
3424.009	664.12
3426.951	660.12
3429.891	646.12
3432.829	631.12
3435.764	616.12
3438.697	617.12
3441.628	601.12
3444.557	586.12
3447.483	559.12
3450.407	554.12
3453.328	541.12
3456.247	524.12
3459.164	512.12
3462.079	499.12
3464.991	485.12
3467.902	467.12
3470.809	449.12
3473.715	444.12
3476.618	421.12
3479.519	421.12
3482.418	408.12
3485.315	414.12
3488.209	391.12
3491.101	380.12
3493.99	367.12
3496.878	353.12
3499.763	348.12
3502.646	340.12
3505.527	332.12
3508.405	312.12
3511.281	294.12
3514.155	287.12
3517.027	276.12
3519.897	272.12
3522.764	258.12
3525.629	248.12
3528.492	231.12
3531.352	222.12
3534.211	216.12
3537.067	199.12
3539.921	193.12
3542.773	181.12
3545.622	179.12
3548.469	156.12
3551.315	154.12
3554.157	147.12
3556.998	142.12
3559.837	129.12
3562.673	124.12
3565.507	117.12
3568.339	114.12
3571.169	115.12
3573.996	103.12
3576.822	101.12
3579.645	95.12
3582.466	89.12
3585.285	83.12
3588.101	69.12
3590.916	72.12
3593.728	69.12
3596.538	60.12
3599.346	57.12
3602.152	46.12
3604.956	46.12
3607.757	42.12
3610.556	38.12
3613.354	36.12
3616.149	30.12
3618.942	23.12
3621.732	24.12
3624.521	20.12
3627.307	20.12
3630.092	10.12
3632.874	15.12
3635.654	5.12
3638.432	11.12
3641.208	3.12
3643.982	2.12
3646.753	3.12
3649.523	0.12
3652.29	-2.88
3655.055	-13.88
3657.818	-16.88
3660.579	-16.88
3663.338	-18.88
3666.095	-13.88
3668.849	-16.88
3671.602	-26.88
3674.352	-29.88
3677.101	-28.88
3679.847	-28.88
3682.591	-33.88
3685.333	-36.88
3688.073	-32.88
3690.811	-34.88
3693.547	-33.88
3696.281	-38.88
3699.013	-39.88
3701.742	-41.88
3704.47	-38.88
3707.195	-43.88
3709.919	-45.88
3712.64	-44.88
3715.359	-43.88
3718.076	-45.88
3720.792	-49.88
3723.505	-51.88
3726.216	-53.88
3728.925	-55.88
3731.632	-56.88
3734.336	-54.88
3737.039	-54.88
3739.74	-55.88
3742.439	-51.88
3745.136	-53.88
3747.83	-57.88
3750.523	-58.88
3753.213	-63.88
3755.902	-60.88
3758.589	-59.88
3761.273	-60.88
3763.956	-59.88
3766.636	-55.88
3769.315	-56.88
3771.991	-61.88
3774.665	-61.88
3777.338	-61.88
3780.008	-66.88
3782.677	-62.88
3785.343	-62.88
3788.007	-68.88
3790.67	-63.88
3793.33	-63.88
3795.989	-63.88
3798.645	-64.88
3801.299	-64.88
3803.952	-65.88
3806.602	-64.88
3809.251	-64.88
3811.897	-70.88
3814.542	-66.88
3817.184	-64.88
3819.825	-66.88
3822.463	-65.88
3825.1	-70.88
3827.735	-66.88
3830.367	-71.88
3832.998	-67.88
3835.627	-70.88
3838.253	-67.88
3840.878	-73.88
3843.501	-69.88
3846.122	-67.88
3848.741	-77.88
3851.358	-72.88
3853.973	-69.88
3856.586	-69.88
3859.197	-72.88
3861.806	-70.88
3864.414	-71.88
3867.019	-71.88
3869.622	-67.88
3872.224	-71.88
3874.823	-73.88
3877.421	-69.88
3880.016	-70.88
3882.61	-67.88
3885.202	-64.88
3887.792	-65.88
3890.38	-66.88
3892.966	-70.88
3895.55	-69.88
3898.132	-73.88
3900.713	-75.88
3903.291	-81.88
3905.868	-71.88
3908.442	-72.88
3911.015	-75.88
3913.586	-72.88
3916.155	-70.88
3918.722	-71.88
3921.287	-72.88
3923.85	-75.88
3926.411	-74.88
3928.971	-73.88
3931.528	-74.88
3934.084	-73.88
3936.638	-74.88
3939.19	-74.88
3941.74	-75.88
3944.288	-77.88
3946.834	-75.88
3949.378	-78.88
3951.921	-76.88
3954.462	-74.88
3957	-75.88
3959.537	-75.88
3962.072	-72.88
3964.606	-74.88
3967.137	-75.88
3969.667	-75.88
3972.194	-75.88
3974.72	-76.88
3977.244	-72.88
3979.766	-75.88
3982.286	-70.88
3984.805	-77.88
3987.321	-72.88
3989.836	-74.88
3992.349	-75.88
3994.86	-71.88
3997.369	-68.88
3999.877	-68.88
4002.382	-72.88
4004.886	-74.88
4007.388	-73.88
4009.888	-70.88
4012.386	-72.88
4014.883	-73.88
4017.377	-76.88
4019.87	-73.88
4022.361	-73.88
4024.85	-70.88
4027.338	-72.88
4029.823	-69.88
4032.307	-70.88
4034.789	-72.88
4037.269	-77.88
4039.747	-77.88
4042.224	-76.88
4044.699	-72.88
4047.172	-71.88
4049.643	-69.88
4052.112	-71.88
4054.58	-73.88
4057.046	-78.88
4059.51	-77.88
4061.972	-73.88
4064.432	-70.88
4066.891	-73.88
4069.348	-73.88
4071.803	-74.88
4074.256	-77.88
4076.708	-79.88
4079.158	-73.88
4081.606	-71.88
4084.052	-73.88
4086.497	-71.88
4088.939	-73.88
4091.38	-74.88
4093.819	-74.88
4096.257	-78.88
4098.693	-78.88
4101.127	-78.88
4103.559	-76.88
4105.989	-27.88
4108.418	-22.88
4110.845	-18.88
4113.27	-19.88
4115.694	-16.88
4118.115	-8.88
4120.535	-74.88
4122.954	-74.88
4125.37	-75.88
4127.785	-76.88
4130.198	-73.88
4132.609	-73.88
4135.019	-79.88
4137.427	-76.88
4139.833	-77.88
4142.237	-80.88
