Data from 2018-3-7_conc=0_n=4_RamanShift_03.txt Node
Date: Wed Mar 07 10:15:53 IST 2018
User: aro
Spectrometer: QEPB0276
Trigger mode: 0
Integration Time (sec): 3.000000E1
Scans to average: 1
Electric dark correction enabled: true
Nonlinearity correction enabled: false
Boxcar width: 0
XAxis mode: Raman Shifts
Number of Pixels in Spectrum: 1044
>>>>>Begin Spectral Data<<<<<
160.701	15.9
166.742	21.9
172.777	51.9
178.805	166.9
184.826	428.9
190.841	902.9
196.849	1475.9
202.85	1966.9
208.845	2151.9
214.833	2164.9
220.815	2159.9
226.789	2159.9
232.758	2176.9
238.719	2174.9
244.674	2184.9
250.623	2170.9
256.565	2180.9
262.5	2144.9
268.429	2145.9
274.351	2118.9
280.267	2116.9
286.176	2112.9
292.079	2124.9
297.975	2119.9
303.865	2130.9
309.748	2145.9
315.625	2140.9
321.495	2137.9
327.359	2137.9
333.217	2135.9
339.068	2166.9
344.912	2178.9
350.751	2166.9
356.583	2175.9
362.408	2192.9
368.227	2207.9
374.04	2219.9
379.847	2238.9
385.647	2232.9
391.44	2241.9
397.228	2275.9
403.009	2275.9
408.784	2286.9
414.553	2319.9
420.315	2322.9
426.071	2314.9
431.821	2303.9
437.565	2337.9
443.302	2350.9
449.033	2325.9
454.758	2336.9
460.477	2283.9
466.189	2259.9
471.896	2212.9
477.596	2214.9
483.29	2208.9
488.978	2204.9
494.66	2196.9
500.335	2132.9
506.005	2052.9
511.668	1944.9
517.325	1844.9
522.977	1784.9
528.622	1717.9
534.261	1661.9
539.894	1635.9
545.521	1612.9
551.141	1584.9
556.756	1567.9
562.365	1559.9
567.968	1540.9
573.565	1539.9
579.155	1503.9
584.74	1528.9
590.319	1500.9
595.892	1507.9
601.459	1505.9
607.02	1501.9
612.575	1479.9
618.124	1462.9
623.667	1443.9
629.204	1430.9
634.735	1428.9
640.261	1407.9
645.781	1376.9
651.294	1378.9
656.802	1364.9
662.304	1375.9
667.8	1372.9
673.29	1364.9
678.775	1355.9
684.254	1356.9
689.726	1329.9
695.193	1342.9
700.655	1330.9
706.11	1319.9
711.56	1311.9
717.004	1305.9
722.442	1288.9
727.874	1289.9
733.301	1291.9
738.722	1280.9
744.137	1266.9
749.547	1292.9
754.951	1287.9
760.349	1294.9
765.741	1282.9
771.128	1299.9
776.509	1318.9
781.885	1331.9
787.254	1355.9
792.618	1363.9
797.977	1354.9
803.33	1335.9
808.677	1336.9
814.019	1322.9
819.355	1307.9
824.686	1290.9
830.011	1295.9
835.33	1281.9
840.644	1260.9
845.952	1272.9
851.255	1265.9
856.552	1268.9
861.844	1247.9
867.13	1263.9
872.41	1293.9
877.686	1366.9
882.955	1404.9
888.219	1395.9
893.478	1307.9
898.731	1236.9
903.979	1163.9
909.221	1142.9
914.458	1144.9
919.69	1117.9
924.916	1126.9
930.136	1139.9
935.351	1127.9
940.561	1123.9
945.766	1118.9
950.965	1115.9
956.158	1097.9
961.347	1093.9
966.529	1075.9
971.707	1068.9
976.879	1060.9
982.046	1036.9
987.208	1030.9
992.364	1027.9
997.515	1030.9
1002.66	1038.9
1007.801	1064.9
1012.936	1092.9
1018.066	1096.9
1023.19	1101.9
1028.309	1093.9
1033.423	1104.9
1038.532	1105.9
1043.636	1108.9
1048.734	1138.9
1053.827	1111.9
1058.915	1081.9
1063.998	1069.9
1069.075	1059.9
1074.147	1059.9
1079.214	1065.9
1084.276	1092.9
1089.333	1115.9
1094.385	1109.9
1099.431	1084.9
1104.472	1066.9
1109.509	1047.9
1114.54	1022.9
1119.565	999.9
1124.586	980.9
1129.602	972.9
1134.613	938.9
1139.618	948.9
1144.619	940.9
1149.614	952.9
1154.604	949.9
1159.589	954.9
1164.57	956.9
1169.545	941.9
1174.515	953.9
1179.48	949.9
1184.44	949.9
1189.395	937.9
1194.345	923.9
1199.29	921.9
1204.23	922.9
1209.165	921.9
1214.095	936.9
1219.021	933.9
1223.941	926.9
1228.856	942.9
1233.766	924.9
1238.672	933.9
1243.572	940.9
1248.467	939.9
1253.358	922.9
1258.244	917.9
1263.124	887.9
1268	889.9
1272.871	878.9
1277.737	874.9
1282.599	882.9
1287.455	882.9
1292.306	870.9
1297.153	880.9
1301.995	865.9
1306.832	874.9
1311.664	868.9
1316.491	860.9
1321.314	873.9
1326.132	872.9
1330.945	850.9
1335.753	840.9
1340.556	798.9
1345.354	781.9
1350.148	774.9
1354.937	760.9
1359.722	738.9
1364.501	724.9
1369.276	713.9
1374.046	704.9
1378.811	691.9
1383.572	711.9
1388.327	702.9
1393.079	709.9
1397.825	712.9
1402.567	715.9
1407.304	722.9
1412.036	729.9
1416.764	724.9
1421.487	727.9
1426.205	750.9
1430.919	749.9
1435.628	744.9
1440.333	751.9
1445.032	757.9
1449.727	797.9
1454.418	819.9
1459.104	829.9
1463.785	810.9
1468.462	771.9
1473.134	732.9
1477.802	683.9
1482.465	666.9
1487.123	651.9
1491.777	645.9
1496.426	622.9
1501.071	604.9
1505.711	595.9
1510.347	582.9
1514.978	585.9
1519.604	573.9
1524.226	572.9
1528.844	579.9
1533.457	566.9
1538.065	569.9
1542.669	573.9
1547.269	578.9
1551.864	580.9
1556.454	598.9
1561.041	604.9
1565.622	613.9
1570.199	604.9
1574.772	597.9
1579.34	620.9
1583.904	606.9
1588.464	628.9
1593.019	630.9
1597.569	628.9
1602.115	632.9
1606.657	617.9
1611.195	617.9
1615.728	606.9
1620.256	616.9
1624.78	618.9
1629.3	606.9
1633.816	616.9
1638.327	612.9
1642.834	603.9
1647.336	604.9
1651.834	608.9
1656.328	611.9
1660.817	604.9
1665.302	596.9
1669.783	574.9
1674.259	566.9
1678.732	543.9
1683.199	519.9
1687.663	501.9
1692.122	485.9
1696.577	457.9
1701.028	441.9
1705.474	413.9
1709.917	405.9
1714.355	402.9
1718.788	397.9
1723.218	397.9
1727.643	397.9
1732.064	407.9
1736.481	408.9
1740.893	386.9
1745.301	389.9
1749.705	393.9
1754.105	367.9
1758.501	354.9
1762.893	354.9
1767.28	344.9
1771.663	345.9
1776.042	328.9
1780.417	328.9
1784.787	326.9
1789.154	314.9
1793.516	298.9
1797.874	295.9
1802.228	308.9
1806.578	289.9
1810.924	301.9
1815.266	294.9
1819.603	298.9
1823.937	305.9
1828.266	302.9
1832.591	301.9
1836.913	306.9
1841.23	309.9
1845.543	301.9
1849.852	308.9
1854.156	321.9
1858.457	314.9
1862.754	316.9
1867.047	305.9
1871.335	301.9
1875.62	297.9
1879.9	300.9
1884.177	290.9
1888.449	293.9
1892.718	290.9
1896.982	271.9
1901.243	270.9
1905.499	261.9
1909.752	251.9
1914	250.9
1918.245	253.9
1922.485	247.9
1926.722	239.9
1930.954	230.9
1935.183	230.9
1939.408	233.9
1943.628	226.9
1947.845	230.9
1952.058	237.9
1956.267	231.9
1960.472	228.9
1964.673	219.9
1968.87	224.9
1973.063	223.9
1977.252	222.9
1981.438	229.9
1985.619	222.9
1989.797	224.9
1993.971	233.9
1998.14	235.9
2002.306	228.9
2006.469	235.9
2010.627	234.9
2014.781	236.9
2018.932	230.9
2023.078	234.9
2027.221	230.9
2031.36	224.9
2035.495	212.9
2039.627	218.9
2043.754	215.9
2047.878	214.9
2051.998	219.9
2056.114	209.9
2060.226	195.9
2064.334	204.9
2068.439	191.9
2072.54	194.9
2076.637	199.9
2080.73	192.9
2084.82	192.9
2088.906	194.9
2092.988	190.9
2097.066	188.9
2101.14	187.9
2105.211	179.9
2109.278	182.9
2113.342	180.9
2117.401	180.9
2121.457	174.9
2125.509	170.9
2129.558	178.9
2133.602	176.9
2137.643	181.9
2141.681	175.9
2145.714	179.9
2149.744	172.9
2153.77	181.9
2157.793	184.9
2161.812	188.9
2165.827	180.9
2169.838	180.9
2173.846	178.9
2177.851	164.9
2181.851	166.9
2185.848	166.9
2189.841	172.9
2193.831	172.9
2197.817	161.9
2201.799	176.9
2205.778	167.9
2209.753	161.9
2213.725	156.9
2217.693	166.9
2221.657	162.9
2225.618	159.9
2229.575	158.9
2233.529	154.9
2237.479	161.9
2241.425	154.9
2245.368	151.9
2249.307	156.9
2253.243	145.9
2257.175	152.9
2261.104	139.9
2265.029	142.9
2268.95	149.9
2272.868	133.9
2276.783	137.9
2280.694	135.9
2284.601	132.9
2288.505	142.9
2292.405	140.9
2296.302	143.9
2300.195	138.9
2304.085	135.9
2307.971	137.9
2311.854	131.9
2315.734	122.9
2319.609	141.9
2323.482	131.9
2327.351	137.9
2331.216	143.9
2335.078	162.9
2338.937	150.9
2342.792	129.9
2346.643	136.9
2350.492	134.9
2354.336	133.9
2358.178	130.9
2362.015	136.9
2365.85	130.9
2369.681	137.9
2373.508	139.9
2377.333	142.9
2381.153	130.9
2384.971	125.9
2388.785	130.9
2392.595	126.9
2396.402	130.9
2400.206	126.9
2404.007	134.9
2407.804	134.9
2411.597	121.9
2415.388	128.9
2419.174	128.9
2422.958	120.9
2426.738	131.9
2430.515	120.9
2434.289	129.9
2438.059	126.9
2441.825	112.9
2445.589	118.9
2449.349	117.9
2453.106	119.9
2456.859	111.9
2460.61	106.9
2464.356	109.9
2468.1	106.9
2471.84	102.9
2475.577	102.9
2479.311	101.9
2483.041	99.9
2486.768	102.9
2490.492	104.9
2494.213	98.9
2497.93	106.9
2501.644	92.9
2505.355	88.9
2509.062	93.9
2512.766	98.9
2516.467	93.9
2520.165	90.9
2523.859	86.9
2527.551	81.9
2531.239	86.9
2534.923	77.9
2538.605	79.9
2542.283	76.9
2545.958	79.9
2549.63	79.9
2553.299	83.9
2556.964	73.9
2560.626	79.9
2564.285	72.9
2567.941	74.9
2571.594	70.9
2575.243	75.9
2578.89	67.9
2582.533	71.9
2586.173	67.9
2589.809	69.9
2593.443	75.9
2597.073	71.9
2600.701	69.9
2604.325	54.9
2607.946	58.9
2611.564	67.9
2615.178	66.9
2618.79	60.9
2622.398	66.9
2626.004	63.9
2629.606	58.9
2633.205	59.9
2636.801	59.9
2640.394	63.9
2643.983	61.9
2647.57	59.9
2651.153	55.9
2654.734	53.9
2658.311	59.9
2661.885	59.9
2665.456	56.9
2669.025	58.9
2672.589	55.9
2676.151	58.9
2679.71	51.9
2683.266	55.9
2686.819	56.9
2690.368	54.9
2693.915	58.9
2697.458	45.9
2700.999	52.9
2704.536	50.9
2708.071	49.9
2711.602	53.9
2715.13	42.9
2718.656	46.9
2722.178	44.9
2725.697	39.9
2729.214	45.9
2732.727	48.9
2736.237	49.9
2739.744	41.9
2743.249	35.9
2746.75	37.9
2750.248	34.9
2753.743	36.9
2757.236	29.9
2760.725	33.9
2764.211	32.9
2767.695	28.9
2771.175	26.9
2774.652	25.9
2778.127	26.9
2781.598	29.9
2785.067	31.9
2788.532	30.9
2791.995	32.9
2795.455	28.9
2798.911	21.9
2802.365	38.9
2805.816	30.9
2809.264	30.9
2812.709	31.9
2816.151	37.9
2819.59	43.9
2823.026	32.9
2826.46	36.9
2829.89	40.9
2833.318	40.9
2836.742	39.9
2840.164	43.9
2843.583	39.9
2846.999	45.9
2850.412	48.9
2853.822	49.9
2857.229	53.9
2860.634	52.9
2864.035	48.9
2867.434	54.9
2870.83	68.9
2874.223	65.9
2877.613	82.9
2881	77.9
2884.385	94.9
2887.766	99.9
2891.145	88.9
2894.521	86.9
2897.894	90.9
2901.264	93.9
2904.631	84.9
2907.996	90.9
2911.358	97.9
2914.717	88.9
2918.073	86.9
2921.426	94.9
2924.777	99.9
2928.124	108.9
2931.469	119.9
2934.811	134.9
2938.15	141.9
2941.487	138.9
2944.821	130.9
2948.152	130.9
2951.48	121.9
2954.805	117.9
2958.128	102.9
2961.447	93.9
2964.765	85.9
2968.079	88.9
2971.39	84.9
2974.699	86.9
2978.005	98.9
2981.308	77.9
2984.609	83.9
2987.907	83.9
2991.202	81.9
2994.494	75.9
2997.784	72.9
3001.07	71.9
3004.355	73.9
3007.636	76.9
3010.915	64.9
3014.191	64.9
3017.464	66.9
3020.734	67.9
3024.002	70.9
3027.267	69.9
3030.53	62.9
3033.789	65.9
3037.046	64.9
3040.301	62.9
3043.552	74.9
3046.801	67.9
3050.048	66.9
3053.291	71.9
3056.532	69.9
3059.771	80.9
3063.006	86.9
3066.239	85.9
3069.469	98.9
3072.697	92.9
3075.922	97.9
3079.144	99.9
3082.364	93.9
3085.581	102.9
3088.795	101.9
3092.007	108.9
3095.216	109.9
3098.423	102.9
3101.627	108.9
3104.828	120.9
3108.026	122.9
3111.222	116.9
3114.416	124.9
3117.607	119.9
3120.795	120.9
3123.98	128.9
3127.163	140.9
3130.344	141.9
3133.521	143.9
3136.696	137.9
3139.869	154.9
3143.039	150.9
3146.206	146.9
3149.371	145.9
3152.533	160.9
3155.693	155.9
3158.85	166.9
3162.005	158.9
3165.157	157.9
3168.306	153.9
3171.453	156.9
3174.597	166.9
3177.739	165.9
3180.878	163.9
3184.014	160.9
3187.149	159.9
3190.28	157.9
3193.409	159.9
3196.536	151.9
3199.659	167.9
3202.781	153.9
3205.9	167.9
3209.016	160.9
3212.13	157.9
3215.241	155.9
3218.35	146.9
3221.456	150.9
3224.56	149.9
3227.661	146.9
3230.76	149.9
3233.856	144.9
3236.95	135.9
3240.041	135.9
3243.13	134.9
3246.216	129.9
3249.3	124.9
3252.382	123.9
3255.46	125.9
3258.537	129.9
3261.611	117.9
3264.682	116.9
3267.751	121.9
3270.818	113.9
3273.882	116.9
3276.943	115.9
3280.002	113.9
3283.059	110.9
3286.113	112.9
3289.165	111.9
3292.214	100.9
3295.261	107.9
3298.306	108.9
3301.348	113.9
3304.387	108.9
3307.425	100.9
3310.459	100.9
3313.492	102.9
3316.521	98.9
3319.549	104.9
3322.574	98.9
3325.597	103.9
3328.617	97.9
3331.635	106.9
3334.65	106.9
3337.663	96.9
3340.674	103.9
3343.682	103.9
3346.688	94.9
3349.691	98.9
3352.692	96.9
3355.691	106.9
3358.687	100.9
3361.681	101.9
3364.673	94.9
3367.662	97.9
3370.649	97.9
3373.633	90.9
3376.615	90.9
3379.595	83.9
3382.572	81.9
3385.547	88.9
3388.52	83.9
3391.49	80.9
3394.458	78.9
3397.424	77.9
3400.387	76.9
3403.348	65.9
3406.307	70.9
3409.263	78.9
3412.217	68.9
3415.168	66.9
3418.118	61.9
3421.065	67.9
3424.009	59.9
3426.951	55.9
3429.891	61.9
3432.829	58.9
3435.764	64.9
3438.697	55.9
3441.628	41.9
3444.557	48.9
3447.483	43.9
3450.407	36.9
3453.328	48.9
3456.247	42.9
3459.164	37.9
3462.079	27.9
3464.991	30.9
3467.902	27.9
3470.809	28.9
3473.715	17.9
3476.618	21.9
3479.519	16.9
3482.418	15.9
3485.315	12.9
3488.209	3.9
3491.101	-4.1
3493.99	10.9
3496.878	2.9
3499.763	4.9
3502.646	3.9
3505.527	-4.1
3508.405	-2.1
3511.281	-6.1
3514.155	-10.1
3517.027	-13.1
3519.897	-6.1
3522.764	-6.1
3525.629	-16.1
3528.492	-11.1
3531.352	-16.1
3534.211	-19.1
3537.067	-20.1
3539.921	-18.1
3542.773	-27.1
3545.622	-20.1
3548.469	-19.1
3551.315	-22.1
3554.157	-28.1
3556.998	-24.1
3559.837	-29.1
3562.673	-30.1
3565.507	-26.1
3568.339	-22.1
3571.169	-37.1
3573.996	-29.1
3576.822	-38.1
3579.645	-33.1
3582.466	-36.1
3585.285	-32.1
3588.101	-39.1
3590.916	-31.1
3593.728	-41.1
3596.538	-37.1
3599.346	-41.1
3602.152	-41.1
3604.956	-35.1
3607.757	-34.1
3610.556	-38.1
3613.354	-43.1
3616.149	-44.1
3618.942	-45.1
3621.732	-44.1
3624.521	-45.1
3627.307	-39.1
3630.092	-47.1
3632.874	-45.1
3635.654	-41.1
3638.432	-44.1
3641.208	-51.1
3643.982	-41.1
3646.753	-48.1
3649.523	-41.1
3652.29	-45.1
3655.055	-49.1
3657.818	-54.1
3660.579	-51.1
3663.338	-47.1
3666.095	-50.1
3668.849	-47.1
3671.602	-50.1
3674.352	-40.1
3677.101	-49.1
3679.847	-47.1
3682.591	-59.1
3685.333	-52.1
3688.073	-53.1
3690.811	-50.1
3693.547	-52.1
3696.281	-43.1
3699.013	-50.1
3701.742	-57.1
3704.47	-51.1
3707.195	-52.1
3709.919	-55.1
3712.64	-48.1
3715.359	-50.1
3718.076	-55.1
3720.792	-56.1
3723.505	-51.1
3726.216	-55.1
3728.925	-56.1
3731.632	-49.1
3734.336	-55.1
3737.039	-51.1
3739.74	-61.1
3742.439	-55.1
3745.136	-59.1
3747.83	-53.1
3750.523	-53.1
3753.213	-58.1
3755.902	-57.1
3758.589	-56.1
3761.273	-55.1
3763.956	-58.1
3766.636	-54.1
3769.315	-50.1
3771.991	-56.1
3774.665	-58.1
3777.338	-49.1
3780.008	-56.1
3782.677	-63.1
3785.343	-59.1
3788.007	-57.1
3790.67	-55.1
3793.33	-54.1
3795.989	-55.1
3798.645	-60.1
3801.299	-57.1
3803.952	-59.1
3806.602	-55.1
3809.251	-57.1
3811.897	-58.1
3814.542	-62.1
3817.184	-59.1
3819.825	-56.1
3822.463	-57.1
3825.1	-60.1
3827.735	-62.1
3830.367	-60.1
3832.998	-60.1
3835.627	-57.1
3838.253	-57.1
3840.878	-54.1
3843.501	-55.1
3846.122	-66.1
3848.741	-61.1
3851.358	-58.1
3853.973	-52.1
3856.586	-56.1
3859.197	-57.1
3861.806	-59.1
3864.414	-63.1
3867.019	-62.1
3869.622	-47.1
3872.224	-45.1
3874.823	-47.1
3877.421	-34.1
3880.016	-28.1
3882.61	-9.1
3885.202	-11.1
3887.792	-14.1
3890.38	-32.1
3892.966	-43.1
3895.55	-57.1
3898.132	-59.1
3900.713	-62.1
3903.291	-65.1
3905.868	-55.1
3908.442	-61.1
3911.015	-53.1
3913.586	-61.1
3916.155	-58.1
3918.722	-59.1
3921.287	-60.1
3923.85	-53.1
3926.411	-58.1
3928.971	-62.1
3931.528	-59.1
3934.084	-58.1
3936.638	-59.1
3939.19	-69.1
3941.74	-57.1
3944.288	-59.1
3946.834	-56.1
3949.378	-56.1
3951.921	-63.1
3954.462	-65.1
3957	-53.1
3959.537	-53.1
3962.072	-53.1
3964.606	-55.1
3967.137	-51.1
3969.667	-61.1
3972.194	-60.1
3974.72	-54.1
3977.244	-57.1
3979.766	-57.1
3982.286	-60.1
3984.805	-64.1
3987.321	-58.1
3989.836	-58.1
3992.349	-61.1
3994.86	-63.1
3997.369	-61.1
3999.877	-61.1
4002.382	-58.1
4004.886	-52.1
4007.388	-56.1
4009.888	-56.1
4012.386	-60.1
4014.883	-53.1
4017.377	-53.1
4019.87	-58.1
4022.361	-63.1
4024.85	-52.1
4027.338	-63.1
4029.823	-61.1
4032.307	-61.1
4034.789	-58.1
4037.269	-57.1
4039.747	-57.1
4042.224	-62.1
4044.699	-65.1
4047.172	-66.1
4049.643	-57.1
4052.112	-56.1
4054.58	-56.1
4057.046	-53.1
4059.51	-60.1
4061.972	-64.1
4064.432	-58.1
4066.891	-56.1
4069.348	-56.1
4071.803	-51.1
4074.256	-55.1
4076.708	-58.1
4079.158	-62.1
4081.606	-62.1
4084.052	-59.1
4086.497	-46.1
4088.939	-52.1
4091.38	-57.1
4093.819	-59.1
4096.257	-60.1
4098.693	-63.1
4101.127	-58.1
4103.559	-68.1
4105.989	23.9
4108.418	11.9
4110.845	13.9
4113.27	10.9
4115.694	9.9
4118.115	9.9
4120.535	-55.1
4122.954	-55.1
4125.37	-59.1
4127.785	-52.1
4130.198	-57.1
4132.609	-57.1
4135.019	-61.1
4137.427	-67.1
4139.833	-62.1
4142.237	-66.1
