Data from 2018-3-7_conc=3_n=2_RamanShift_03.txt Node
Date: Wed Mar 07 11:19:52 IST 2018
User: aro
Spectrometer: QEPB0276
Trigger mode: 0
Integration Time (sec): 3.000000E1
Scans to average: 1
Electric dark correction enabled: true
Nonlinearity correction enabled: false
Boxcar width: 0
XAxis mode: Raman Shifts
Number of Pixels in Spectrum: 1044
>>>>>Begin Spectral Data<<<<<
160.701	14.2
166.742	26.2
172.777	49.2
178.805	147.2
184.826	367.2
190.841	763.2
196.849	1266.2
202.85	1627.2
208.845	1802.2
214.833	1789.2
220.815	1766.2
226.789	1768.2
232.758	1772.2
238.719	1801.2
244.674	1768.2
250.623	1761.2
256.565	1747.2
262.5	1728.2
268.429	1715.2
274.351	1710.2
280.267	1689.2
286.176	1711.2
292.079	1713.2
297.975	1696.2
303.865	1707.2
309.748	1678.2
315.625	1693.2
321.495	1693.2
327.359	1715.2
333.217	1699.2
339.068	1720.2
344.912	1721.2
350.751	1709.2
356.583	1716.2
362.408	1730.2
368.227	1741.2
374.04	1744.2
379.847	1751.2
385.647	1748.2
391.44	1761.2
397.228	1765.2
403.009	1787.2
408.784	1794.2
414.553	1814.2
420.315	1804.2
426.071	1798.2
431.821	1810.2
437.565	1800.2
443.302	1782.2
449.033	1799.2
454.758	1796.2
460.477	1776.2
466.189	1752.2
471.896	1747.2
477.596	1731.2
483.29	1724.2
488.978	1726.2
494.66	1698.2
500.335	1682.2
506.005	1618.2
511.668	1543.2
517.325	1480.2
522.977	1428.2
528.622	1403.2
534.261	1353.2
539.894	1341.2
545.521	1325.2
551.141	1301.2
556.756	1288.2
562.365	1285.2
567.968	1286.2
573.565	1260.2
579.155	1265.2
584.74	1266.2
590.319	1260.2
595.892	1253.2
601.459	1246.2
607.02	1240.2
612.575	1233.2
618.124	1217.2
623.667	1210.2
629.204	1186.2
634.735	1175.2
640.261	1163.2
645.781	1160.2
651.294	1153.2
656.802	1144.2
662.304	1145.2
667.8	1142.2
673.29	1132.2
678.775	1134.2
684.254	1148.2
689.726	1128.2
695.193	1127.2
700.655	1116.2
706.11	1103.2
711.56	1097.2
717.004	1101.2
722.442	1084.2
727.874	1071.2
733.301	1077.2
738.722	1076.2
744.137	1071.2
749.547	1055.2
754.951	1067.2
760.349	1075.2
765.741	1083.2
771.128	1088.2
776.509	1090.2
781.885	1096.2
787.254	1104.2
792.618	1110.2
797.977	1105.2
803.33	1094.2
808.677	1093.2
814.019	1075.2
819.355	1077.2
824.686	1050.2
830.011	1055.2
835.33	1042.2
840.644	1041.2
845.952	1049.2
851.255	1039.2
856.552	1041.2
861.844	1024.2
867.13	1012.2
872.41	1011.2
877.686	1006.2
882.955	998.2
888.219	990.2
893.478	977.2
898.731	947.2
903.979	942.2
909.221	953.2
914.458	923.2
919.69	932.2
924.916	937.2
930.136	936.2
935.351	939.2
940.561	935.2
945.766	948.2
950.965	931.2
956.158	920.2
961.347	906.2
966.529	905.2
971.707	885.2
976.879	875.2
982.046	874.2
987.208	855.2
992.364	878.2
997.515	862.2
1002.66	869.2
1007.801	890.2
1012.936	893.2
1018.066	898.2
1023.19	897.2
1028.309	890.2
1033.423	890.2
1038.532	878.2
1043.636	880.2
1048.734	875.2
1053.827	879.2
1058.915	857.2
1063.998	845.2
1069.075	846.2
1074.147	851.2
1079.214	834.2
1084.276	838.2
1089.333	846.2
1094.385	850.2
1099.431	838.2
1104.472	845.2
1109.509	849.2
1114.54	821.2
1119.565	822.2
1124.586	794.2
1129.602	786.2
1134.613	784.2
1139.618	789.2
1144.619	779.2
1149.614	793.2
1154.604	780.2
1159.589	800.2
1164.57	777.2
1169.545	782.2
1174.515	787.2
1179.48	793.2
1184.44	798.2
1189.395	781.2
1194.345	776.2
1199.29	754.2
1204.23	762.2
1209.165	770.2
1214.095	775.2
1219.021	773.2
1223.941	774.2
1228.856	780.2
1233.766	782.2
1238.672	785.2
1243.572	766.2
1248.467	773.2
1253.358	771.2
1258.244	746.2
1263.124	735.2
1268	721.2
1272.871	719.2
1277.737	706.2
1282.599	713.2
1287.455	702.2
1292.306	710.2
1297.153	715.2
1301.995	716.2
1306.832	721.2
1311.664	724.2
1316.491	729.2
1321.314	720.2
1326.132	719.2
1330.945	698.2
1335.753	683.2
1340.556	660.2
1345.354	652.2
1350.148	640.2
1354.937	642.2
1359.722	625.2
1364.501	612.2
1369.276	599.2
1374.046	589.2
1378.811	594.2
1383.572	590.2
1388.327	580.2
1393.079	583.2
1397.825	586.2
1402.567	593.2
1407.304	591.2
1412.036	603.2
1416.764	604.2
1421.487	599.2
1426.205	589.2
1430.919	586.2
1435.628	616.2
1440.333	601.2
1445.032	595.2
1449.727	627.2
1454.418	623.2
1459.104	622.2
1463.785	599.2
1468.462	590.2
1473.134	566.2
1477.802	553.2
1482.465	537.2
1487.123	542.2
1491.777	520.2
1496.426	515.2
1501.071	510.2
1505.711	499.2
1510.347	504.2
1514.978	503.2
1519.604	495.2
1524.226	494.2
1528.844	499.2
1533.457	485.2
1538.065	486.2
1542.669	486.2
1547.269	482.2
1551.864	492.2
1556.454	507.2
1561.041	516.2
1565.622	514.2
1570.199	509.2
1574.772	515.2
1579.34	526.2
1583.904	519.2
1588.464	545.2
1593.019	536.2
1597.569	537.2
1602.115	538.2
1606.657	536.2
1611.195	540.2
1615.728	532.2
1620.256	531.2
1624.78	542.2
1629.3	528.2
1633.816	533.2
1638.327	529.2
1642.834	518.2
1647.336	528.2
1651.834	522.2
1656.328	524.2
1660.817	519.2
1665.302	512.2
1669.783	503.2
1674.259	484.2
1678.732	483.2
1683.199	460.2
1687.663	447.2
1692.122	430.2
1696.577	415.2
1701.028	388.2
1705.474	372.2
1709.917	365.2
1714.355	363.2
1718.788	347.2
1723.218	360.2
1727.643	353.2
1732.064	354.2
1736.481	358.2
1740.893	339.2
1745.301	341.2
1749.705	339.2
1754.105	318.2
1758.501	314.2
1762.893	319.2
1767.28	304.2
1771.663	297.2
1776.042	296.2
1780.417	289.2
1784.787	296.2
1789.154	284.2
1793.516	273.2
1797.874	272.2
1802.228	268.2
1806.578	271.2
1810.924	256.2
1815.266	261.2
1819.603	263.2
1823.937	257.2
1828.266	261.2
1832.591	269.2
1836.913	267.2
1841.23	267.2
1845.543	264.2
1849.852	277.2
1854.156	269.2
1858.457	270.2
1862.754	270.2
1867.047	274.2
1871.335	273.2
1875.62	271.2
1879.9	267.2
1884.177	262.2
1888.449	265.2
1892.718	257.2
1896.982	247.2
1901.243	243.2
1905.499	238.2
1909.752	233.2
1914	230.2
1918.245	233.2
1922.485	224.2
1926.722	223.2
1930.954	218.2
1935.183	221.2
1939.408	219.2
1943.628	218.2
1947.845	210.2
1952.058	205.2
1956.267	201.2
1960.472	212.2
1964.673	202.2
1968.87	207.2
1973.063	202.2
1977.252	205.2
1981.438	203.2
1985.619	205.2
1989.797	201.2
1993.971	210.2
1998.14	207.2
2002.306	201.2
2006.469	217.2
2010.627	205.2
2014.781	207.2
2018.932	197.2
2023.078	209.2
2027.221	205.2
2031.36	202.2
2035.495	198.2
2039.627	192.2
2043.754	190.2
2047.878	189.2
2051.998	200.2
2056.114	186.2
2060.226	186.2
2064.334	183.2
2068.439	174.2
2072.54	183.2
2076.637	182.2
2080.73	176.2
2084.82	177.2
2088.906	172.2
2092.988	178.2
2097.066	173.2
2101.14	171.2
2105.211	164.2
2109.278	170.2
2113.342	157.2
2117.401	166.2
2121.457	164.2
2125.509	155.2
2129.558	158.2
2133.602	149.2
2137.643	161.2
2141.681	156.2
2145.714	155.2
2149.744	157.2
2153.77	161.2
2157.793	163.2
2161.812	167.2
2165.827	158.2
2169.838	156.2
2173.846	150.2
2177.851	150.2
2181.851	145.2
2185.848	147.2
2189.841	146.2
2193.831	144.2
2197.817	143.2
2201.799	132.2
2205.778	136.2
2209.753	149.2
2213.725	143.2
2217.693	143.2
2221.657	144.2
2225.618	138.2
2229.575	133.2
2233.529	136.2
2237.479	133.2
2241.425	127.2
2245.368	131.2
2249.307	133.2
2253.243	120.2
2257.175	121.2
2261.104	114.2
2265.029	129.2
2268.95	127.2
2272.868	119.2
2276.783	119.2
2280.694	114.2
2284.601	112.2
2288.505	117.2
2292.405	112.2
2296.302	114.2
2300.195	113.2
2304.085	108.2
2307.971	106.2
2311.854	100.2
2315.734	103.2
2319.609	106.2
2323.482	109.2
2327.351	112.2
2331.216	117.2
2335.078	139.2
2338.937	119.2
2342.792	108.2
2346.643	102.2
2350.492	105.2
2354.336	102.2
2358.178	92.2
2362.015	105.2
2365.85	104.2
2369.681	109.2
2373.508	103.2
2377.333	104.2
2381.153	105.2
2384.971	98.2
2388.785	96.2
2392.595	106.2
2396.402	97.2
2400.206	98.2
2404.007	102.2
2407.804	100.2
2411.597	99.2
2415.388	95.2
2419.174	105.2
2422.958	104.2
2426.738	98.2
2430.515	93.2
2434.289	94.2
2438.059	85.2
2441.825	87.2
2445.589	85.2
2449.349	81.2
2453.106	83.2
2456.859	84.2
2460.61	77.2
2464.356	88.2
2468.1	86.2
2471.84	86.2
2475.577	84.2
2479.311	79.2
2483.041	80.2
2486.768	74.2
2490.492	84.2
2494.213	74.2
2497.93	72.2
2501.644	79.2
2505.355	69.2
2509.062	67.2
2512.766	71.2
2516.467	72.2
2520.165	69.2
2523.859	77.2
2527.551	64.2
2531.239	65.2
2534.923	63.2
2538.605	60.2
2542.283	57.2
2545.958	59.2
2549.63	64.2
2553.299	52.2
2556.964	52.2
2560.626	59.2
2564.285	55.2
2567.941	55.2
2571.594	53.2
2575.243	56.2
2578.89	54.2
2582.533	46.2
2586.173	44.2
2589.809	56.2
2593.443	58.2
2597.073	52.2
2600.701	52.2
2604.325	50.2
2607.946	38.2
2611.564	47.2
2615.178	41.2
2618.79	50.2
2622.398	47.2
2626.004	39.2
2629.606	40.2
2633.205	45.2
2636.801	47.2
2640.394	51.2
2643.983	44.2
2647.57	40.2
2651.153	45.2
2654.734	42.2
2658.311	37.2
2661.885	39.2
2665.456	35.2
2669.025	38.2
2672.589	35.2
2676.151	41.2
2679.71	30.2
2683.266	32.2
2686.819	44.2
2690.368	42.2
2693.915	36.2
2697.458	26.2
2700.999	41.2
2704.536	39.2
2708.071	31.2
2711.602	25.2
2715.13	24.2
2718.656	30.2
2722.178	22.2
2725.697	25.2
2729.214	22.2
2732.727	32.2
2736.237	36.2
2739.744	20.2
2743.249	27.2
2746.75	28.2
2750.248	17.2
2753.743	22.2
2757.236	17.2
2760.725	14.2
2764.211	18.2
2767.695	9.2
2771.175	13.2
2774.652	10.2
2778.127	17.2
2781.598	18.2
2785.067	13.2
2788.532	9.2
2791.995	15.2
2795.455	21.2
2798.911	19.2
2802.365	21.2
2805.816	17.2
2809.264	14.2
2812.709	13.2
2816.151	22.2
2819.59	25.2
2823.026	14.2
2826.46	21.2
2829.89	16.2
2833.318	11.2
2836.742	21.2
2840.164	18.2
2843.583	18.2
2846.999	24.2
2850.412	19.2
2853.822	21.2
2857.229	22.2
2860.634	20.2
2864.035	20.2
2867.434	22.2
2870.83	23.2
2874.223	23.2
2877.613	16.2
2881	23.2
2884.385	33.2
2887.766	25.2
2891.145	24.2
2894.521	30.2
2897.894	33.2
2901.264	30.2
2904.631	22.2
2907.996	28.2
2911.358	39.2
2914.717	27.2
2918.073	29.2
2921.426	26.2
2924.777	38.2
2928.124	34.2
2931.469	34.2
2934.811	39.2
2938.15	45.2
2941.487	45.2
2944.821	40.2
2948.152	37.2
2951.48	38.2
2954.805	46.2
2958.128	43.2
2961.447	42.2
2964.765	34.2
2968.079	38.2
2971.39	35.2
2974.699	29.2
2978.005	43.2
2981.308	31.2
2984.609	34.2
2987.907	33.2
2991.202	35.2
2994.494	37.2
2997.784	34.2
3001.07	42.2
3004.355	49.2
3007.636	44.2
3010.915	42.2
3014.191	39.2
3017.464	34.2
3020.734	44.2
3024.002	45.2
3027.267	44.2
3030.53	48.2
3033.789	46.2
3037.046	46.2
3040.301	47.2
3043.552	53.2
3046.801	55.2
3050.048	59.2
3053.291	54.2
3056.532	64.2
3059.771	66.2
3063.006	69.2
3066.239	72.2
3069.469	77.2
3072.697	67.2
3075.922	85.2
3079.144	74.2
3082.364	80.2
3085.581	80.2
3088.795	89.2
3092.007	94.2
3095.216	94.2
3098.423	93.2
3101.627	90.2
3104.828	104.2
3108.026	103.2
3111.222	102.2
3114.416	103.2
3117.607	111.2
3120.795	109.2
3123.98	111.2
3127.163	126.2
3130.344	115.2
3133.521	114.2
3136.696	117.2
3139.869	127.2
3143.039	132.2
3146.206	135.2
3149.371	130.2
3152.533	137.2
3155.693	140.2
3158.85	136.2
3162.005	137.2
3165.157	136.2
3168.306	130.2
3171.453	141.2
3174.597	134.2
3177.739	142.2
3180.878	147.2
3184.014	134.2
3187.149	145.2
3190.28	145.2
3193.409	152.2
3196.536	145.2
3199.659	147.2
3202.781	144.2
3205.9	135.2
3209.016	145.2
3212.13	137.2
3215.241	143.2
3218.35	138.2
3221.456	139.2
3224.56	136.2
3227.661	131.2
3230.76	138.2
3233.856	136.2
3236.95	129.2
3240.041	124.2
3243.13	125.2
3246.216	121.2
3249.3	117.2
3252.382	119.2
3255.46	116.2
3258.537	114.2
3261.611	106.2
3264.682	109.2
3267.751	107.2
3270.818	104.2
3273.882	109.2
3276.943	105.2
3280.002	113.2
3283.059	102.2
3286.113	94.2
3289.165	97.2
3292.214	100.2
3295.261	100.2
3298.306	102.2
3301.348	98.2
3304.387	97.2
3307.425	91.2
3310.459	87.2
3313.492	90.2
3316.521	88.2
3319.549	98.2
3322.574	97.2
3325.597	89.2
3328.617	97.2
3331.635	95.2
3334.65	97.2
3337.663	80.2
3340.674	84.2
3343.682	96.2
3346.688	86.2
3349.691	90.2
3352.692	91.2
3355.691	92.2
3358.687	83.2
3361.681	90.2
3364.673	95.2
3367.662	91.2
3370.649	94.2
3373.633	83.2
3376.615	84.2
3379.595	73.2
3382.572	70.2
3385.547	83.2
3388.52	75.2
3391.49	69.2
3394.458	69.2
3397.424	71.2
3400.387	77.2
3403.348	62.2
3406.307	60.2
3409.263	66.2
3412.217	73.2
3415.168	69.2
3418.118	63.2
3421.065	60.2
3424.009	61.2
3426.951	54.2
3429.891	50.2
3432.829	51.2
3435.764	51.2
3438.697	53.2
3441.628	37.2
3444.557	47.2
3447.483	45.2
3450.407	37.2
3453.328	43.2
3456.247	33.2
3459.164	33.2
3462.079	23.2
3464.991	27.2
3467.902	29.2
3470.809	24.2
3473.715	23.2
3476.618	13.2
3479.519	12.2
3482.418	16.2
3485.315	7.2
3488.209	5.2
3491.101	7.2
3493.99	9.2
3496.878	5.2
3499.763	1.2
3502.646	5.2
3505.527	-3.8
3508.405	1.2
3511.281	-4.8
3514.155	-5.8
3517.027	-12.8
3519.897	-3.8
3522.764	-8.8
3525.629	-9.8
3528.492	-8.8
3531.352	-18.8
3534.211	-13.8
3537.067	-11.8
3539.921	-13.8
3542.773	-19.8
3545.622	-19.8
3548.469	-17.8
3551.315	-22.8
3554.157	-21.8
3556.998	-23.8
3559.837	-25.8
3562.673	-24.8
3565.507	-29.8
3568.339	-24.8
3571.169	-29.8
3573.996	-21.8
3576.822	-32.8
3579.645	-27.8
3582.466	-29.8
3585.285	-27.8
3588.101	-33.8
3590.916	-32.8
3593.728	-40.8
3596.538	-37.8
3599.346	-38.8
3602.152	-38.8
3604.956	-32.8
3607.757	-38.8
3610.556	-35.8
3613.354	-40.8
3616.149	-41.8
3618.942	-36.8
3621.732	-39.8
3624.521	-36.8
3627.307	-40.8
3630.092	-42.8
3632.874	-43.8
3635.654	-46.8
3638.432	-41.8
3641.208	-43.8
3643.982	-41.8
3646.753	-45.8
3649.523	-41.8
3652.29	-44.8
3655.055	-40.8
3657.818	-45.8
3660.579	-39.8
3663.338	-38.8
3666.095	-40.8
3668.849	-44.8
3671.602	-48.8
3674.352	-44.8
3677.101	-45.8
3679.847	-42.8
3682.591	-52.8
3685.333	-53.8
3688.073	-59.8
3690.811	-46.8
3693.547	-46.8
3696.281	-50.8
3699.013	-42.8
3701.742	-53.8
3704.47	-47.8
3707.195	-51.8
3709.919	-48.8
3712.64	-50.8
3715.359	-52.8
3718.076	-53.8
3720.792	-48.8
3723.505	-54.8
3726.216	-49.8
3728.925	-55.8
3731.632	-50.8
3734.336	-51.8
3737.039	-52.8
3739.74	-52.8
3742.439	-52.8
3745.136	-51.8
3747.83	-52.8
3750.523	-56.8
3753.213	-57.8
3755.902	-51.8
3758.589	-55.8
3761.273	-55.8
3763.956	-54.8
3766.636	-53.8
3769.315	-50.8
3771.991	-54.8
3774.665	-57.8
3777.338	-49.8
3780.008	-53.8
3782.677	-61.8
3785.343	-46.8
3788.007	-57.8
3790.67	-55.8
3793.33	-51.8
3795.989	-55.8
3798.645	-55.8
3801.299	-50.8
3803.952	-57.8
3806.602	-55.8
3809.251	-55.8
3811.897	-57.8
3814.542	-60.8
3817.184	-56.8
3819.825	-51.8
3822.463	-51.8
3825.1	-49.8
3827.735	-59.8
3830.367	-52.8
3832.998	-54.8
3835.627	-55.8
3838.253	-47.8
3840.878	-53.8
3843.501	-49.8
3846.122	-59.8
3848.741	-60.8
3851.358	-56.8
3853.973	-53.8
3856.586	-52.8
3859.197	-54.8
3861.806	-50.8
3864.414	-53.8
3867.019	-55.8
3869.622	-47.8
3872.224	-46.8
3874.823	-32.8
3877.421	-28.8
3880.016	-8.8
3882.61	3.2
3885.202	2.2
3887.792	-1.8
3890.38	-22.8
3892.966	-37.8
3895.55	-47.8
3898.132	-53.8
3900.713	-53.8
3903.291	-52.8
3905.868	-51.8
3908.442	-52.8
3911.015	-55.8
3913.586	-58.8
3916.155	-54.8
3918.722	-55.8
3921.287	-61.8
3923.85	-50.8
3926.411	-59.8
3928.971	-62.8
3931.528	-59.8
3934.084	-58.8
3936.638	-55.8
3939.19	-61.8
3941.74	-58.8
3944.288	-53.8
3946.834	-55.8
3949.378	-56.8
3951.921	-56.8
3954.462	-57.8
3957	-46.8
3959.537	-48.8
3962.072	-47.8
3964.606	-57.8
3967.137	-55.8
3969.667	-63.8
3972.194	-58.8
3974.72	-51.8
3977.244	-50.8
3979.766	-53.8
3982.286	-58.8
3984.805	-62.8
3987.321	-52.8
3989.836	-53.8
3992.349	-49.8
3994.86	-53.8
3997.369	-59.8
3999.877	-54.8
4002.382	-57.8
4004.886	-53.8
4007.388	-57.8
4009.888	-61.8
4012.386	-60.8
4014.883	-54.8
4017.377	-55.8
4019.87	-55.8
4022.361	-59.8
4024.85	-48.8
4027.338	-54.8
4029.823	-54.8
4032.307	-54.8
4034.789	-50.8
4037.269	-55.8
4039.747	-57.8
4042.224	-56.8
4044.699	-59.8
4047.172	-61.8
4049.643	-54.8
4052.112	-52.8
4054.58	-56.8
4057.046	-55.8
4059.51	-64.8
4061.972	-54.8
4064.432	-57.8
4066.891	-51.8
4069.348	-51.8
4071.803	-51.8
4074.256	-53.8
4076.708	-54.8
4079.158	-57.8
4081.606	-53.8
4084.052	-52.8
4086.497	-53.8
4088.939	-54.8
4091.38	-61.8
4093.819	-57.8
4096.257	-55.8
4098.693	-59.8
4101.127	-49.8
4103.559	-61.8
4105.989	26.2
4108.418	17.2
4110.845	16.2
4113.27	7.2
4115.694	18.2
4118.115	9.2
4120.535	-54.8
4122.954	-49.8
4125.37	-50.8
4127.785	-46.8
4130.198	-53.8
4132.609	-57.8
4135.019	-57.8
4137.427	-58.8
4139.833	-58.8
4142.237	-61.8
