Data from 2018-3-7 DARK_RamanShift_00001.txt Node
Date: Wed Mar 07 09:52:53 IST 2018
User: aro
Spectrometer: QEPB0276
Trigger mode: 0
Integration Time (sec): 3.000000E1
Scans to average: 1
Electric dark correction enabled: true
Nonlinearity correction enabled: false
Boxcar width: 0
XAxis mode: Raman Shifts
Number of Pixels in Spectrum: 1044
>>>>>Begin Spectral Data<<<<<
160.701	1.6
166.742	-2.4
172.777	-0.4
178.805	3.6
184.826	2.6
190.841	-2.4
196.849	2.6
202.85	-5.4
208.845	2.6
214.833	4.6
220.815	-0.4
226.789	-7.4
232.758	4.6
238.719	-3.4
244.674	-4.4
250.623	6.6
256.565	4.6
262.5	-2.4
268.429	1.6
274.351	5.6
280.267	-4.4
286.176	-4.4
292.079	2.6
297.975	-3.4
303.865	3.6
309.748	0.6
315.625	-1.4
321.495	-1.4
327.359	-0.4
333.217	-3.4
339.068	7.6
344.912	5.6
350.751	4.6
356.583	0.6
362.408	-5.4
368.227	-0.4
374.04	6.6
379.847	7.6
385.647	-3.4
391.44	-3.4
397.228	-5.4
403.009	0.6
408.784	5.6
414.553	6.6
420.315	-0.4
426.071	-5.4
431.821	-6.4
437.565	1.6
443.302	3.6
449.033	7.6
454.758	5.6
460.477	-6.4
466.189	-2.4
471.896	-4.4
477.596	4.6
483.29	3.6
488.978	2.6
494.66	-0.4
500.335	0.6
506.005	-3.4
511.668	2.6
517.325	7.6
522.977	-3.4
528.622	1.6
534.261	0.6
539.894	-2.4
545.521	4.6
551.141	0.6
556.756	3.6
562.365	-1.4
567.968	2.6
573.565	1.6
579.155	-0.4
584.74	2.6
590.319	-1.4
595.892	9.6
601.459	0.6
607.02	-1.4
612.575	-1.4
618.124	-0.4
623.667	3.6
629.204	-0.4
634.735	3.6
640.261	-4.4
645.781	-0.4
651.294	2.6
656.802	-0.4
662.304	4.6
667.8	8.6
673.29	1.6
678.775	0.6
684.254	3.6
689.726	1.6
695.193	-4.4
700.655	-6.4
706.11	-2.4
711.56	-2.4
717.004	1.6
722.442	0.6
727.874	-5.4
733.301	5.6
738.722	-1.4
744.137	-0.4
749.547	5.6
754.951	-6.4
760.349	-3.4
765.741	3.6
771.128	3.6
776.509	6.6
781.885	12.6
787.254	3.6
792.618	2.6
797.977	0.6
803.33	-0.4
808.677	-0.4
814.019	4.6
819.355	1.6
824.686	-1.4
830.011	-5.4
835.33	-2.4
840.644	5.6
845.952	2.6
851.255	1.6
856.552	4.6
861.844	-2.4
867.13	0.6
872.41	-0.4
877.686	7.6
882.955	2.6
888.219	4.6
893.478	4.6
898.731	0.6
903.979	-1.4
909.221	3.6
914.458	3.6
919.69	2.6
924.916	0.6
930.136	-4.4
935.351	-1.4
940.561	-1.4
945.766	1.6
950.965	1.6
956.158	4.6
961.347	1.6
966.529	4.6
971.707	-3.4
976.879	-2.4
982.046	-0.4
987.208	2.6
992.364	2.6
997.515	-1.4
1002.66	0.6
1007.801	0.6
1012.936	5.6
1018.066	6.6
1023.19	2.6
1028.309	-0.4
1033.423	0.6
1038.532	-3.4
1043.636	-5.4
1048.734	-1.4
1053.827	1.6
1058.915	2.6
1063.998	-2.4
1069.075	2.6
1074.147	-2.4
1079.214	-1.4
1084.276	-0.4
1089.333	5.6
1094.385	6.6
1099.431	2.6
1104.472	-3.4
1109.509	-1.4
1114.54	-6.4
1119.565	3.6
1124.586	3.6
1129.602	-3.4
1134.613	0.6
1139.618	-0.4
1144.619	-0.4
1149.614	6.6
1154.604	-2.4
1159.589	3.6
1164.57	2.6
1169.545	0.6
1174.515	2.6
1179.48	0.6
1184.44	3.6
1189.395	3.6
1194.345	1.6
1199.29	-5.4
1204.23	5.6
1209.165	-0.4
1214.095	-0.4
1219.021	-0.4
1223.941	0.6
1228.856	2.6
1233.766	4.6
1238.672	1.6
1243.572	-1.4
1248.467	1.6
1253.358	-2.4
1258.244	3.6
1263.124	0.6
1268	2.6
1272.871	-2.4
1277.737	-1.4
1282.599	2.6
1287.455	5.6
1292.306	4.6
1297.153	2.6
1301.995	1.6
1306.832	4.6
1311.664	5.6
1316.491	1.6
1321.314	0.6
1326.132	6.6
1330.945	2.6
1335.753	2.6
1340.556	-3.4
1345.354	-0.4
1350.148	0.6
1354.937	3.6
1359.722	-6.4
1364.501	-6.4
1369.276	-2.4
1374.046	-4.4
1378.811	-2.4
1383.572	-2.4
1388.327	1.6
1393.079	0.6
1397.825	0.6
1402.567	1.6
1407.304	3.6
1412.036	3.6
1416.764	2.6
1421.487	2.6
1426.205	-0.4
1430.919	0.6
1435.628	-2.4
1440.333	3.6
1445.032	-4.4
1449.727	4.6
1454.418	1.6
1459.104	0.6
1463.785	-3.4
1468.462	-0.4
1473.134	3.6
1477.802	0.6
1482.465	-3.4
1487.123	1.6
1491.777	-4.4
1496.426	1.6
1501.071	-0.4
1505.711	-0.4
1510.347	3.6
1514.978	-0.4
1519.604	0.6
1524.226	-0.4
1528.844	4.6
1533.457	2.6
1538.065	-1.4
1542.669	-0.4
1547.269	-1.4
1551.864	2.6
1556.454	-1.4
1561.041	-2.4
1565.622	-1.4
1570.199	-0.4
1574.772	-2.4
1579.34	-1.4
1583.904	-7.4
1588.464	1.6
1593.019	0.6
1597.569	2.6
1602.115	-0.4
1606.657	0.6
1611.195	1.6
1615.728	3.6
1620.256	-4.4
1624.78	7.6
1629.3	2.6
1633.816	7.6
1638.327	4.6
1642.834	-4.4
1647.336	-7.4
1651.834	-1.4
1656.328	2.6
1660.817	-1.4
1665.302	-1.4
1669.783	-3.4
1674.259	-3.4
1678.732	2.6
1683.199	-3.4
1687.663	-0.4
1692.122	0.6
1696.577	5.6
1701.028	2.6
1705.474	-4.4
1709.917	-2.4
1714.355	-0.4
1718.788	0.6
1723.218	-0.4
1727.643	-0.4
1732.064	3.6
1736.481	3.6
1740.893	-3.4
1745.301	-1.4
1749.705	2.6
1754.105	1.6
1758.501	-1.4
1762.893	-2.4
1767.28	2.6
1771.663	4.6
1776.042	2.6
1780.417	0.6
1784.787	4.6
1789.154	4.6
1793.516	-5.4
1797.874	-4.4
1802.228	1.6
1806.578	0.6
1810.924	-2.4
1815.266	1.6
1819.603	-0.4
1823.937	8.6
1828.266	-0.4
1832.591	-0.4
1836.913	5.6
1841.23	1.6
1845.543	2.6
1849.852	4.6
1854.156	3.6
1858.457	-1.4
1862.754	5.6
1867.047	-0.4
1871.335	1.6
1875.62	3.6
1879.9	4.6
1884.177	-4.4
1888.449	-1.4
1892.718	2.6
1896.982	1.6
1901.243	-4.4
1905.499	1.6
1909.752	-4.4
1914	-1.4
1918.245	2.6
1922.485	0.6
1926.722	-3.4
1930.954	8.6
1935.183	0.6
1939.408	0.6
1943.628	-1.4
1947.845	1.6
1952.058	3.6
1956.267	-3.4
1960.472	5.6
1964.673	-0.4
1968.87	-3.4
1973.063	-1.4
1977.252	-1.4
1981.438	2.6
1985.619	3.6
1989.797	1.6
1993.971	8.6
1998.14	0.6
2002.306	0.6
2006.469	3.6
2010.627	-3.4
2014.781	1.6
2018.932	-1.4
2023.078	2.6
2027.221	-3.4
2031.36	-1.4
2035.495	-5.4
2039.627	-0.4
2043.754	5.6
2047.878	0.6
2051.998	3.6
2056.114	5.6
2060.226	-2.4
2064.334	-0.4
2068.439	-2.4
2072.54	-1.4
2076.637	-1.4
2080.73	-1.4
2084.82	2.6
2088.906	-4.4
2092.988	4.6
2097.066	-0.4
2101.14	5.6
2105.211	4.6
2109.278	0.6
2113.342	-4.4
2117.401	2.6
2121.457	-2.4
2125.509	1.6
2129.558	2.6
2133.602	-3.4
2137.643	4.6
2141.681	-3.4
2145.714	-1.4
2149.744	-1.4
2153.77	5.6
2157.793	3.6
2161.812	5.6
2165.827	2.6
2169.838	1.6
2173.846	-0.4
2177.851	1.6
2181.851	2.6
2185.848	1.6
2189.841	3.6
2193.831	-1.4
2197.817	0.6
2201.799	0.6
2205.778	-3.4
2209.753	6.6
2213.725	-0.4
2217.693	6.6
2221.657	0.6
2225.618	-7.4
2229.575	-5.4
2233.529	-5.4
2237.479	0.6
2241.425	-2.4
2245.368	3.6
2249.307	-0.4
2253.243	-0.4
2257.175	0.6
2261.104	0.6
2265.029	4.6
2268.95	5.6
2272.868	4.6
2276.783	0.6
2280.694	-0.4
2284.601	-4.4
2288.505	6.6
2292.405	7.6
2296.302	7.6
2300.195	-1.4
2304.085	-3.4
2307.971	-2.4
2311.854	0.6
2315.734	-2.4
2319.609	6.6
2323.482	-0.4
2327.351	1.6
2331.216	-3.4
2335.078	1.6
2338.937	2.6
2342.792	4.6
2346.643	4.6
2350.492	4.6
2354.336	1.6
2358.178	-5.4
2362.015	1.6
2365.85	3.6
2369.681	4.6
2373.508	6.6
2377.333	1.6
2381.153	-3.4
2384.971	-5.4
2388.785	-7.4
2392.595	1.6
2396.402	5.6
2400.206	1.6
2404.007	-2.4
2407.804	0.6
2411.597	-4.4
2415.388	-0.4
2419.174	8.6
2422.958	0.6
2426.738	2.6
2430.515	-3.4
2434.289	1.6
2438.059	-5.4
2441.825	1.6
2445.589	2.6
2449.349	0.6
2453.106	2.6
2456.859	-1.4
2460.61	0.6
2464.356	-0.4
2468.1	4.6
2471.84	4.6
2475.577	3.6
2479.311	4.6
2483.041	0.6
2486.768	-0.4
2490.492	1.6
2494.213	3.6
2497.93	4.6
2501.644	3.6
2505.355	-4.4
2509.062	-5.4
2512.766	3.6
2516.467	3.6
2520.165	1.6
2523.859	9.6
2527.551	-1.4
2531.239	0.6
2534.923	-4.4
2538.605	-5.4
2542.283	-5.4
2545.958	3.6
2549.63	0.6
2553.299	0.6
2556.964	-11.4
2560.626	0.6
2564.285	1.6
2567.941	5.6
2571.594	-0.4
2575.243	5.6
2578.89	-0.4
2582.533	-1.4
2586.173	-4.4
2589.809	8.6
2593.443	7.6
2597.073	2.6
2600.701	2.6
2604.325	-9.4
2607.946	-1.4
2611.564	3.6
2615.178	-0.4
2618.79	1.6
2622.398	2.6
2626.004	-3.4
2629.606	-1.4
2633.205	1.6
2636.801	-2.4
2640.394	4.6
2643.983	-2.4
2647.57	-0.4
2651.153	-5.4
2654.734	1.6
2658.311	-2.4
2661.885	5.6
2665.456	2.6
2669.025	3.6
2672.589	-2.4
2676.151	1.6
2679.71	-2.4
2683.266	-0.4
2686.819	7.6
2690.368	-0.4
2693.915	-1.4
2697.458	-2.4
2700.999	2.6
2704.536	6.6
2708.071	3.6
2711.602	-4.4
2715.13	-4.4
2718.656	0.6
2722.178	-1.4
2725.697	4.6
2729.214	2.6
2732.727	0.6
2736.237	5.6
2739.744	-0.4
2743.249	-3.4
2746.75	0.6
2750.248	0.6
2753.743	1.6
2757.236	0.6
2760.725	-0.4
2764.211	2.6
2767.695	-0.4
2771.175	7.6
2774.652	4.6
2778.127	-1.4
2781.598	3.6
2785.067	-0.4
2788.532	-3.4
2791.995	3.6
2795.455	-1.4
2798.911	1.6
2802.365	2.6
2805.816	-1.4
2809.264	-2.4
2812.709	0.6
2816.151	5.6
2819.59	10.6
2823.026	-1.4
2826.46	6.6
2829.89	-1.4
2833.318	-4.4
2836.742	4.6
2840.164	-1.4
2843.583	2.6
2846.999	5.6
2850.412	-2.4
2853.822	-1.4
2857.229	-1.4
2860.634	-2.4
2864.035	0.6
2867.434	-1.4
2870.83	6.6
2874.223	-3.4
2877.613	-2.4
2881	-4.4
2884.385	2.6
2887.766	0.6
2891.145	-0.4
2894.521	6.6
2897.894	1.6
2901.264	-2.4
2904.631	-4.4
2907.996	-1.4
2911.358	10.6
2914.717	0.6
2918.073	-2.4
2921.426	-3.4
2924.777	0.6
2928.124	-0.4
2931.469	1.6
2934.811	1.6
2938.15	7.6
2941.487	3.6
2944.821	-0.4
2948.152	0.6
2951.48	-3.4
2954.805	5.6
2958.128	1.6
2961.447	7.6
2964.765	-1.4
2968.079	-2.4
2971.39	1.6
2974.699	-2.4
2978.005	9.6
2981.308	-3.4
2984.609	-0.4
2987.907	0.6
2991.202	-1.4
2994.494	-4.4
2997.784	-2.4
3001.07	6.6
3004.355	0.6
3007.636	2.6
3010.915	4.6
3014.191	-3.4
3017.464	0.6
3020.734	5.6
3024.002	4.6
3027.267	4.6
3030.53	2.6
3033.789	-1.4
3037.046	-2.4
3040.301	-3.4
3043.552	1.6
3046.801	3.6
3050.048	-1.4
3053.291	-4.4
3056.532	-1.4
3059.771	-3.4
3063.006	1.6
3066.239	-2.4
3069.469	1.6
3072.697	-4.4
3075.922	-2.4
3079.144	-2.4
3082.364	-1.4
3085.581	-1.4
3088.795	3.6
3092.007	2.6
3095.216	2.6
3098.423	1.6
3101.627	-1.4
3104.828	1.6
3108.026	2.6
3111.222	0.6
3114.416	3.6
3117.607	-0.4
3120.795	2.6
3123.98	-8.4
3127.163	8.6
3130.344	4.6
3133.521	3.6
3136.696	-1.4
3139.869	0.6
3143.039	-1.4
3146.206	4.6
3149.371	0.6
3152.533	6.6
3155.693	1.6
3158.85	3.6
3162.005	-1.4
3165.157	0.6
3168.306	-2.4
3171.453	4.6
3174.597	-0.4
3177.739	5.6
3180.878	2.6
3184.014	-7.4
3187.149	-0.4
3190.28	2.6
3193.409	4.6
3196.536	-0.4
3199.659	2.6
3202.781	0.6
3205.9	-3.4
3209.016	-1.4
3212.13	-1.4
3215.241	2.6
3218.35	0.6
3221.456	0.6
3224.56	-6.4
3227.661	5.6
3230.76	0.6
3233.856	2.6
3236.95	2.6
3240.041	1.6
3243.13	7.6
3246.216	-3.4
3249.3	0.6
3252.382	1.6
3255.46	1.6
3258.537	5.6
3261.611	1.6
3264.682	1.6
3267.751	3.6
3270.818	-1.4
3273.882	0.6
3276.943	-1.4
3280.002	0.6
3283.059	-0.4
3286.113	-2.4
3289.165	-7.4
3292.214	1.6
3295.261	2.6
3298.306	-2.4
3301.348	-4.4
3304.387	2.6
3307.425	-3.4
3310.459	-10.4
3313.492	-4.4
3316.521	2.6
3319.549	3.6
3322.574	0.6
3325.597	0.6
3328.617	-0.4
3331.635	7.6
3334.65	4.6
3337.663	-4.4
3340.674	-0.4
3343.682	2.6
3346.688	-4.4
3349.691	4.6
3352.692	-4.4
3355.691	9.6
3358.687	2.6
3361.681	-0.4
3364.673	1.6
3367.662	-0.4
3370.649	4.6
3373.633	3.6
3376.615	1.6
3379.595	-0.4
3382.572	-2.4
3385.547	1.6
3388.52	-1.4
3391.49	-2.4
3394.458	-1.4
3397.424	6.6
3400.387	3.6
3403.348	-0.4
3406.307	-2.4
3409.263	3.6
3412.217	0.6
3415.168	10.6
3418.118	-3.4
3421.065	-3.4
3424.009	-4.4
3426.951	-2.4
3429.891	1.6
3432.829	3.6
3435.764	8.6
3438.697	3.6
3441.628	-1.4
3444.557	1.6
3447.483	-1.4
3450.407	-4.4
3453.328	2.6
3456.247	1.6
3459.164	-1.4
3462.079	-1.4
3464.991	-1.4
3467.902	-4.4
3470.809	-1.4
3473.715	2.6
3476.618	6.6
3479.519	-3.4
3482.418	-4.4
3485.315	-1.4
3488.209	-4.4
3491.101	0.6
3493.99	7.6
3496.878	1.6
3499.763	-4.4
3502.646	-2.4
3505.527	-0.4
3508.405	0.6
3511.281	-0.4
3514.155	2.6
3517.027	-2.4
3519.897	8.6
3522.764	0.6
3525.629	-2.4
3528.492	2.6
3531.352	1.6
3534.211	-3.4
3537.067	-0.4
3539.921	2.6
3542.773	-4.4
3545.622	-3.4
3548.469	0.6
3551.315	0.6
3554.157	1.6
3556.998	5.6
3559.837	1.6
3562.673	-1.4
3565.507	0.6
3568.339	2.6
3571.169	-1.4
3573.996	5.6
3576.822	-1.4
3579.645	3.6
3582.466	0.6
3585.285	-1.4
3588.101	-3.4
3590.916	4.6
3593.728	1.6
3596.538	-1.4
3599.346	-0.4
3602.152	-2.4
3604.956	1.6
3607.757	2.6
3610.556	3.6
3613.354	1.6
3616.149	-3.4
3618.942	-0.4
3621.732	4.6
3624.521	3.6
3627.307	6.6
3630.092	0.6
3632.874	1.6
3635.654	-0.4
3638.432	1.6
3641.208	0.6
3643.982	4.6
3646.753	-2.4
3649.523	4.6
3652.29	-2.4
3655.055	2.6
3657.818	-5.4
3660.579	-0.4
3663.338	3.6
3666.095	2.6
3668.849	4.6
3671.602	5.6
3674.352	4.6
3677.101	-4.4
3679.847	5.6
3682.591	-2.4
3685.333	1.6
3688.073	-2.4
3690.811	2.6
3693.547	-1.4
3696.281	2.6
3699.013	-0.4
3701.742	-2.4
3704.47	0.6
3707.195	0.6
3709.919	1.6
3712.64	2.6
3715.359	3.6
3718.076	-1.4
3720.792	4.6
3723.505	4.6
3726.216	3.6
3728.925	-1.4
3731.632	4.6
3734.336	1.6
3737.039	2.6
3739.74	2.6
3742.439	-1.4
3745.136	2.6
3747.83	4.6
3750.523	-1.4
3753.213	-7.4
3755.902	3.6
3758.589	-0.4
3761.273	0.6
3763.956	1.6
3766.636	1.6
3769.315	4.6
3771.991	1.6
3774.665	0.6
3777.338	4.6
3780.008	6.6
3782.677	-3.4
3785.343	-2.4
3788.007	-7.4
3790.67	-2.4
3793.33	1.6
3795.989	4.6
3798.645	-4.4
3801.299	4.6
3803.952	-0.4
3806.602	-4.4
3809.251	-0.4
3811.897	-2.4
3814.542	-2.4
3817.184	-0.4
3819.825	3.6
3822.463	1.6
3825.1	8.6
3827.735	-3.4
3830.367	3.6
3832.998	-1.4
3835.627	-1.4
3838.253	4.6
3840.878	-0.4
3843.501	5.6
3846.122	0.6
3848.741	-1.4
3851.358	-0.4
3853.973	6.6
3856.586	-2.4
3859.197	1.6
3861.806	-2.4
3864.414	-0.4
3867.019	1.6
3869.622	0.6
3872.224	-0.4
3874.823	0.6
3877.421	-2.4
3880.016	2.6
3882.61	3.6
3885.202	-2.4
3887.792	2.6
3890.38	3.6
3892.966	-1.4
3895.55	3.6
3898.132	1.6
3900.713	2.6
3903.291	-4.4
3905.868	1.6
3908.442	-0.4
3911.015	1.6
3913.586	-2.4
3916.155	1.6
3918.722	-3.4
3921.287	3.6
3923.85	8.6
3926.411	-2.4
3928.971	-1.4
3931.528	2.6
3934.084	3.6
3936.638	-0.4
3939.19	-4.4
3941.74	3.6
3944.288	-3.4
3946.834	2.6
3949.378	-0.4
3951.921	-0.4
3954.462	2.6
3957	6.6
3959.537	3.6
3962.072	0.6
3964.606	0.6
3967.137	10.6
3969.667	0.6
3972.194	3.6
3974.72	4.6
3977.244	0.6
3979.766	-1.4
3982.286	1.6
3984.805	-3.4
3987.321	2.6
3989.836	4.6
3992.349	1.6
3994.86	-3.4
3997.369	-1.4
3999.877	0.6
4002.382	-1.4
4004.886	-0.4
4007.388	-7.4
4009.888	-3.4
4012.386	-4.4
4014.883	-0.4
4017.377	10.6
4019.87	3.6
4022.361	-2.4
4024.85	2.6
4027.338	-5.4
4029.823	-4.4
4032.307	1.6
4034.789	3.6
4037.269	3.6
4039.747	0.6
4042.224	-1.4
4044.699	-11.4
4047.172	-2.4
4049.643	1.6
4052.112	2.6
4054.58	0.6
4057.046	6.6
4059.51	-4.4
4061.972	-0.4
4064.432	5.6
4066.891	5.6
4069.348	4.6
4071.803	4.6
4074.256	-0.4
4076.708	-3.4
4079.158	-3.4
4081.606	-0.4
4084.052	2.6
4086.497	2.6
4088.939	5.6
4091.38	-4.4
4093.819	-2.4
4096.257	4.6
4098.693	-0.4
4101.127	3.6
4103.559	-1.4
4105.989	-0.4
4108.418	-1.4
4110.845	-5.4
4113.27	-1.4
4115.694	-0.4
4118.115	1.6
4120.535	-4.4
4122.954	1.6
4125.37	-1.4
4127.785	7.6
4130.198	1.6
4132.609	-0.4
4135.019	1.6
4137.427	-3.4
4139.833	-0.4
4142.237	-0.4
