Data from 2018-3-7_conc=6_n=2_RamanShift_03.txt Node
Date: Wed Mar 07 13:00:52 IST 2018
User: aro
Spectrometer: QEPB0276
Trigger mode: 0
Integration Time (sec): 3.000000E1
Scans to average: 1
Electric dark correction enabled: true
Nonlinearity correction enabled: false
Boxcar width: 0
XAxis mode: Raman Shifts
Number of Pixels in Spectrum: 1044
>>>>>Begin Spectral Data<<<<<
160.701	9.1
166.742	19.1
172.777	50.1
178.805	151.1
184.826	434.1
190.841	935.1
196.849	1550.1
202.85	2043.1
208.845	2225.1
214.833	2236.1
220.815	2196.1
226.789	2193.1
232.758	2207.1
238.719	2216.1
244.674	2175.1
250.623	2178.1
256.565	2156.1
262.5	2101.1
268.429	2085.1
274.351	2046.1
280.267	2046.1
286.176	2038.1
292.079	2007.1
297.975	2009.1
303.865	2010.1
309.748	2019.1
315.625	2006.1
321.495	2010.1
327.359	2004.1
333.217	2002.1
339.068	2012.1
344.912	2012.1
350.751	2013.1
356.583	2005.1
362.408	2014.1
368.227	2010.1
374.04	2031.1
379.847	2040.1
385.647	2033.1
391.44	2047.1
397.228	2047.1
403.009	2062.1
408.784	2075.1
414.553	2085.1
420.315	2085.1
426.071	2071.1
431.821	2069.1
437.565	2066.1
443.302	2055.1
449.033	2065.1
454.758	2048.1
460.477	2046.1
466.189	2042.1
471.896	2017.1
477.596	1995.1
483.29	2010.1
488.978	1992.1
494.66	1989.1
500.335	1977.1
506.005	1898.1
511.668	1860.1
517.325	1810.1
522.977	1750.1
528.622	1744.1
534.261	1700.1
539.894	1666.1
545.521	1666.1
551.141	1655.1
556.756	1642.1
562.365	1632.1
567.968	1618.1
573.565	1621.1
579.155	1600.1
584.74	1599.1
590.319	1576.1
595.892	1605.1
601.459	1570.1
607.02	1572.1
612.575	1565.1
618.124	1554.1
623.667	1554.1
629.204	1520.1
634.735	1512.1
640.261	1503.1
645.781	1499.1
651.294	1500.1
656.802	1490.1
662.304	1491.1
667.8	1476.1
673.29	1483.1
678.775	1461.1
684.254	1465.1
689.726	1453.1
695.193	1448.1
700.655	1438.1
706.11	1435.1
711.56	1422.1
717.004	1417.1
722.442	1411.1
727.874	1414.1
733.301	1418.1
738.722	1382.1
744.137	1387.1
749.547	1401.1
754.951	1385.1
760.349	1398.1
765.741	1397.1
771.128	1414.1
776.509	1417.1
781.885	1420.1
787.254	1408.1
792.618	1412.1
797.977	1394.1
803.33	1390.1
808.677	1399.1
814.019	1383.1
819.355	1374.1
824.686	1369.1
830.011	1346.1
835.33	1344.1
840.644	1350.1
845.952	1346.1
851.255	1350.1
856.552	1358.1
861.844	1326.1
867.13	1336.1
872.41	1339.1
877.686	1308.1
882.955	1300.1
888.219	1309.1
893.478	1265.1
898.731	1260.1
903.979	1241.1
909.221	1247.1
914.458	1237.1
919.69	1240.1
924.916	1230.1
930.136	1238.1
935.351	1220.1
940.561	1224.1
945.766	1248.1
950.965	1230.1
956.158	1215.1
961.347	1204.1
966.529	1181.1
971.707	1166.1
976.879	1153.1
982.046	1154.1
987.208	1135.1
992.364	1150.1
997.515	1151.1
1002.66	1158.1
1007.801	1178.1
1012.936	1174.1
1018.066	1180.1
1023.19	1178.1
1028.309	1185.1
1033.423	1168.1
1038.532	1162.1
1043.636	1162.1
1048.734	1143.1
1053.827	1138.1
1058.915	1125.1
1063.998	1119.1
1069.075	1098.1
1074.147	1121.1
1079.214	1115.1
1084.276	1119.1
1089.333	1127.1
1094.385	1122.1
1099.431	1112.1
1104.472	1112.1
1109.509	1113.1
1114.54	1102.1
1119.565	1084.1
1124.586	1081.1
1129.602	1081.1
1134.613	1055.1
1139.618	1049.1
1144.619	1047.1
1149.614	1056.1
1154.604	1041.1
1159.589	1052.1
1164.57	1051.1
1169.545	1053.1
1174.515	1047.1
1179.48	1043.1
1184.44	1031.1
1189.395	1020.1
1194.345	1029.1
1199.29	1014.1
1204.23	1017.1
1209.165	1031.1
1214.095	1021.1
1219.021	1033.1
1223.941	1031.1
1228.856	1046.1
1233.766	1041.1
1238.672	1054.1
1243.572	1037.1
1248.467	1044.1
1253.358	1017.1
1258.244	1008.1
1263.124	979.1
1268	985.1
1272.871	947.1
1277.737	952.1
1282.599	952.1
1287.455	957.1
1292.306	949.1
1297.153	957.1
1301.995	964.1
1306.832	973.1
1311.664	971.1
1316.491	981.1
1321.314	974.1
1326.132	967.1
1330.945	952.1
1335.753	930.1
1340.556	911.1
1345.354	903.1
1350.148	878.1
1354.937	869.1
1359.722	835.1
1364.501	810.1
1369.276	809.1
1374.046	785.1
1378.811	779.1
1383.572	768.1
1388.327	773.1
1393.079	772.1
1397.825	780.1
1402.567	779.1
1407.304	794.1
1412.036	801.1
1416.764	789.1
1421.487	794.1
1426.205	798.1
1430.919	797.1
1435.628	814.1
1440.333	816.1
1445.032	818.1
1449.727	828.1
1454.418	831.1
1459.104	833.1
1463.785	805.1
1468.462	792.1
1473.134	777.1
1477.802	756.1
1482.465	736.1
1487.123	714.1
1491.777	704.1
1496.426	695.1
1501.071	681.1
1505.711	669.1
1510.347	662.1
1514.978	673.1
1519.604	652.1
1524.226	645.1
1528.844	638.1
1533.457	638.1
1538.065	648.1
1542.669	634.1
1547.269	642.1
1551.864	648.1
1556.454	655.1
1561.041	669.1
1565.622	679.1
1570.199	685.1
1574.772	684.1
1579.34	708.1
1583.904	699.1
1588.464	722.1
1593.019	724.1
1597.569	730.1
1602.115	725.1
1606.657	713.1
1611.195	710.1
1615.728	723.1
1620.256	707.1
1624.78	725.1
1629.3	709.1
1633.816	714.1
1638.327	722.1
1642.834	719.1
1647.336	727.1
1651.834	719.1
1656.328	729.1
1660.817	705.1
1665.302	699.1
1669.783	684.1
1674.259	670.1
1678.732	649.1
1683.199	631.1
1687.663	600.1
1692.122	566.1
1696.577	539.1
1701.028	509.1
1705.474	475.1
1709.917	459.1
1714.355	449.1
1718.788	454.1
1723.218	461.1
1727.643	451.1
1732.064	464.1
1736.481	458.1
1740.893	453.1
1745.301	451.1
1749.705	448.1
1754.105	428.1
1758.501	419.1
1762.893	411.1
1767.28	410.1
1771.663	409.1
1776.042	401.1
1780.417	381.1
1784.787	381.1
1789.154	361.1
1793.516	353.1
1797.874	341.1
1802.228	339.1
1806.578	342.1
1810.924	320.1
1815.266	336.1
1819.603	335.1
1823.937	352.1
1828.266	347.1
1832.591	342.1
1836.913	345.1
1841.23	354.1
1845.543	339.1
1849.852	355.1
1854.156	359.1
1858.457	362.1
1862.754	359.1
1867.047	369.1
1871.335	364.1
1875.62	357.1
1879.9	352.1
1884.177	340.1
1888.449	354.1
1892.718	338.1
1896.982	332.1
1901.243	319.1
1905.499	321.1
1909.752	306.1
1914	297.1
1918.245	294.1
1922.485	286.1
1926.722	281.1
1930.954	284.1
1935.183	286.1
1939.408	282.1
1943.628	271.1
1947.845	266.1
1952.058	270.1
1956.267	253.1
1960.472	263.1
1964.673	255.1
1968.87	248.1
1973.063	253.1
1977.252	255.1
1981.438	256.1
1985.619	264.1
1989.797	260.1
1993.971	269.1
1998.14	275.1
2002.306	272.1
2006.469	275.1
2010.627	271.1
2014.781	283.1
2018.932	272.1
2023.078	272.1
2027.221	276.1
2031.36	270.1
2035.495	262.1
2039.627	257.1
2043.754	263.1
2047.878	262.1
2051.998	266.1
2056.114	261.1
2060.226	247.1
2064.334	248.1
2068.439	244.1
2072.54	232.1
2076.637	246.1
2080.73	240.1
2084.82	238.1
2088.906	236.1
2092.988	231.1
2097.066	222.1
2101.14	224.1
2105.211	212.1
2109.278	215.1
2113.342	212.1
2117.401	203.1
2121.457	207.1
2125.509	211.1
2129.558	206.1
2133.602	214.1
2137.643	205.1
2141.681	209.1
2145.714	215.1
2149.744	211.1
2153.77	213.1
2157.793	214.1
2161.812	217.1
2165.827	215.1
2169.838	208.1
2173.846	204.1
2177.851	203.1
2181.851	201.1
2185.848	211.1
2189.841	197.1
2193.831	202.1
2197.817	201.1
2201.799	197.1
2205.778	200.1
2209.753	196.1
2213.725	191.1
2217.693	199.1
2221.657	198.1
2225.618	195.1
2229.575	189.1
2233.529	192.1
2237.479	189.1
2241.425	184.1
2245.368	192.1
2249.307	193.1
2253.243	180.1
2257.175	188.1
2261.104	176.1
2265.029	186.1
2268.95	183.1
2272.868	173.1
2276.783	176.1
2280.694	169.1
2284.601	158.1
2288.505	166.1
2292.405	165.1
2296.302	172.1
2300.195	159.1
2304.085	146.1
2307.971	160.1
2311.854	150.1
2315.734	147.1
2319.609	161.1
2323.482	154.1
2327.351	159.1
2331.216	163.1
2335.078	171.1
2338.937	163.1
2342.792	158.1
2346.643	161.1
2350.492	157.1
2354.336	166.1
2358.178	157.1
2362.015	154.1
2365.85	157.1
2369.681	165.1
2373.508	165.1
2377.333	152.1
2381.153	153.1
2384.971	152.1
2388.785	149.1
2392.595	160.1
2396.402	159.1
2400.206	163.1
2404.007	156.1
2407.804	164.1
2411.597	157.1
2415.388	161.1
2419.174	160.1
2422.958	161.1
2426.738	157.1
2430.515	150.1
2434.289	158.1
2438.059	144.1
2441.825	145.1
2445.589	150.1
2449.349	142.1
2453.106	142.1
2456.859	139.1
2460.61	135.1
2464.356	147.1
2468.1	139.1
2471.84	137.1
2475.577	133.1
2479.311	129.1
2483.041	131.1
2486.768	130.1
2490.492	130.1
2494.213	130.1
2497.93	127.1
2501.644	131.1
2505.355	123.1
2509.062	121.1
2512.766	120.1
2516.467	121.1
2520.165	120.1
2523.859	116.1
2527.551	110.1
2531.239	117.1
2534.923	106.1
2538.605	101.1
2542.283	106.1
2545.958	101.1
2549.63	102.1
2553.299	101.1
2556.964	95.1
2560.626	101.1
2564.285	97.1
2567.941	93.1
2571.594	90.1
2575.243	89.1
2578.89	89.1
2582.533	88.1
2586.173	84.1
2589.809	95.1
2593.443	96.1
2597.073	91.1
2600.701	89.1
2604.325	83.1
2607.946	80.1
2611.564	92.1
2615.178	86.1
2618.79	80.1
2622.398	84.1
2626.004	85.1
2629.606	79.1
2633.205	83.1
2636.801	81.1
2640.394	87.1
2643.983	79.1
2647.57	80.1
2651.153	75.1
2654.734	72.1
2658.311	76.1
2661.885	78.1
2665.456	74.1
2669.025	77.1
2672.589	71.1
2676.151	75.1
2679.71	64.1
2683.266	72.1
2686.819	75.1
2690.368	69.1
2693.915	76.1
2697.458	60.1
2700.999	66.1
2704.536	66.1
2708.071	66.1
2711.602	61.1
2715.13	58.1
2718.656	71.1
2722.178	57.1
2725.697	55.1
2729.214	53.1
2732.727	58.1
2736.237	58.1
2739.744	45.1
2743.249	47.1
2746.75	47.1
2750.248	46.1
2753.743	42.1
2757.236	44.1
2760.725	43.1
2764.211	38.1
2767.695	31.1
2771.175	31.1
2774.652	40.1
2778.127	39.1
2781.598	37.1
2785.067	42.1
2788.532	34.1
2791.995	35.1
2795.455	36.1
2798.911	40.1
2802.365	47.1
2805.816	37.1
2809.264	35.1
2812.709	39.1
2816.151	47.1
2819.59	49.1
2823.026	37.1
2826.46	46.1
2829.89	39.1
2833.318	45.1
2836.742	46.1
2840.164	38.1
2843.583	38.1
2846.999	50.1
2850.412	45.1
2853.822	44.1
2857.229	50.1
2860.634	41.1
2864.035	46.1
2867.434	44.1
2870.83	52.1
2874.223	51.1
2877.613	47.1
2881	58.1
2884.385	56.1
2887.766	60.1
2891.145	53.1
2894.521	55.1
2897.894	53.1
2901.264	51.1
2904.631	55.1
2907.996	57.1
2911.358	62.1
2914.717	54.1
2918.073	64.1
2921.426	63.1
2924.777	68.1
2928.124	64.1
2931.469	73.1
2934.811	76.1
2938.15	77.1
2941.487	88.1
2944.821	71.1
2948.152	84.1
2951.48	74.1
2954.805	75.1
2958.128	68.1
2961.447	75.1
2964.765	69.1
2968.079	69.1
2971.39	64.1
2974.699	61.1
2978.005	77.1
2981.308	65.1
2984.609	70.1
2987.907	68.1
2991.202	73.1
2994.494	70.1
2997.784	62.1
3001.07	68.1
3004.355	75.1
3007.636	75.1
3010.915	76.1
3014.191	70.1
3017.464	79.1
3020.734	77.1
3024.002	87.1
3027.267	70.1
3030.53	80.1
3033.789	86.1
3037.046	83.1
3040.301	86.1
3043.552	91.1
3046.801	90.1
3050.048	101.1
3053.291	100.1
3056.532	103.1
3059.771	111.1
3063.006	113.1
3066.239	124.1
3069.469	127.1
3072.697	123.1
3075.922	130.1
3079.144	132.1
3082.364	135.1
3085.581	134.1
3088.795	144.1
3092.007	140.1
3095.216	149.1
3098.423	146.1
3101.627	150.1
3104.828	151.1
3108.026	153.1
3111.222	157.1
3114.416	167.1
3117.607	173.1
3120.795	171.1
3123.98	175.1
3127.163	185.1
3130.344	186.1
3133.521	183.1
3136.696	185.1
3139.869	189.1
3143.039	195.1
3146.206	197.1
3149.371	201.1
3152.533	211.1
3155.693	211.1
3158.85	218.1
3162.005	212.1
3165.157	206.1
3168.306	203.1
3171.453	214.1
3174.597	210.1
3177.739	214.1
3180.878	221.1
3184.014	214.1
3187.149	215.1
3190.28	212.1
3193.409	217.1
3196.536	213.1
3199.659	228.1
3202.781	222.1
3205.9	209.1
3209.016	210.1
3212.13	212.1
3215.241	217.1
3218.35	210.1
3221.456	210.1
3224.56	204.1
3227.661	215.1
3230.76	196.1
3233.856	204.1
3236.95	185.1
3240.041	190.1
3243.13	182.1
3246.216	186.1
3249.3	175.1
3252.382	176.1
3255.46	174.1
3258.537	173.1
3261.611	173.1
3264.682	176.1
3267.751	174.1
3270.818	159.1
3273.882	169.1
3276.943	165.1
3280.002	175.1
3283.059	156.1
3286.113	160.1
3289.165	154.1
3292.214	157.1
3295.261	158.1
3298.306	152.1
3301.348	154.1
3304.387	155.1
3307.425	153.1
3310.459	147.1
3313.492	152.1
3316.521	154.1
3319.549	160.1
3322.574	142.1
3325.597	151.1
3328.617	154.1
3331.635	157.1
3334.65	164.1
3337.663	150.1
3340.674	149.1
3343.682	153.1
3346.688	149.1
3349.691	155.1
3352.692	147.1
3355.691	151.1
3358.687	148.1
3361.681	146.1
3364.673	140.1
3367.662	143.1
3370.649	146.1
3373.633	133.1
3376.615	137.1
3379.595	129.1
3382.572	125.1
3385.547	130.1
3388.52	134.1
3391.49	128.1
3394.458	115.1
3397.424	127.1
3400.387	127.1
3403.348	115.1
3406.307	111.1
3409.263	117.1
3412.217	116.1
3415.168	116.1
3418.118	98.1
3421.065	102.1
3424.009	107.1
3426.951	99.1
3429.891	102.1
3432.829	96.1
3435.764	96.1
3438.697	91.1
3441.628	82.1
3444.557	90.1
3447.483	84.1
3450.407	74.1
3453.328	78.1
3456.247	70.1
3459.164	71.1
3462.079	60.1
3464.991	63.1
3467.902	59.1
3470.809	56.1
3473.715	52.1
3476.618	51.1
3479.519	45.1
3482.418	43.1
3485.315	42.1
3488.209	36.1
3491.101	34.1
3493.99	35.1
3496.878	25.1
3499.763	22.1
3502.646	17.1
3505.527	26.1
3508.405	16.1
3511.281	18.1
3514.155	11.1
3517.027	4.1
3519.897	13.1
3522.764	11.1
3525.629	6.1
3528.492	-0.9
3531.352	-1.9
3534.211	-0.9
3537.067	-0.9
3539.921	-4.9
3542.773	-4.9
3545.622	-3.9
3548.469	-2.9
3551.315	-0.9
3554.157	-9.9
3556.998	-7.9
3559.837	-10.9
3562.673	-16.9
3565.507	-15.9
3568.339	-12.9
3571.169	-17.9
3573.996	-10.9
3576.822	-24.9
3579.645	-20.9
3582.466	-23.9
3585.285	-21.9
3588.101	-25.9
3590.916	-24.9
3593.728	-27.9
3596.538	-33.9
3599.346	-30.9
3602.152	-31.9
3604.956	-29.9
3607.757	-24.9
3610.556	-25.9
3613.354	-34.9
3616.149	-35.9
3618.942	-30.9
3621.732	-33.9
3624.521	-29.9
3627.307	-32.9
3630.092	-33.9
3632.874	-34.9
3635.654	-33.9
3638.432	-29.9
3641.208	-35.9
3643.982	-33.9
3646.753	-42.9
3649.523	-35.9
3652.29	-38.9
3655.055	-40.9
3657.818	-43.9
3660.579	-42.9
3663.338	-40.9
3666.095	-39.9
3668.849	-42.9
3671.602	-42.9
3674.352	-39.9
3677.101	-38.9
3679.847	-38.9
3682.591	-44.9
3685.333	-43.9
3688.073	-43.9
3690.811	-40.9
3693.547	-45.9
3696.281	-43.9
3699.013	-46.9
3701.742	-53.9
3704.47	-42.9
3707.195	-50.9
3709.919	-49.9
3712.64	-50.9
3715.359	-47.9
3718.076	-52.9
3720.792	-43.9
3723.505	-46.9
3726.216	-45.9
3728.925	-54.9
3731.632	-45.9
3734.336	-44.9
3737.039	-45.9
3739.74	-51.9
3742.439	-51.9
3745.136	-47.9
3747.83	-43.9
3750.523	-54.9
3753.213	-60.9
3755.902	-48.9
3758.589	-49.9
3761.273	-53.9
3763.956	-45.9
3766.636	-48.9
3769.315	-47.9
3771.991	-49.9
3774.665	-53.9
3777.338	-53.9
3780.008	-50.9
3782.677	-54.9
3785.343	-52.9
3788.007	-57.9
3790.67	-53.9
3793.33	-45.9
3795.989	-53.9
3798.645	-52.9
3801.299	-44.9
3803.952	-47.9
3806.602	-50.9
3809.251	-50.9
3811.897	-52.9
3814.542	-56.9
3817.184	-52.9
3819.825	-46.9
3822.463	-50.9
3825.1	-47.9
3827.735	-58.9
3830.367	-53.9
3832.998	-53.9
3835.627	-55.9
3838.253	-51.9
3840.878	-47.9
3843.501	-48.9
3846.122	-57.9
3848.741	-54.9
3851.358	-53.9
3853.973	-44.9
3856.586	-51.9
3859.197	-51.9
3861.806	-53.9
3864.414	-48.9
3867.019	-54.9
3869.622	-46.9
3872.224	-45.9
3874.823	-29.9
3877.421	-31.9
3880.016	-17.9
3882.61	-4.9
3885.202	-4.9
3887.792	-14.9
3890.38	-23.9
3892.966	-46.9
3895.55	-51.9
3898.132	-51.9
3900.713	-55.9
3903.291	-52.9
3905.868	-50.9
3908.442	-52.9
3911.015	-50.9
3913.586	-57.9
3916.155	-51.9
3918.722	-54.9
3921.287	-52.9
3923.85	-44.9
3926.411	-49.9
3928.971	-60.9
3931.528	-52.9
3934.084	-46.9
3936.638	-48.9
3939.19	-61.9
3941.74	-53.9
3944.288	-56.9
3946.834	-52.9
3949.378	-54.9
3951.921	-55.9
3954.462	-54.9
3957	-52.9
3959.537	-51.9
3962.072	-48.9
3964.606	-49.9
3967.137	-50.9
3969.667	-56.9
3972.194	-48.9
3974.72	-48.9
3977.244	-48.9
3979.766	-53.9
3982.286	-50.9
3984.805	-60.9
3987.321	-51.9
3989.836	-46.9
3992.349	-53.9
3994.86	-53.9
3997.369	-53.9
3999.877	-53.9
4002.382	-56.9
4004.886	-50.9
4007.388	-53.9
4009.888	-50.9
4012.386	-54.9
4014.883	-54.9
4017.377	-53.9
4019.87	-53.9
4022.361	-59.9
4024.85	-52.9
4027.338	-60.9
4029.823	-54.9
4032.307	-52.9
4034.789	-47.9
4037.269	-52.9
4039.747	-51.9
4042.224	-49.9
4044.699	-54.9
4047.172	-55.9
4049.643	-54.9
4052.112	-56.9
4054.58	-53.9
4057.046	-52.9
4059.51	-54.9
4061.972	-53.9
4064.432	-57.9
4066.891	-50.9
4069.348	-51.9
4071.803	-50.9
4074.256	-59.9
4076.708	-53.9
4079.158	-59.9
4081.606	-54.9
4084.052	-57.9
4086.497	-47.9
4088.939	-49.9
4091.38	-58.9
4093.819	-55.9
4096.257	-54.9
4098.693	-52.9
4101.127	-48.9
4103.559	-56.9
4105.989	6.1
4108.418	2.1
4110.845	-2.9
4113.27	-1.9
4115.694	4.1
4118.115	4.1
4120.535	-54.9
4122.954	-45.9
4125.37	-50.9
4127.785	-46.9
4130.198	-48.9
4132.609	-53.9
4135.019	-57.9
4137.427	-56.9
4139.833	-54.9
4142.237	-59.9
