Data from 2018-3-7_conc=0_n=7_RamanShift_01.txt Node
Date: Wed Mar 07 10:26:22 IST 2018
User: aro
Spectrometer: QEPB0276
Trigger mode: 0
Integration Time (sec): 3.000000E1
Scans to average: 1
Electric dark correction enabled: true
Nonlinearity correction enabled: false
Boxcar width: 0
XAxis mode: Raman Shifts
Number of Pixels in Spectrum: 1044
>>>>>Begin Spectral Data<<<<<
160.701	14.2
166.742	29.2
172.777	61.2
178.805	160.2
184.826	417.2
190.841	883.2
196.849	1427.2
202.85	1860.2
208.845	2018.2
214.833	2035.2
220.815	2018.2
226.789	2037.2
232.758	2049.2
238.719	2075.2
244.674	2056.2
250.623	2051.2
256.565	2014.2
262.5	2013.2
268.429	2001.2
274.351	1999.2
280.267	1995.2
286.176	1996.2
292.079	1989.2
297.975	2001.2
303.865	2008.2
309.748	2000.2
315.625	2010.2
321.495	2007.2
327.359	2020.2
333.217	2027.2
339.068	2042.2
344.912	2046.2
350.751	2050.2
356.583	2053.2
362.408	2074.2
368.227	2061.2
374.04	2097.2
379.847	2093.2
385.647	2120.2
391.44	2116.2
397.228	2138.2
403.009	2150.2
408.784	2164.2
414.553	2165.2
420.315	2169.2
426.071	2173.2
431.821	2168.2
437.565	2165.2
443.302	2189.2
449.033	2185.2
454.758	2184.2
460.477	2112.2
466.189	2107.2
471.896	2101.2
477.596	2078.2
483.29	2063.2
488.978	2073.2
494.66	2061.2
500.335	2007.2
506.005	1905.2
511.668	1820.2
517.325	1727.2
522.977	1660.2
528.622	1592.2
534.261	1561.2
539.894	1519.2
545.521	1516.2
551.141	1485.2
556.756	1458.2
562.365	1449.2
567.968	1431.2
573.565	1412.2
579.155	1419.2
584.74	1403.2
590.319	1421.2
595.892	1410.2
601.459	1400.2
607.02	1404.2
612.575	1400.2
618.124	1369.2
623.667	1359.2
629.204	1334.2
634.735	1316.2
640.261	1310.2
645.781	1308.2
651.294	1301.2
656.802	1282.2
662.304	1285.2
667.8	1268.2
673.29	1279.2
678.775	1266.2
684.254	1272.2
689.726	1249.2
695.193	1254.2
700.655	1251.2
706.11	1233.2
711.56	1227.2
717.004	1236.2
722.442	1209.2
727.874	1195.2
733.301	1196.2
738.722	1203.2
744.137	1217.2
749.547	1176.2
754.951	1207.2
760.349	1196.2
765.741	1204.2
771.128	1221.2
776.509	1211.2
781.885	1247.2
787.254	1255.2
792.618	1264.2
797.977	1257.2
803.33	1237.2
808.677	1250.2
814.019	1230.2
819.355	1220.2
824.686	1210.2
830.011	1194.2
835.33	1182.2
840.644	1188.2
845.952	1190.2
851.255	1175.2
856.552	1170.2
861.844	1144.2
867.13	1151.2
872.41	1173.2
877.686	1197.2
882.955	1235.2
888.219	1224.2
893.478	1160.2
898.731	1104.2
903.979	1060.2
909.221	1048.2
914.458	1041.2
919.69	1027.2
924.916	1039.2
930.136	1037.2
935.351	1048.2
940.561	1047.2
945.766	1026.2
950.965	1036.2
956.158	1024.2
961.347	1015.2
966.529	991.2
971.707	979.2
976.879	972.2
982.046	972.2
987.208	970.2
992.364	956.2
997.515	960.2
1002.66	950.2
1007.801	976.2
1012.936	997.2
1018.066	996.2
1023.19	992.2
1028.309	1003.2
1033.423	1003.2
1038.532	1010.2
1043.636	1014.2
1048.734	1022.2
1053.827	1011.2
1058.915	994.2
1063.998	970.2
1069.075	969.2
1074.147	975.2
1079.214	973.2
1084.276	979.2
1089.333	1000.2
1094.385	999.2
1099.431	979.2
1104.472	976.2
1109.509	953.2
1114.54	928.2
1119.565	906.2
1124.586	907.2
1129.602	895.2
1134.613	890.2
1139.618	883.2
1144.619	874.2
1149.614	891.2
1154.604	876.2
1159.589	881.2
1164.57	882.2
1169.545	892.2
1174.515	891.2
1179.48	874.2
1184.44	881.2
1189.395	865.2
1194.345	852.2
1199.29	847.2
1204.23	857.2
1209.165	851.2
1214.095	867.2
1219.021	868.2
1223.941	877.2
1228.856	871.2
1233.766	872.2
1238.672	866.2
1243.572	869.2
1248.467	867.2
1253.358	846.2
1258.244	838.2
1263.124	812.2
1268	806.2
1272.871	801.2
1277.737	797.2
1282.599	796.2
1287.455	797.2
1292.306	791.2
1297.153	789.2
1301.995	797.2
1306.832	798.2
1311.664	793.2
1316.491	807.2
1321.314	800.2
1326.132	801.2
1330.945	785.2
1335.753	770.2
1340.556	740.2
1345.354	723.2
1350.148	710.2
1354.937	698.2
1359.722	684.2
1364.501	672.2
1369.276	660.2
1374.046	652.2
1378.811	647.2
1383.572	646.2
1388.327	648.2
1393.079	641.2
1397.825	667.2
1402.567	668.2
1407.304	667.2
1412.036	666.2
1416.764	666.2
1421.487	677.2
1426.205	675.2
1430.919	671.2
1435.628	678.2
1440.333	688.2
1445.032	695.2
1449.727	715.2
1454.418	718.2
1459.104	725.2
1463.785	710.2
1468.462	694.2
1473.134	640.2
1477.802	631.2
1482.465	614.2
1487.123	597.2
1491.777	589.2
1496.426	578.2
1501.071	561.2
1505.711	547.2
1510.347	541.2
1514.978	547.2
1519.604	548.2
1524.226	538.2
1528.844	541.2
1533.457	542.2
1538.065	539.2
1542.669	541.2
1547.269	531.2
1551.864	539.2
1556.454	554.2
1561.041	572.2
1565.622	571.2
1570.199	554.2
1574.772	561.2
1579.34	575.2
1583.904	577.2
1588.464	591.2
1593.019	577.2
1597.569	583.2
1602.115	587.2
1606.657	581.2
1611.195	574.2
1615.728	570.2
1620.256	560.2
1624.78	570.2
1629.3	578.2
1633.816	560.2
1638.327	579.2
1642.834	559.2
1647.336	563.2
1651.834	567.2
1656.328	571.2
1660.817	556.2
1665.302	557.2
1669.783	535.2
1674.259	523.2
1678.732	518.2
1683.199	491.2
1687.663	474.2
1692.122	452.2
1696.577	428.2
1701.028	421.2
1705.474	384.2
1709.917	378.2
1714.355	379.2
1718.788	382.2
1723.218	378.2
1727.643	382.2
1732.064	378.2
1736.481	387.2
1740.893	373.2
1745.301	366.2
1749.705	355.2
1754.105	346.2
1758.501	334.2
1762.893	336.2
1767.28	320.2
1771.663	320.2
1776.042	317.2
1780.417	314.2
1784.787	306.2
1789.154	296.2
1793.516	279.2
1797.874	281.2
1802.228	282.2
1806.578	284.2
1810.924	274.2
1815.266	271.2
1819.603	276.2
1823.937	285.2
1828.266	276.2
1832.591	285.2
1836.913	287.2
1841.23	292.2
1845.543	275.2
1849.852	290.2
1854.156	293.2
1858.457	293.2
1862.754	292.2
1867.047	278.2
1871.335	282.2
1875.62	278.2
1879.9	288.2
1884.177	274.2
1888.449	277.2
1892.718	274.2
1896.982	264.2
1901.243	249.2
1905.499	251.2
1909.752	241.2
1914	245.2
1918.245	250.2
1922.485	230.2
1926.722	219.2
1930.954	228.2
1935.183	222.2
1939.408	220.2
1943.628	223.2
1947.845	222.2
1952.058	218.2
1956.267	213.2
1960.472	220.2
1964.673	210.2
1968.87	214.2
1973.063	210.2
1977.252	217.2
1981.438	207.2
1985.619	210.2
1989.797	210.2
1993.971	217.2
1998.14	224.2
2002.306	222.2
2006.469	221.2
2010.627	211.2
2014.781	213.2
2018.932	210.2
2023.078	215.2
2027.221	214.2
2031.36	213.2
2035.495	204.2
2039.627	196.2
2043.754	201.2
2047.878	194.2
2051.998	196.2
2056.114	189.2
2060.226	187.2
2064.334	188.2
2068.439	190.2
2072.54	183.2
2076.637	184.2
2080.73	185.2
2084.82	182.2
2088.906	172.2
2092.988	177.2
2097.066	169.2
2101.14	175.2
2105.211	177.2
2109.278	171.2
2113.342	166.2
2117.401	166.2
2121.457	162.2
2125.509	167.2
2129.558	161.2
2133.602	164.2
2137.643	168.2
2141.681	165.2
2145.714	177.2
2149.744	172.2
2153.77	169.2
2157.793	162.2
2161.812	174.2
2165.827	167.2
2169.838	162.2
2173.846	158.2
2177.851	159.2
2181.851	166.2
2185.848	158.2
2189.841	151.2
2193.831	146.2
2197.817	137.2
2201.799	146.2
2205.778	147.2
2209.753	155.2
2213.725	154.2
2217.693	158.2
2221.657	148.2
2225.618	148.2
2229.575	139.2
2233.529	144.2
2237.479	150.2
2241.425	139.2
2245.368	141.2
2249.307	148.2
2253.243	142.2
2257.175	140.2
2261.104	123.2
2265.029	132.2
2268.95	132.2
2272.868	134.2
2276.783	119.2
2280.694	124.2
2284.601	126.2
2288.505	128.2
2292.405	117.2
2296.302	127.2
2300.195	119.2
2304.085	114.2
2307.971	118.2
2311.854	114.2
2315.734	111.2
2319.609	114.2
2323.482	119.2
2327.351	123.2
2331.216	137.2
2335.078	145.2
2338.937	133.2
2342.792	119.2
2346.643	119.2
2350.492	118.2
2354.336	119.2
2358.178	112.2
2362.015	112.2
2365.85	118.2
2369.681	122.2
2373.508	118.2
2377.333	117.2
2381.153	116.2
2384.971	109.2
2388.785	106.2
2392.595	117.2
2396.402	110.2
2400.206	110.2
2404.007	113.2
2407.804	112.2
2411.597	114.2
2415.388	113.2
2419.174	122.2
2422.958	108.2
2426.738	106.2
2430.515	103.2
2434.289	105.2
2438.059	100.2
2441.825	102.2
2445.589	107.2
2449.349	92.2
2453.106	100.2
2456.859	97.2
2460.61	92.2
2464.356	88.2
2468.1	92.2
2471.84	88.2
2475.577	88.2
2479.311	89.2
2483.041	93.2
2486.768	83.2
2490.492	83.2
2494.213	84.2
2497.93	88.2
2501.644	88.2
2505.355	82.2
2509.062	78.2
2512.766	87.2
2516.467	75.2
2520.165	75.2
2523.859	80.2
2527.551	68.2
2531.239	70.2
2534.923	72.2
2538.605	63.2
2542.283	64.2
2545.958	74.2
2549.63	77.2
2553.299	65.2
2556.964	61.2
2560.626	63.2
2564.285	62.2
2567.941	62.2
2571.594	62.2
2575.243	66.2
2578.89	64.2
2582.533	53.2
2586.173	52.2
2589.809	52.2
2593.443	60.2
2597.073	56.2
2600.701	56.2
2604.325	54.2
2607.946	51.2
2611.564	56.2
2615.178	50.2
2618.79	45.2
2622.398	45.2
2626.004	45.2
2629.606	51.2
2633.205	49.2
2636.801	44.2
2640.394	52.2
2643.983	51.2
2647.57	50.2
2651.153	43.2
2654.734	44.2
2658.311	50.2
2661.885	45.2
2665.456	50.2
2669.025	49.2
2672.589	44.2
2676.151	39.2
2679.71	37.2
2683.266	36.2
2686.819	46.2
2690.368	37.2
2693.915	42.2
2697.458	40.2
2700.999	41.2
2704.536	43.2
2708.071	35.2
2711.602	34.2
2715.13	30.2
2718.656	30.2
2722.178	28.2
2725.697	29.2
2729.214	30.2
2732.727	35.2
2736.237	33.2
2739.744	26.2
2743.249	26.2
2746.75	28.2
2750.248	28.2
2753.743	20.2
2757.236	27.2
2760.725	28.2
2764.211	18.2
2767.695	19.2
2771.175	16.2
2774.652	17.2
2778.127	20.2
2781.598	15.2
2785.067	13.2
2788.532	18.2
2791.995	24.2
2795.455	15.2
2798.911	13.2
2802.365	23.2
2805.816	22.2
2809.264	18.2
2812.709	19.2
2816.151	22.2
2819.59	30.2
2823.026	25.2
2826.46	30.2
2829.89	20.2
2833.318	25.2
2836.742	30.2
2840.164	25.2
2843.583	21.2
2846.999	33.2
2850.412	29.2
2853.822	30.2
2857.229	31.2
2860.634	32.2
2864.035	35.2
2867.434	39.2
2870.83	41.2
2874.223	40.2
2877.613	46.2
2881	59.2
2884.385	55.2
2887.766	58.2
2891.145	55.2
2894.521	59.2
2897.894	61.2
2901.264	56.2
2904.631	48.2
2907.996	58.2
2911.358	61.2
2914.717	62.2
2918.073	60.2
2921.426	56.2
2924.777	61.2
2928.124	70.2
2931.469	77.2
2934.811	83.2
2938.15	89.2
2941.487	96.2
2944.821	87.2
2948.152	83.2
2951.48	81.2
2954.805	72.2
2958.128	67.2
2961.447	63.2
2964.765	58.2
2968.079	56.2
2971.39	61.2
2974.699	55.2
2978.005	61.2
2981.308	57.2
2984.609	55.2
2987.907	57.2
2991.202	52.2
2994.494	46.2
2997.784	42.2
3001.07	49.2
3004.355	53.2
3007.636	54.2
3010.915	55.2
3014.191	45.2
3017.464	46.2
3020.734	49.2
3024.002	48.2
3027.267	51.2
3030.53	44.2
3033.789	53.2
3037.046	56.2
3040.301	52.2
3043.552	59.2
3046.801	60.2
3050.048	57.2
3053.291	66.2
3056.532	57.2
3059.771	68.2
3063.006	73.2
3066.239	74.2
3069.469	87.2
3072.697	87.2
3075.922	77.2
3079.144	85.2
3082.364	84.2
3085.581	86.2
3088.795	87.2
3092.007	95.2
3095.216	95.2
3098.423	97.2
3101.627	88.2
3104.828	98.2
3108.026	104.2
3111.222	102.2
3114.416	102.2
3117.607	110.2
3120.795	116.2
3123.98	117.2
3127.163	127.2
3130.344	129.2
3133.521	120.2
3136.696	126.2
3139.869	136.2
3143.039	136.2
3146.206	136.2
3149.371	137.2
3152.533	145.2
3155.693	142.2
3158.85	138.2
3162.005	143.2
3165.157	141.2
3168.306	143.2
3171.453	141.2
3174.597	140.2
3177.739	145.2
3180.878	141.2
3184.014	139.2
3187.149	140.2
3190.28	145.2
3193.409	148.2
3196.536	140.2
3199.659	149.2
3202.781	146.2
3205.9	140.2
3209.016	137.2
3212.13	145.2
3215.241	143.2
3218.35	141.2
3221.456	135.2
3224.56	126.2
3227.661	129.2
3230.76	123.2
3233.856	127.2
3236.95	119.2
3240.041	118.2
3243.13	121.2
3246.216	109.2
3249.3	112.2
3252.382	107.2
3255.46	107.2
3258.537	106.2
3261.611	107.2
3264.682	103.2
3267.751	110.2
3270.818	93.2
3273.882	105.2
3276.943	98.2
3280.002	103.2
3283.059	100.2
3286.113	98.2
3289.165	96.2
3292.214	99.2
3295.261	97.2
3298.306	97.2
3301.348	98.2
3304.387	92.2
3307.425	91.2
3310.459	87.2
3313.492	89.2
3316.521	92.2
3319.549	100.2
3322.574	89.2
3325.597	97.2
3328.617	91.2
3331.635	97.2
3334.65	91.2
3337.663	84.2
3340.674	83.2
3343.682	89.2
3346.688	96.2
3349.691	100.2
3352.692	92.2
3355.691	92.2
3358.687	83.2
3361.681	82.2
3364.673	88.2
3367.662	83.2
3370.649	88.2
3373.633	81.2
3376.615	76.2
3379.595	74.2
3382.572	67.2
3385.547	70.2
3388.52	75.2
3391.49	60.2
3394.458	68.2
3397.424	65.2
3400.387	68.2
3403.348	61.2
3406.307	59.2
3409.263	59.2
3412.217	61.2
3415.168	65.2
3418.118	55.2
3421.065	58.2
3424.009	59.2
3426.951	49.2
3429.891	55.2
3432.829	44.2
3435.764	54.2
3438.697	42.2
3441.628	33.2
3444.557	35.2
3447.483	37.2
3450.407	37.2
3453.328	36.2
3456.247	31.2
3459.164	32.2
3462.079	21.2
3464.991	25.2
3467.902	17.2
3470.809	14.2
3473.715	24.2
3476.618	16.2
3479.519	10.2
3482.418	11.2
3485.315	5.2
3488.209	-3.8
3491.101	-0.8
3493.99	4.2
3496.878	2.2
3499.763	-2.8
3502.646	-2.8
3505.527	3.2
3508.405	-7.8
3511.281	-5.8
3514.155	-10.8
3517.027	-14.8
3519.897	-10.8
3522.764	-12.8
3525.629	-10.8
3528.492	-14.8
3531.352	-26.8
3534.211	-19.8
3537.067	-27.8
3539.921	-21.8
3542.773	-33.8
3545.622	-23.8
3548.469	-25.8
3551.315	-24.8
3554.157	-26.8
3556.998	-28.8
3559.837	-34.8
3562.673	-30.8
3565.507	-34.8
3568.339	-29.8
3571.169	-37.8
3573.996	-29.8
3576.822	-39.8
3579.645	-35.8
3582.466	-34.8
3585.285	-39.8
3588.101	-40.8
3590.916	-34.8
3593.728	-41.8
3596.538	-43.8
3599.346	-43.8
3602.152	-40.8
3604.956	-40.8
3607.757	-34.8
3610.556	-36.8
3613.354	-50.8
3616.149	-47.8
3618.942	-39.8
3621.732	-42.8
3624.521	-40.8
3627.307	-48.8
3630.092	-44.8
3632.874	-46.8
3635.654	-52.8
3638.432	-44.8
3641.208	-46.8
3643.982	-46.8
3646.753	-50.8
3649.523	-46.8
3652.29	-51.8
3655.055	-45.8
3657.818	-52.8
3660.579	-52.8
3663.338	-47.8
3666.095	-50.8
3668.849	-54.8
3671.602	-49.8
3674.352	-47.8
3677.101	-55.8
3679.847	-52.8
3682.591	-57.8
3685.333	-54.8
3688.073	-59.8
3690.811	-50.8
3693.547	-51.8
3696.281	-48.8
3699.013	-53.8
3701.742	-61.8
3704.47	-50.8
3707.195	-50.8
3709.919	-61.8
3712.64	-54.8
3715.359	-47.8
3718.076	-57.8
3720.792	-56.8
3723.505	-52.8
3726.216	-56.8
3728.925	-65.8
3731.632	-53.8
3734.336	-54.8
3737.039	-56.8
3739.74	-62.8
3742.439	-62.8
3745.136	-57.8
3747.83	-55.8
3750.523	-62.8
3753.213	-71.8
3755.902	-60.8
3758.589	-57.8
3761.273	-54.8
3763.956	-58.8
3766.636	-52.8
3769.315	-54.8
3771.991	-65.8
3774.665	-67.8
3777.338	-55.8
3780.008	-61.8
3782.677	-68.8
3785.343	-54.8
3788.007	-60.8
3790.67	-57.8
3793.33	-60.8
3795.989	-62.8
3798.645	-67.8
3801.299	-56.8
3803.952	-54.8
3806.602	-62.8
3809.251	-61.8
3811.897	-59.8
3814.542	-64.8
3817.184	-62.8
3819.825	-57.8
3822.463	-57.8
3825.1	-56.8
3827.735	-65.8
3830.367	-58.8
3832.998	-59.8
3835.627	-60.8
3838.253	-55.8
3840.878	-58.8
3843.501	-58.8
3846.122	-61.8
3848.741	-59.8
3851.358	-61.8
3853.973	-57.8
3856.586	-53.8
3859.197	-58.8
3861.806	-59.8
3864.414	-62.8
3867.019	-59.8
3869.622	-57.8
3872.224	-52.8
3874.823	-38.8
3877.421	-35.8
3880.016	-17.8
3882.61	-11.8
3885.202	-6.8
3887.792	-13.8
3890.38	-34.8
3892.966	-52.8
3895.55	-53.8
3898.132	-55.8
3900.713	-58.8
3903.291	-58.8
3905.868	-60.8
3908.442	-60.8
3911.015	-58.8
3913.586	-70.8
3916.155	-65.8
3918.722	-60.8
3921.287	-64.8
3923.85	-53.8
3926.411	-61.8
3928.971	-67.8
3931.528	-65.8
3934.084	-61.8
3936.638	-58.8
3939.19	-67.8
3941.74	-61.8
3944.288	-56.8
3946.834	-61.8
3949.378	-62.8
3951.921	-63.8
3954.462	-62.8
3957	-54.8
3959.537	-55.8
3962.072	-60.8
3964.606	-59.8
3967.137	-58.8
3969.667	-56.8
3972.194	-61.8
3974.72	-51.8
3977.244	-56.8
3979.766	-63.8
3982.286	-61.8
3984.805	-72.8
3987.321	-60.8
3989.836	-57.8
3992.349	-55.8
3994.86	-61.8
3997.369	-61.8
3999.877	-57.8
4002.382	-58.8
4004.886	-57.8
4007.388	-63.8
4009.888	-64.8
4012.386	-64.8
4014.883	-59.8
4017.377	-54.8
4019.87	-55.8
4022.361	-60.8
4024.85	-56.8
4027.338	-60.8
4029.823	-63.8
4032.307	-62.8
4034.789	-61.8
4037.269	-61.8
4039.747	-59.8
4042.224	-61.8
4044.699	-60.8
4047.172	-62.8
4049.643	-61.8
4052.112	-57.8
4054.58	-63.8
4057.046	-62.8
4059.51	-65.8
4061.972	-62.8
4064.432	-61.8
4066.891	-58.8
4069.348	-56.8
4071.803	-55.8
4074.256	-57.8
4076.708	-62.8
4079.158	-63.8
4081.606	-59.8
4084.052	-57.8
4086.497	-53.8
4088.939	-55.8
4091.38	-62.8
4093.819	-66.8
4096.257	-60.8
4098.693	-63.8
4101.127	-56.8
4103.559	-69.8
4105.989	23.2
4108.418	18.2
4110.845	15.2
4113.27	10.2
4115.694	10.2
4118.115	17.2
4120.535	-62.8
4122.954	-62.8
4125.37	-59.8
4127.785	-56.8
4130.198	-54.8
4132.609	-58.8
4135.019	-64.8
4137.427	-67.8
4139.833	-64.8
4142.237	-67.8
