Data from 2018-3-7_conc=4_n=9_RamanShift_03.txt Node
Date: Wed Mar 07 12:16:22 IST 2018
User: aro
Spectrometer: QEPB0276
Trigger mode: 0
Integration Time (sec): 3.000000E1
Scans to average: 1
Electric dark correction enabled: true
Nonlinearity correction enabled: false
Boxcar width: 0
XAxis mode: Raman Shifts
Number of Pixels in Spectrum: 1044
>>>>>Begin Spectral Data<<<<<
160.701	9.2
166.742	23.2
172.777	50.2
178.805	147.2
184.826	394.2
190.841	821.2
196.849	1366.2
202.85	1786.2
208.845	1977.2
214.833	1965.2
220.815	1926.2
226.789	1934.2
232.758	1950.2
238.719	1954.2
244.674	1936.2
250.623	1919.2
256.565	1889.2
262.5	1866.2
268.429	1855.2
274.351	1831.2
280.267	1844.2
286.176	1801.2
292.079	1809.2
297.975	1793.2
303.865	1803.2
309.748	1803.2
315.625	1808.2
321.495	1786.2
327.359	1794.2
333.217	1797.2
339.068	1809.2
344.912	1816.2
350.751	1824.2
356.583	1795.2
362.408	1832.2
368.227	1808.2
374.04	1816.2
379.847	1841.2
385.647	1840.2
391.44	1846.2
397.228	1859.2
403.009	1868.2
408.784	1861.2
414.553	1882.2
420.315	1874.2
426.071	1883.2
431.821	1874.2
437.565	1868.2
443.302	1879.2
449.033	1868.2
454.758	1862.2
460.477	1835.2
466.189	1828.2
471.896	1819.2
477.596	1811.2
483.29	1793.2
488.978	1794.2
494.66	1807.2
500.335	1758.2
506.005	1721.2
511.668	1658.2
517.325	1598.2
522.977	1556.2
528.622	1522.2
534.261	1497.2
539.894	1475.2
545.521	1466.2
551.141	1457.2
556.756	1454.2
562.365	1446.2
567.968	1411.2
573.565	1430.2
579.155	1408.2
584.74	1407.2
590.319	1384.2
595.892	1401.2
601.459	1390.2
607.02	1384.2
612.575	1374.2
618.124	1372.2
623.667	1350.2
629.204	1333.2
634.735	1326.2
640.261	1326.2
645.781	1309.2
651.294	1307.2
656.802	1292.2
662.304	1308.2
667.8	1297.2
673.29	1279.2
678.775	1289.2
684.254	1297.2
689.726	1272.2
695.193	1266.2
700.655	1241.2
706.11	1263.2
711.56	1257.2
717.004	1226.2
722.442	1228.2
727.874	1222.2
733.301	1228.2
738.722	1219.2
744.137	1204.2
749.547	1206.2
754.951	1213.2
760.349	1208.2
765.741	1222.2
771.128	1219.2
776.509	1246.2
781.885	1255.2
787.254	1242.2
792.618	1230.2
797.977	1221.2
803.33	1231.2
808.677	1217.2
814.019	1197.2
819.355	1199.2
824.686	1202.2
830.011	1186.2
835.33	1182.2
840.644	1177.2
845.952	1184.2
851.255	1178.2
856.552	1171.2
861.844	1154.2
867.13	1141.2
872.41	1157.2
877.686	1155.2
882.955	1137.2
888.219	1117.2
893.478	1096.2
898.731	1091.2
903.979	1078.2
909.221	1073.2
914.458	1048.2
919.69	1057.2
924.916	1068.2
930.136	1075.2
935.351	1075.2
940.561	1060.2
945.766	1076.2
950.965	1060.2
956.158	1066.2
961.347	1038.2
966.529	1022.2
971.707	1012.2
976.879	993.2
982.046	997.2
987.208	994.2
992.364	977.2
997.515	989.2
1002.66	992.2
1007.801	1028.2
1012.936	1015.2
1018.066	1014.2
1023.19	1014.2
1028.309	1023.2
1033.423	1025.2
1038.532	1019.2
1043.636	1018.2
1048.734	1021.2
1053.827	987.2
1058.915	977.2
1063.998	960.2
1069.075	963.2
1074.147	954.2
1079.214	952.2
1084.276	966.2
1089.333	971.2
1094.385	970.2
1099.431	971.2
1104.472	965.2
1109.509	954.2
1114.54	945.2
1119.565	935.2
1124.586	927.2
1129.602	919.2
1134.613	905.2
1139.618	909.2
1144.619	889.2
1149.614	918.2
1154.604	900.2
1159.589	912.2
1164.57	912.2
1169.545	915.2
1174.515	920.2
1179.48	905.2
1184.44	893.2
1189.395	888.2
1194.345	885.2
1199.29	869.2
1204.23	880.2
1209.165	882.2
1214.095	893.2
1219.021	896.2
1223.941	886.2
1228.856	891.2
1233.766	904.2
1238.672	886.2
1243.572	893.2
1248.467	902.2
1253.358	888.2
1258.244	887.2
1263.124	846.2
1268	845.2
1272.871	833.2
1277.737	825.2
1282.599	817.2
1287.455	815.2
1292.306	817.2
1297.153	829.2
1301.995	828.2
1306.832	829.2
1311.664	853.2
1316.491	836.2
1321.314	834.2
1326.132	827.2
1330.945	815.2
1335.753	803.2
1340.556	784.2
1345.354	760.2
1350.148	752.2
1354.937	738.2
1359.722	730.2
1364.501	710.2
1369.276	707.2
1374.046	682.2
1378.811	671.2
1383.572	675.2
1388.327	671.2
1393.079	660.2
1397.825	680.2
1402.567	678.2
1407.304	677.2
1412.036	685.2
1416.764	683.2
1421.487	680.2
1426.205	672.2
1430.919	692.2
1435.628	699.2
1440.333	707.2
1445.032	694.2
1449.727	720.2
1454.418	714.2
1459.104	699.2
1463.785	689.2
1468.462	686.2
1473.134	669.2
1477.802	642.2
1482.465	632.2
1487.123	621.2
1491.777	603.2
1496.426	600.2
1501.071	604.2
1505.711	584.2
1510.347	588.2
1514.978	578.2
1519.604	574.2
1524.226	576.2
1528.844	572.2
1533.457	561.2
1538.065	565.2
1542.669	557.2
1547.269	552.2
1551.864	565.2
1556.454	572.2
1561.041	586.2
1565.622	584.2
1570.199	591.2
1574.772	602.2
1579.34	603.2
1583.904	617.2
1588.464	626.2
1593.019	628.2
1597.569	631.2
1602.115	625.2
1606.657	629.2
1611.195	623.2
1615.728	635.2
1620.256	609.2
1624.78	605.2
1629.3	623.2
1633.816	611.2
1638.327	625.2
1642.834	608.2
1647.336	602.2
1651.834	615.2
1656.328	619.2
1660.817	607.2
1665.302	603.2
1669.783	591.2
1674.259	569.2
1678.732	560.2
1683.199	545.2
1687.663	522.2
1692.122	496.2
1696.577	479.2
1701.028	459.2
1705.474	436.2
1709.917	426.2
1714.355	408.2
1718.788	408.2
1723.218	412.2
1727.643	410.2
1732.064	409.2
1736.481	415.2
1740.893	397.2
1745.301	394.2
1749.705	385.2
1754.105	375.2
1758.501	364.2
1762.893	368.2
1767.28	355.2
1771.663	355.2
1776.042	341.2
1780.417	342.2
1784.787	329.2
1789.154	325.2
1793.516	310.2
1797.874	310.2
1802.228	313.2
1806.578	298.2
1810.924	299.2
1815.266	299.2
1819.603	295.2
1823.937	288.2
1828.266	298.2
1832.591	317.2
1836.913	301.2
1841.23	309.2
1845.543	309.2
1849.852	319.2
1854.156	318.2
1858.457	314.2
1862.754	319.2
1867.047	324.2
1871.335	309.2
1875.62	314.2
1879.9	312.2
1884.177	295.2
1888.449	299.2
1892.718	298.2
1896.982	299.2
1901.243	282.2
1905.499	269.2
1909.752	267.2
1914	266.2
1918.245	269.2
1922.485	268.2
1926.722	247.2
1930.954	246.2
1935.183	260.2
1939.408	260.2
1943.628	254.2
1947.845	250.2
1952.058	239.2
1956.267	226.2
1960.472	233.2
1964.673	225.2
1968.87	237.2
1973.063	232.2
1977.252	232.2
1981.438	232.2
1985.619	231.2
1989.797	231.2
1993.971	241.2
1998.14	237.2
2002.306	244.2
2006.469	245.2
2010.627	235.2
2014.781	240.2
2018.932	237.2
2023.078	240.2
2027.221	236.2
2031.36	239.2
2035.495	235.2
2039.627	221.2
2043.754	226.2
2047.878	222.2
2051.998	217.2
2056.114	221.2
2060.226	214.2
2064.334	209.2
2068.439	208.2
2072.54	212.2
2076.637	221.2
2080.73	210.2
2084.82	208.2
2088.906	209.2
2092.988	197.2
2097.066	192.2
2101.14	203.2
2105.211	198.2
2109.278	187.2
2113.342	183.2
2117.401	186.2
2121.457	189.2
2125.509	179.2
2129.558	182.2
2133.602	182.2
2137.643	188.2
2141.681	179.2
2145.714	180.2
2149.744	183.2
2153.77	194.2
2157.793	188.2
2161.812	196.2
2165.827	193.2
2169.838	179.2
2173.846	181.2
2177.851	179.2
2181.851	180.2
2185.848	176.2
2189.841	177.2
2193.831	168.2
2197.817	170.2
2201.799	166.2
2205.778	160.2
2209.753	173.2
2213.725	170.2
2217.693	168.2
2221.657	166.2
2225.618	164.2
2229.575	165.2
2233.529	157.2
2237.479	165.2
2241.425	164.2
2245.368	163.2
2249.307	152.2
2253.243	147.2
2257.175	155.2
2261.104	143.2
2265.029	146.2
2268.95	148.2
2272.868	136.2
2276.783	139.2
2280.694	137.2
2284.601	129.2
2288.505	143.2
2292.405	134.2
2296.302	138.2
2300.195	135.2
2304.085	129.2
2307.971	143.2
2311.854	124.2
2315.734	118.2
2319.609	133.2
2323.482	124.2
2327.351	132.2
2331.216	139.2
2335.078	141.2
2338.937	138.2
2342.792	132.2
2346.643	130.2
2350.492	124.2
2354.336	129.2
2358.178	118.2
2362.015	125.2
2365.85	125.2
2369.681	139.2
2373.508	137.2
2377.333	126.2
2381.153	131.2
2384.971	129.2
2388.785	120.2
2392.595	128.2
2396.402	128.2
2400.206	128.2
2404.007	126.2
2407.804	125.2
2411.597	121.2
2415.388	116.2
2419.174	134.2
2422.958	127.2
2426.738	120.2
2430.515	117.2
2434.289	122.2
2438.059	127.2
2441.825	116.2
2445.589	119.2
2449.349	116.2
2453.106	123.2
2456.859	113.2
2460.61	118.2
2464.356	113.2
2468.1	111.2
2471.84	110.2
2475.577	110.2
2479.311	98.2
2483.041	108.2
2486.768	99.2
2490.492	102.2
2494.213	101.2
2497.93	99.2
2501.644	109.2
2505.355	98.2
2509.062	97.2
2512.766	96.2
2516.467	90.2
2520.165	90.2
2523.859	99.2
2527.551	92.2
2531.239	84.2
2534.923	87.2
2538.605	83.2
2542.283	78.2
2545.958	81.2
2549.63	82.2
2553.299	77.2
2556.964	74.2
2560.626	80.2
2564.285	81.2
2567.941	73.2
2571.594	79.2
2575.243	68.2
2578.89	76.2
2582.533	69.2
2586.173	72.2
2589.809	77.2
2593.443	79.2
2597.073	73.2
2600.701	77.2
2604.325	66.2
2607.946	57.2
2611.564	75.2
2615.178	66.2
2618.79	73.2
2622.398	75.2
2626.004	64.2
2629.606	66.2
2633.205	55.2
2636.801	50.2
2640.394	63.2
2643.983	57.2
2647.57	56.2
2651.153	55.2
2654.734	60.2
2658.311	55.2
2661.885	57.2
2665.456	62.2
2669.025	57.2
2672.589	57.2
2676.151	58.2
2679.71	59.2
2683.266	56.2
2686.819	52.2
2690.368	54.2
2693.915	58.2
2697.458	47.2
2700.999	62.2
2704.536	59.2
2708.071	53.2
2711.602	45.2
2715.13	38.2
2718.656	40.2
2722.178	36.2
2725.697	35.2
2729.214	38.2
2732.727	45.2
2736.237	44.2
2739.744	43.2
2743.249	45.2
2746.75	32.2
2750.248	37.2
2753.743	30.2
2757.236	36.2
2760.725	37.2
2764.211	28.2
2767.695	24.2
2771.175	22.2
2774.652	24.2
2778.127	26.2
2781.598	28.2
2785.067	23.2
2788.532	23.2
2791.995	30.2
2795.455	23.2
2798.911	31.2
2802.365	29.2
2805.816	28.2
2809.264	30.2
2812.709	27.2
2816.151	35.2
2819.59	41.2
2823.026	26.2
2826.46	35.2
2829.89	34.2
2833.318	28.2
2836.742	38.2
2840.164	33.2
2843.583	31.2
2846.999	33.2
2850.412	31.2
2853.822	27.2
2857.229	31.2
2860.634	31.2
2864.035	28.2
2867.434	34.2
2870.83	44.2
2874.223	35.2
2877.613	41.2
2881	39.2
2884.385	44.2
2887.766	47.2
2891.145	42.2
2894.521	48.2
2897.894	47.2
2901.264	44.2
2904.631	41.2
2907.996	43.2
2911.358	47.2
2914.717	46.2
2918.073	43.2
2921.426	45.2
2924.777	51.2
2928.124	49.2
2931.469	52.2
2934.811	57.2
2938.15	57.2
2941.487	63.2
2944.821	65.2
2948.152	59.2
2951.48	58.2
2954.805	61.2
2958.128	63.2
2961.447	56.2
2964.765	57.2
2968.079	52.2
2971.39	50.2
2974.699	46.2
2978.005	52.2
2981.308	50.2
2984.609	50.2
2987.907	49.2
2991.202	51.2
2994.494	50.2
2997.784	50.2
3001.07	53.2
3004.355	56.2
3007.636	54.2
3010.915	63.2
3014.191	53.2
3017.464	67.2
3020.734	61.2
3024.002	61.2
3027.267	65.2
3030.53	63.2
3033.789	63.2
3037.046	63.2
3040.301	64.2
3043.552	69.2
3046.801	72.2
3050.048	77.2
3053.291	79.2
3056.532	81.2
3059.771	84.2
3063.006	98.2
3066.239	93.2
3069.469	103.2
3072.697	105.2
3075.922	111.2
3079.144	98.2
3082.364	114.2
3085.581	112.2
3088.795	113.2
3092.007	110.2
3095.216	120.2
3098.423	126.2
3101.627	118.2
3104.828	126.2
3108.026	129.2
3111.222	128.2
3114.416	129.2
3117.607	136.2
3120.795	135.2
3123.98	148.2
3127.163	148.2
3130.344	153.2
3133.521	154.2
3136.696	158.2
3139.869	160.2
3143.039	164.2
3146.206	167.2
3149.371	168.2
3152.533	181.2
3155.693	165.2
3158.85	171.2
3162.005	178.2
3165.157	171.2
3168.306	166.2
3171.453	174.2
3174.597	177.2
3177.739	174.2
3180.878	184.2
3184.014	178.2
3187.149	178.2
3190.28	174.2
3193.409	184.2
3196.536	177.2
3199.659	185.2
3202.781	177.2
3205.9	177.2
3209.016	176.2
3212.13	175.2
3215.241	174.2
3218.35	174.2
3221.456	173.2
3224.56	168.2
3227.661	161.2
3230.76	168.2
3233.856	164.2
3236.95	159.2
3240.041	158.2
3243.13	158.2
3246.216	149.2
3249.3	152.2
3252.382	148.2
3255.46	148.2
3258.537	141.2
3261.611	137.2
3264.682	133.2
3267.751	140.2
3270.818	129.2
3273.882	136.2
3276.943	128.2
3280.002	131.2
3283.059	137.2
3286.113	129.2
3289.165	130.2
3292.214	126.2
3295.261	129.2
3298.306	126.2
3301.348	127.2
3304.387	127.2
3307.425	121.2
3310.459	118.2
3313.492	119.2
3316.521	119.2
3319.549	125.2
3322.574	114.2
3325.597	121.2
3328.617	118.2
3331.635	125.2
3334.65	116.2
3337.663	115.2
3340.674	116.2
3343.682	118.2
3346.688	121.2
3349.691	126.2
3352.692	111.2
3355.691	129.2
3358.687	119.2
3361.681	113.2
3364.673	109.2
3367.662	110.2
3370.649	116.2
3373.633	107.2
3376.615	108.2
3379.595	108.2
3382.572	96.2
3385.547	101.2
3388.52	103.2
3391.49	90.2
3394.458	91.2
3397.424	95.2
3400.387	96.2
3403.348	89.2
3406.307	85.2
3409.263	91.2
3412.217	90.2
3415.168	91.2
3418.118	87.2
3421.065	79.2
3424.009	81.2
3426.951	79.2
3429.891	77.2
3432.829	77.2
3435.764	76.2
3438.697	68.2
3441.628	56.2
3444.557	72.2
3447.483	64.2
3450.407	60.2
3453.328	60.2
3456.247	50.2
3459.164	57.2
3462.079	43.2
3464.991	45.2
3467.902	41.2
3470.809	42.2
3473.715	35.2
3476.618	38.2
3479.519	25.2
3482.418	29.2
3485.315	22.2
3488.209	20.2
3491.101	17.2
3493.99	22.2
3496.878	10.2
3499.763	6.2
3502.646	10.2
3505.527	13.2
3508.405	9.2
3511.281	10.2
3514.155	8.2
3517.027	-5.8
3519.897	6.2
3522.764	-2.8
3525.629	4.2
3528.492	-6.8
3531.352	-7.8
3534.211	-8.8
3537.067	-4.8
3539.921	-11.8
3542.773	-15.8
3545.622	-11.8
3548.469	-18.8
3551.315	-15.8
3554.157	-15.8
3556.998	-14.8
3559.837	-22.8
3562.673	-21.8
3565.507	-18.8
3568.339	-15.8
3571.169	-18.8
3573.996	-18.8
3576.822	-26.8
3579.645	-20.8
3582.466	-25.8
3585.285	-28.8
3588.101	-30.8
3590.916	-21.8
3593.728	-34.8
3596.538	-35.8
3599.346	-39.8
3602.152	-26.8
3604.956	-28.8
3607.757	-29.8
3610.556	-32.8
3613.354	-38.8
3616.149	-39.8
3618.942	-37.8
3621.732	-38.8
3624.521	-32.8
3627.307	-31.8
3630.092	-42.8
3632.874	-37.8
3635.654	-40.8
3638.432	-36.8
3641.208	-36.8
3643.982	-34.8
3646.753	-43.8
3649.523	-38.8
3652.29	-43.8
3655.055	-38.8
3657.818	-39.8
3660.579	-49.8
3663.338	-41.8
3666.095	-42.8
3668.849	-41.8
3671.602	-43.8
3674.352	-41.8
3677.101	-44.8
3679.847	-38.8
3682.591	-49.8
3685.333	-47.8
3688.073	-48.8
3690.811	-47.8
3693.547	-45.8
3696.281	-46.8
3699.013	-48.8
3701.742	-50.8
3704.47	-42.8
3707.195	-47.8
3709.919	-45.8
3712.64	-52.8
3715.359	-52.8
3718.076	-54.8
3720.792	-50.8
3723.505	-49.8
3726.216	-45.8
3728.925	-52.8
3731.632	-44.8
3734.336	-50.8
3737.039	-44.8
3739.74	-49.8
3742.439	-55.8
3745.136	-48.8
3747.83	-53.8
3750.523	-49.8
3753.213	-63.8
3755.902	-53.8
3758.589	-55.8
3761.273	-50.8
3763.956	-55.8
3766.636	-48.8
3769.315	-46.8
3771.991	-53.8
3774.665	-55.8
3777.338	-50.8
3780.008	-51.8
3782.677	-56.8
3785.343	-51.8
3788.007	-51.8
3790.67	-52.8
3793.33	-51.8
3795.989	-53.8
3798.645	-50.8
3801.299	-55.8
3803.952	-51.8
3806.602	-52.8
3809.251	-57.8
3811.897	-60.8
3814.542	-56.8
3817.184	-60.8
3819.825	-52.8
3822.463	-52.8
3825.1	-53.8
3827.735	-55.8
3830.367	-55.8
3832.998	-58.8
3835.627	-56.8
3838.253	-49.8
3840.878	-46.8
3843.501	-48.8
3846.122	-55.8
3848.741	-58.8
3851.358	-50.8
3853.973	-46.8
3856.586	-50.8
3859.197	-55.8
3861.806	-60.8
3864.414	-57.8
3867.019	-52.8
3869.622	-43.8
3872.224	-46.8
3874.823	-33.8
3877.421	-36.8
3880.016	-20.8
3882.61	-5.8
3885.202	-9.8
3887.792	-12.8
3890.38	-22.8
3892.966	-40.8
3895.55	-45.8
3898.132	-51.8
3900.713	-55.8
3903.291	-53.8
3905.868	-52.8
3908.442	-53.8
3911.015	-53.8
3913.586	-57.8
3916.155	-57.8
3918.722	-55.8
3921.287	-58.8
3923.85	-47.8
3926.411	-55.8
3928.971	-63.8
3931.528	-57.8
3934.084	-54.8
3936.638	-53.8
3939.19	-62.8
3941.74	-50.8
3944.288	-47.8
3946.834	-48.8
3949.378	-53.8
3951.921	-56.8
3954.462	-52.8
3957	-48.8
3959.537	-44.8
3962.072	-50.8
3964.606	-50.8
3967.137	-53.8
3969.667	-54.8
3972.194	-54.8
3974.72	-52.8
3977.244	-52.8
3979.766	-60.8
3982.286	-56.8
3984.805	-58.8
3987.321	-52.8
3989.836	-47.8
3992.349	-51.8
3994.86	-59.8
3997.369	-56.8
3999.877	-47.8
4002.382	-52.8
4004.886	-49.8
4007.388	-52.8
4009.888	-54.8
4012.386	-54.8
4014.883	-50.8
4017.377	-48.8
4019.87	-52.8
4022.361	-57.8
4024.85	-56.8
4027.338	-58.8
4029.823	-54.8
4032.307	-51.8
4034.789	-44.8
4037.269	-51.8
4039.747	-55.8
4042.224	-53.8
4044.699	-53.8
4047.172	-60.8
4049.643	-54.8
4052.112	-52.8
4054.58	-51.8
4057.046	-53.8
4059.51	-55.8
4061.972	-58.8
4064.432	-56.8
4066.891	-48.8
4069.348	-52.8
4071.803	-48.8
4074.256	-52.8
4076.708	-55.8
4079.158	-55.8
4081.606	-51.8
4084.052	-53.8
4086.497	-48.8
4088.939	-55.8
4091.38	-57.8
4093.819	-59.8
4096.257	-55.8
4098.693	-55.8
4101.127	-50.8
4103.559	-55.8
4105.989	11.2
4108.418	6.2
4110.845	8.2
4113.27	6.2
4115.694	9.2
4118.115	10.2
4120.535	-48.8
4122.954	-46.8
4125.37	-49.8
4127.785	-52.8
4130.198	-54.8
4132.609	-55.8
4135.019	-55.8
4137.427	-59.8
4139.833	-54.8
4142.237	-59.8
