Data from 2018-3-7_conc=2_n=1_RamanShift_02.txt Node
Date: Wed Mar 07 10:39:52 IST 2018
User: aro
Spectrometer: QEPB0276
Trigger mode: 0
Integration Time (sec): 3.000000E1
Scans to average: 1
Electric dark correction enabled: true
Nonlinearity correction enabled: false
Boxcar width: 0
XAxis mode: Raman Shifts
Number of Pixels in Spectrum: 1044
>>>>>Begin Spectral Data<<<<<
160.701	13.4
166.742	22.4
172.777	60.4
178.805	157.4
184.826	423.4
190.841	890.4
196.849	1459.4
202.85	1901.4
208.845	2071.4
214.833	2066.4
220.815	2051.4
226.789	2048.4
232.758	2065.4
238.719	2072.4
244.674	2039.4
250.623	2038.4
256.565	2030.4
262.5	2005.4
268.429	1977.4
274.351	1976.4
280.267	1946.4
286.176	1949.4
292.079	1962.4
297.975	1966.4
303.865	1971.4
309.748	1968.4
315.625	1979.4
321.495	1950.4
327.359	1978.4
333.217	1972.4
339.068	1991.4
344.912	1987.4
350.751	1997.4
356.583	1994.4
362.408	2018.4
368.227	2031.4
374.04	2024.4
379.847	2037.4
385.647	2039.4
391.44	2079.4
397.228	2071.4
403.009	2085.4
408.784	2107.4
414.553	2097.4
420.315	2111.4
426.071	2112.4
431.821	2129.4
437.565	2110.4
443.302	2123.4
449.033	2098.4
454.758	2090.4
460.477	2077.4
466.189	2054.4
471.896	2054.4
477.596	2008.4
483.29	2015.4
488.978	2007.4
494.66	2008.4
500.335	1947.4
506.005	1868.4
511.668	1778.4
517.325	1707.4
522.977	1625.4
528.622	1582.4
534.261	1544.4
539.894	1502.4
545.521	1489.4
551.141	1452.4
556.756	1453.4
562.365	1456.4
567.968	1448.4
573.565	1426.4
579.155	1411.4
584.74	1400.4
590.319	1407.4
595.892	1408.4
601.459	1393.4
607.02	1379.4
612.575	1383.4
618.124	1372.4
623.667	1345.4
629.204	1322.4
634.735	1343.4
640.261	1297.4
645.781	1295.4
651.294	1277.4
656.802	1270.4
662.304	1278.4
667.8	1283.4
673.29	1269.4
678.775	1256.4
684.254	1259.4
689.726	1259.4
695.193	1251.4
700.655	1247.4
706.11	1236.4
711.56	1216.4
717.004	1219.4
722.442	1217.4
727.874	1195.4
733.301	1192.4
738.722	1200.4
744.137	1198.4
749.547	1200.4
754.951	1182.4
760.349	1182.4
765.741	1195.4
771.128	1197.4
776.509	1217.4
781.885	1230.4
787.254	1240.4
792.618	1248.4
797.977	1237.4
803.33	1244.4
808.677	1231.4
814.019	1212.4
819.355	1213.4
824.686	1187.4
830.011	1182.4
835.33	1183.4
840.644	1177.4
845.952	1166.4
851.255	1154.4
856.552	1155.4
861.844	1144.4
867.13	1131.4
872.41	1121.4
877.686	1127.4
882.955	1131.4
888.219	1115.4
893.478	1096.4
898.731	1061.4
903.979	1039.4
909.221	1038.4
914.458	1031.4
919.69	1043.4
924.916	1029.4
930.136	1024.4
935.351	1054.4
940.561	1035.4
945.766	1036.4
950.965	1027.4
956.158	1009.4
961.347	1015.4
966.529	996.4
971.707	988.4
976.879	987.4
982.046	946.4
987.208	960.4
992.364	948.4
997.515	959.4
1002.66	971.4
1007.801	985.4
1012.936	980.4
1018.066	989.4
1023.19	986.4
1028.309	994.4
1033.423	981.4
1038.532	998.4
1043.636	984.4
1048.734	979.4
1053.827	965.4
1058.915	956.4
1063.998	939.4
1069.075	934.4
1074.147	946.4
1079.214	941.4
1084.276	956.4
1089.333	953.4
1094.385	965.4
1099.431	944.4
1104.472	944.4
1109.509	924.4
1114.54	912.4
1119.565	893.4
1124.586	894.4
1129.602	892.4
1134.613	870.4
1139.618	873.4
1144.619	866.4
1149.614	868.4
1154.604	865.4
1159.589	878.4
1164.57	872.4
1169.545	877.4
1174.515	873.4
1179.48	881.4
1184.44	858.4
1189.395	862.4
1194.345	846.4
1199.29	849.4
1204.23	855.4
1209.165	857.4
1214.095	851.4
1219.021	841.4
1223.941	875.4
1228.856	863.4
1233.766	880.4
1238.672	870.4
1243.572	858.4
1248.467	857.4
1253.358	845.4
1258.244	849.4
1263.124	822.4
1268	798.4
1272.871	790.4
1277.737	792.4
1282.599	790.4
1287.455	792.4
1292.306	783.4
1297.153	793.4
1301.995	802.4
1306.832	809.4
1311.664	811.4
1316.491	810.4
1321.314	786.4
1326.132	803.4
1330.945	779.4
1335.753	766.4
1340.556	739.4
1345.354	731.4
1350.148	721.4
1354.937	715.4
1359.722	685.4
1364.501	679.4
1369.276	666.4
1374.046	654.4
1378.811	657.4
1383.572	649.4
1388.327	651.4
1393.079	645.4
1397.825	639.4
1402.567	661.4
1407.304	666.4
1412.036	670.4
1416.764	670.4
1421.487	664.4
1426.205	670.4
1430.919	663.4
1435.628	665.4
1440.333	681.4
1445.032	674.4
1449.727	685.4
1454.418	693.4
1459.104	682.4
1463.785	669.4
1468.462	660.4
1473.134	645.4
1477.802	622.4
1482.465	593.4
1487.123	592.4
1491.777	575.4
1496.426	586.4
1501.071	567.4
1505.711	561.4
1510.347	559.4
1514.978	549.4
1519.604	538.4
1524.226	548.4
1528.844	543.4
1533.457	547.4
1538.065	536.4
1542.669	543.4
1547.269	537.4
1551.864	546.4
1556.454	558.4
1561.041	588.4
1565.622	567.4
1570.199	567.4
1574.772	575.4
1579.34	577.4
1583.904	580.4
1588.464	602.4
1593.019	600.4
1597.569	607.4
1602.115	607.4
1606.657	601.4
1611.195	593.4
1615.728	591.4
1620.256	587.4
1624.78	584.4
1629.3	580.4
1633.816	588.4
1638.327	590.4
1642.834	587.4
1647.336	579.4
1651.834	580.4
1656.328	584.4
1660.817	580.4
1665.302	568.4
1669.783	560.4
1674.259	552.4
1678.732	527.4
1683.199	510.4
1687.663	493.4
1692.122	461.4
1696.577	457.4
1701.028	423.4
1705.474	413.4
1709.917	403.4
1714.355	383.4
1718.788	392.4
1723.218	390.4
1727.643	380.4
1732.064	390.4
1736.481	390.4
1740.893	379.4
1745.301	377.4
1749.705	379.4
1754.105	347.4
1758.501	350.4
1762.893	334.4
1767.28	320.4
1771.663	320.4
1776.042	322.4
1780.417	318.4
1784.787	312.4
1789.154	304.4
1793.516	285.4
1797.874	282.4
1802.228	300.4
1806.578	279.4
1810.924	283.4
1815.266	278.4
1819.603	284.4
1823.937	300.4
1828.266	289.4
1832.591	286.4
1836.913	291.4
1841.23	286.4
1845.543	287.4
1849.852	291.4
1854.156	298.4
1858.457	293.4
1862.754	288.4
1867.047	288.4
1871.335	288.4
1875.62	288.4
1879.9	293.4
1884.177	275.4
1888.449	286.4
1892.718	268.4
1896.982	266.4
1901.243	257.4
1905.499	249.4
1909.752	249.4
1914	241.4
1918.245	240.4
1922.485	233.4
1926.722	232.4
1930.954	230.4
1935.183	233.4
1939.408	230.4
1943.628	235.4
1947.845	223.4
1952.058	222.4
1956.267	226.4
1960.472	223.4
1964.673	219.4
1968.87	221.4
1973.063	218.4
1977.252	222.4
1981.438	221.4
1985.619	210.4
1989.797	219.4
1993.971	218.4
1998.14	225.4
2002.306	217.4
2006.469	223.4
2010.627	225.4
2014.781	226.4
2018.932	220.4
2023.078	223.4
2027.221	225.4
2031.36	223.4
2035.495	215.4
2039.627	199.4
2043.754	204.4
2047.878	202.4
2051.998	197.4
2056.114	197.4
2060.226	191.4
2064.334	190.4
2068.439	196.4
2072.54	191.4
2076.637	189.4
2080.73	192.4
2084.82	196.4
2088.906	195.4
2092.988	185.4
2097.066	180.4
2101.14	185.4
2105.211	172.4
2109.278	177.4
2113.342	167.4
2117.401	168.4
2121.457	172.4
2125.509	177.4
2129.558	173.4
2133.602	172.4
2137.643	172.4
2141.681	168.4
2145.714	183.4
2149.744	174.4
2153.77	176.4
2157.793	170.4
2161.812	181.4
2165.827	175.4
2169.838	172.4
2173.846	170.4
2177.851	166.4
2181.851	163.4
2185.848	164.4
2189.841	151.4
2193.831	145.4
2197.817	159.4
2201.799	158.4
2205.778	159.4
2209.753	162.4
2213.725	162.4
2217.693	162.4
2221.657	167.4
2225.618	148.4
2229.575	149.4
2233.529	141.4
2237.479	155.4
2241.425	143.4
2245.368	146.4
2249.307	148.4
2253.243	143.4
2257.175	140.4
2261.104	134.4
2265.029	135.4
2268.95	137.4
2272.868	133.4
2276.783	119.4
2280.694	126.4
2284.601	122.4
2288.505	130.4
2292.405	121.4
2296.302	134.4
2300.195	114.4
2304.085	121.4
2307.971	118.4
2311.854	113.4
2315.734	113.4
2319.609	119.4
2323.482	113.4
2327.351	118.4
2331.216	135.4
2335.078	145.4
2338.937	127.4
2342.792	124.4
2346.643	120.4
2350.492	121.4
2354.336	122.4
2358.178	111.4
2362.015	120.4
2365.85	118.4
2369.681	111.4
2373.508	119.4
2377.333	116.4
2381.153	113.4
2384.971	115.4
2388.785	116.4
2392.595	117.4
2396.402	117.4
2400.206	117.4
2404.007	117.4
2407.804	117.4
2411.597	110.4
2415.388	114.4
2419.174	113.4
2422.958	107.4
2426.738	105.4
2430.515	110.4
2434.289	108.4
2438.059	106.4
2441.825	100.4
2445.589	102.4
2449.349	99.4
2453.106	102.4
2456.859	94.4
2460.61	91.4
2464.356	97.4
2468.1	92.4
2471.84	88.4
2475.577	91.4
2479.311	90.4
2483.041	83.4
2486.768	89.4
2490.492	87.4
2494.213	86.4
2497.93	84.4
2501.644	85.4
2505.355	77.4
2509.062	78.4
2512.766	75.4
2516.467	81.4
2520.165	83.4
2523.859	87.4
2527.551	76.4
2531.239	80.4
2534.923	71.4
2538.605	67.4
2542.283	66.4
2545.958	66.4
2549.63	69.4
2553.299	62.4
2556.964	68.4
2560.626	66.4
2564.285	70.4
2567.941	69.4
2571.594	60.4
2575.243	61.4
2578.89	56.4
2582.533	57.4
2586.173	56.4
2589.809	70.4
2593.443	64.4
2597.073	64.4
2600.701	65.4
2604.325	52.4
2607.946	43.4
2611.564	61.4
2615.178	59.4
2618.79	57.4
2622.398	53.4
2626.004	48.4
2629.606	52.4
2633.205	51.4
2636.801	53.4
2640.394	64.4
2643.983	52.4
2647.57	46.4
2651.153	40.4
2654.734	48.4
2658.311	41.4
2661.885	46.4
2665.456	43.4
2669.025	47.4
2672.589	41.4
2676.151	39.4
2679.71	38.4
2683.266	44.4
2686.819	50.4
2690.368	40.4
2693.915	40.4
2697.458	33.4
2700.999	44.4
2704.536	38.4
2708.071	35.4
2711.602	32.4
2715.13	26.4
2718.656	32.4
2722.178	33.4
2725.697	32.4
2729.214	27.4
2732.727	32.4
2736.237	32.4
2739.744	27.4
2743.249	27.4
2746.75	22.4
2750.248	24.4
2753.743	25.4
2757.236	17.4
2760.725	19.4
2764.211	24.4
2767.695	22.4
2771.175	19.4
2774.652	16.4
2778.127	18.4
2781.598	18.4
2785.067	20.4
2788.532	24.4
2791.995	23.4
2795.455	12.4
2798.911	20.4
2802.365	20.4
2805.816	24.4
2809.264	18.4
2812.709	15.4
2816.151	20.4
2819.59	31.4
2823.026	25.4
2826.46	23.4
2829.89	23.4
2833.318	19.4
2836.742	23.4
2840.164	17.4
2843.583	19.4
2846.999	24.4
2850.412	24.4
2853.822	26.4
2857.229	25.4
2860.634	21.4
2864.035	25.4
2867.434	34.4
2870.83	34.4
2874.223	31.4
2877.613	29.4
2881	40.4
2884.385	39.4
2887.766	39.4
2891.145	40.4
2894.521	43.4
2897.894	39.4
2901.264	44.4
2904.631	37.4
2907.996	46.4
2911.358	40.4
2914.717	38.4
2918.073	39.4
2921.426	39.4
2924.777	49.4
2928.124	46.4
2931.469	54.4
2934.811	63.4
2938.15	66.4
2941.487	59.4
2944.821	58.4
2948.152	60.4
2951.48	56.4
2954.805	57.4
2958.128	55.4
2961.447	52.4
2964.765	43.4
2968.079	47.4
2971.39	44.4
2974.699	42.4
2978.005	50.4
2981.308	43.4
2984.609	45.4
2987.907	53.4
2991.202	53.4
2994.494	44.4
2997.784	47.4
3001.07	50.4
3004.355	48.4
3007.636	57.4
3010.915	48.4
3014.191	50.4
3017.464	50.4
3020.734	49.4
3024.002	52.4
3027.267	55.4
3030.53	59.4
3033.789	62.4
3037.046	55.4
3040.301	60.4
3043.552	66.4
3046.801	65.4
3050.048	74.4
3053.291	69.4
3056.532	76.4
3059.771	81.4
3063.006	81.4
3066.239	82.4
3069.469	98.4
3072.697	92.4
3075.922	100.4
3079.144	100.4
3082.364	102.4
3085.581	96.4
3088.795	106.4
3092.007	103.4
3095.216	113.4
3098.423	118.4
3101.627	112.4
3104.828	118.4
3108.026	123.4
3111.222	130.4
3114.416	123.4
3117.607	132.4
3120.795	127.4
3123.98	132.4
3127.163	138.4
3130.344	145.4
3133.521	144.4
3136.696	153.4
3139.869	158.4
3143.039	151.4
3146.206	170.4
3149.371	163.4
3152.533	180.4
3155.693	161.4
3158.85	165.4
3162.005	165.4
3165.157	157.4
3168.306	163.4
3171.453	165.4
3174.597	161.4
3177.739	173.4
3180.878	170.4
3184.014	165.4
3187.149	175.4
3190.28	163.4
3193.409	173.4
3196.536	166.4
3199.659	172.4
3202.781	171.4
3205.9	165.4
3209.016	170.4
3212.13	176.4
3215.241	172.4
3218.35	165.4
3221.456	164.4
3224.56	152.4
3227.661	158.4
3230.76	150.4
3233.856	158.4
3236.95	143.4
3240.041	144.4
3243.13	148.4
3246.216	143.4
3249.3	137.4
3252.382	130.4
3255.46	131.4
3258.537	131.4
3261.611	124.4
3264.682	125.4
3267.751	132.4
3270.818	121.4
3273.882	128.4
3276.943	123.4
3280.002	126.4
3283.059	120.4
3286.113	114.4
3289.165	120.4
3292.214	110.4
3295.261	120.4
3298.306	119.4
3301.348	114.4
3304.387	117.4
3307.425	118.4
3310.459	109.4
3313.492	113.4
3316.521	111.4
3319.549	121.4
3322.574	111.4
3325.597	108.4
3328.617	114.4
3331.635	117.4
3334.65	119.4
3337.663	104.4
3340.674	116.4
3343.682	112.4
3346.688	103.4
3349.691	115.4
3352.692	106.4
3355.691	113.4
3358.687	112.4
3361.681	106.4
3364.673	109.4
3367.662	106.4
3370.649	109.4
3373.633	99.4
3376.615	96.4
3379.595	93.4
3382.572	86.4
3385.547	95.4
3388.52	91.4
3391.49	86.4
3394.458	82.4
3397.424	90.4
3400.387	86.4
3403.348	84.4
3406.307	74.4
3409.263	82.4
3412.217	76.4
3415.168	81.4
3418.118	72.4
3421.065	69.4
3424.009	68.4
3426.951	66.4
3429.891	68.4
3432.829	63.4
3435.764	69.4
3438.697	67.4
3441.628	51.4
3444.557	50.4
3447.483	55.4
3450.407	44.4
3453.328	44.4
3456.247	40.4
3459.164	37.4
3462.079	33.4
3464.991	36.4
3467.902	36.4
3470.809	30.4
3473.715	34.4
3476.618	19.4
3479.519	24.4
3482.418	12.4
3485.315	19.4
3488.209	7.4
3491.101	7.4
3493.99	16.4
3496.878	7.4
3499.763	1.4
3502.646	1.4
3505.527	4.4
3508.405	0.4
3511.281	4.4
3514.155	-0.6
3517.027	-4.6
3519.897	-5.6
3522.764	-9.6
3525.629	-15.6
3528.492	-14.6
3531.352	-15.6
3534.211	-20.6
3537.067	-17.6
3539.921	-13.6
3542.773	-20.6
3545.622	-14.6
3548.469	-18.6
3551.315	-24.6
3554.157	-27.6
3556.998	-29.6
3559.837	-29.6
3562.673	-29.6
3565.507	-30.6
3568.339	-26.6
3571.169	-26.6
3573.996	-25.6
3576.822	-37.6
3579.645	-35.6
3582.466	-35.6
3585.285	-33.6
3588.101	-36.6
3590.916	-31.6
3593.728	-36.6
3596.538	-39.6
3599.346	-38.6
3602.152	-35.6
3604.956	-39.6
3607.757	-37.6
3610.556	-39.6
3613.354	-43.6
3616.149	-51.6
3618.942	-46.6
3621.732	-43.6
3624.521	-43.6
3627.307	-43.6
3630.092	-45.6
3632.874	-47.6
3635.654	-49.6
3638.432	-40.6
3641.208	-42.6
3643.982	-46.6
3646.753	-50.6
3649.523	-50.6
3652.29	-53.6
3655.055	-43.6
3657.818	-54.6
3660.579	-50.6
3663.338	-42.6
3666.095	-47.6
3668.849	-50.6
3671.602	-51.6
3674.352	-49.6
3677.101	-54.6
3679.847	-51.6
3682.591	-57.6
3685.333	-50.6
3688.073	-58.6
3690.811	-52.6
3693.547	-58.6
3696.281	-53.6
3699.013	-53.6
3701.742	-57.6
3704.47	-49.6
3707.195	-56.6
3709.919	-56.6
3712.64	-57.6
3715.359	-56.6
3718.076	-60.6
3720.792	-60.6
3723.505	-56.6
3726.216	-52.6
3728.925	-58.6
3731.632	-53.6
3734.336	-56.6
3737.039	-55.6
3739.74	-65.6
3742.439	-62.6
3745.136	-61.6
3747.83	-60.6
3750.523	-57.6
3753.213	-55.6
3755.902	-60.6
3758.589	-61.6
3761.273	-58.6
3763.956	-58.6
3766.636	-56.6
3769.315	-53.6
3771.991	-60.6
3774.665	-64.6
3777.338	-61.6
3780.008	-59.6
3782.677	-64.6
3785.343	-63.6
3788.007	-61.6
3790.67	-65.6
3793.33	-58.6
3795.989	-58.6
3798.645	-65.6
3801.299	-62.6
3803.952	-61.6
3806.602	-59.6
3809.251	-64.6
3811.897	-63.6
3814.542	-62.6
3817.184	-60.6
3819.825	-56.6
3822.463	-61.6
3825.1	-58.6
3827.735	-62.6
3830.367	-62.6
3832.998	-65.6
3835.627	-63.6
3838.253	-55.6
3840.878	-57.6
3843.501	-51.6
3846.122	-65.6
3848.741	-58.6
3851.358	-59.6
3853.973	-56.6
3856.586	-62.6
3859.197	-61.6
3861.806	-60.6
3864.414	-60.6
3867.019	-62.6
3869.622	-55.6
3872.224	-50.6
3874.823	-43.6
3877.421	-33.6
3880.016	-23.6
3882.61	-5.6
3885.202	-0.6
3887.792	-16.6
3890.38	-27.6
3892.966	-43.6
3895.55	-55.6
3898.132	-56.6
3900.713	-60.6
3903.291	-58.6
3905.868	-57.6
3908.442	-57.6
3911.015	-60.6
3913.586	-66.6
3916.155	-63.6
3918.722	-62.6
3921.287	-63.6
3923.85	-58.6
3926.411	-60.6
3928.971	-61.6
3931.528	-62.6
3934.084	-61.6
3936.638	-62.6
3939.19	-66.6
3941.74	-62.6
3944.288	-61.6
3946.834	-61.6
3949.378	-58.6
3951.921	-62.6
3954.462	-60.6
3957	-56.6
3959.537	-55.6
3962.072	-53.6
3964.606	-64.6
3967.137	-60.6
3969.667	-65.6
3972.194	-62.6
3974.72	-59.6
3977.244	-58.6
3979.766	-60.6
3982.286	-64.6
3984.805	-66.6
3987.321	-59.6
3989.836	-59.6
3992.349	-59.6
3994.86	-67.6
3997.369	-66.6
3999.877	-62.6
4002.382	-66.6
4004.886	-57.6
4007.388	-60.6
4009.888	-61.6
4012.386	-64.6
4014.883	-60.6
4017.377	-50.6
4019.87	-64.6
4022.361	-64.6
4024.85	-61.6
4027.338	-63.6
4029.823	-61.6
4032.307	-61.6
4034.789	-56.6
4037.269	-55.6
4039.747	-57.6
4042.224	-68.6
4044.699	-61.6
4047.172	-65.6
4049.643	-58.6
4052.112	-58.6
4054.58	-63.6
4057.046	-55.6
4059.51	-62.6
4061.972	-63.6
4064.432	-56.6
4066.891	-56.6
4069.348	-58.6
4071.803	-59.6
4074.256	-66.6
4076.708	-66.6
4079.158	-64.6
4081.606	-61.6
4084.052	-61.6
4086.497	-53.6
4088.939	-53.6
4091.38	-61.6
4093.819	-58.6
4096.257	-64.6
4098.693	-66.6
4101.127	-57.6
4103.559	-66.6
4105.989	21.4
4108.418	14.4
4110.845	6.4
4113.27	16.4
4115.694	10.4
4118.115	11.4
4120.535	-60.6
4122.954	-62.6
4125.37	-59.6
4127.785	-54.6
4130.198	-60.6
4132.609	-63.6
4135.019	-64.6
4137.427	-64.6
4139.833	-58.6
4142.237	-65.6
