Data from 2018-3-7_conc=2_n=7_RamanShift_02.txt Node
Date: Wed Mar 07 10:58:22 IST 2018
User: aro
Spectrometer: QEPB0276
Trigger mode: 0
Integration Time (sec): 3.000000E1
Scans to average: 1
Electric dark correction enabled: true
Nonlinearity correction enabled: false
Boxcar width: 0
XAxis mode: Raman Shifts
Number of Pixels in Spectrum: 1044
>>>>>Begin Spectral Data<<<<<
160.701	21.2
166.742	22.2
172.777	56.2
178.805	137.2
184.826	348.2
190.841	727.2
196.849	1197.2
202.85	1536.2
208.845	1676.2
214.833	1690.2
220.815	1659.2
226.789	1667.2
232.758	1675.2
238.719	1688.2
244.674	1679.2
250.623	1669.2
256.565	1646.2
262.5	1649.2
268.429	1633.2
274.351	1615.2
280.267	1610.2
286.176	1616.2
292.079	1618.2
297.975	1614.2
303.865	1629.2
309.748	1620.2
315.625	1628.2
321.495	1621.2
327.359	1638.2
333.217	1632.2
339.068	1626.2
344.912	1639.2
350.751	1641.2
356.583	1658.2
362.408	1672.2
368.227	1651.2
374.04	1665.2
379.847	1680.2
385.647	1657.2
391.44	1675.2
397.228	1686.2
403.009	1717.2
408.784	1722.2
414.553	1723.2
420.315	1706.2
426.071	1727.2
431.821	1734.2
437.565	1733.2
443.302	1743.2
449.033	1740.2
454.758	1705.2
460.477	1679.2
466.189	1675.2
471.896	1673.2
477.596	1658.2
483.29	1655.2
488.978	1650.2
494.66	1638.2
500.335	1584.2
506.005	1536.2
511.668	1458.2
517.325	1404.2
522.977	1360.2
528.622	1317.2
534.261	1281.2
539.894	1245.2
545.521	1250.2
551.141	1235.2
556.756	1210.2
562.365	1200.2
567.968	1194.2
573.565	1188.2
579.155	1180.2
584.74	1176.2
590.319	1161.2
595.892	1168.2
601.459	1163.2
607.02	1158.2
612.575	1150.2
618.124	1137.2
623.667	1122.2
629.204	1111.2
634.735	1100.2
640.261	1098.2
645.781	1090.2
651.294	1081.2
656.802	1080.2
662.304	1084.2
667.8	1063.2
673.29	1079.2
678.775	1056.2
684.254	1067.2
689.726	1046.2
695.193	1062.2
700.655	1038.2
706.11	1035.2
711.56	1034.2
717.004	1020.2
722.442	1003.2
727.874	1016.2
733.301	1005.2
738.722	999.2
744.137	1001.2
749.547	1005.2
754.951	998.2
760.349	998.2
765.741	994.2
771.128	1012.2
776.509	1011.2
781.885	1022.2
787.254	1056.2
792.618	1030.2
797.977	1032.2
803.33	1030.2
808.677	1026.2
814.019	1006.2
819.355	1013.2
824.686	983.2
830.011	994.2
835.33	988.2
840.644	971.2
845.952	970.2
851.255	967.2
856.552	962.2
861.844	960.2
867.13	942.2
872.41	950.2
877.686	938.2
882.955	924.2
888.219	926.2
893.478	902.2
898.731	892.2
903.979	874.2
909.221	887.2
914.458	868.2
919.69	879.2
924.916	869.2
930.136	867.2
935.351	867.2
940.561	871.2
945.766	870.2
950.965	862.2
956.158	862.2
961.347	858.2
966.529	837.2
971.707	825.2
976.879	808.2
982.046	810.2
987.208	805.2
992.364	802.2
997.515	799.2
1002.66	804.2
1007.801	825.2
1012.936	824.2
1018.066	835.2
1023.19	819.2
1028.309	822.2
1033.423	839.2
1038.532	822.2
1043.636	812.2
1048.734	813.2
1053.827	821.2
1058.915	804.2
1063.998	794.2
1069.075	798.2
1074.147	780.2
1079.214	784.2
1084.276	798.2
1089.333	799.2
1094.385	796.2
1099.431	790.2
1104.472	787.2
1109.509	782.2
1114.54	757.2
1119.565	763.2
1124.586	747.2
1129.602	746.2
1134.613	745.2
1139.618	730.2
1144.619	730.2
1149.614	743.2
1154.604	732.2
1159.589	738.2
1164.57	732.2
1169.545	726.2
1174.515	732.2
1179.48	736.2
1184.44	725.2
1189.395	718.2
1194.345	716.2
1199.29	712.2
1204.23	709.2
1209.165	708.2
1214.095	711.2
1219.021	721.2
1223.941	734.2
1228.856	722.2
1233.766	725.2
1238.672	721.2
1243.572	721.2
1248.467	728.2
1253.358	723.2
1258.244	702.2
1263.124	689.2
1268	678.2
1272.871	672.2
1277.737	658.2
1282.599	671.2
1287.455	665.2
1292.306	663.2
1297.153	663.2
1301.995	678.2
1306.832	670.2
1311.664	679.2
1316.491	668.2
1321.314	672.2
1326.132	666.2
1330.945	655.2
1335.753	643.2
1340.556	630.2
1345.354	611.2
1350.148	595.2
1354.937	592.2
1359.722	565.2
1364.501	567.2
1369.276	572.2
1374.046	549.2
1378.811	542.2
1383.572	553.2
1388.327	546.2
1393.079	550.2
1397.825	553.2
1402.567	542.2
1407.304	555.2
1412.036	560.2
1416.764	547.2
1421.487	552.2
1426.205	568.2
1430.919	557.2
1435.628	547.2
1440.333	570.2
1445.032	556.2
1449.727	576.2
1454.418	571.2
1459.104	582.2
1463.785	554.2
1468.462	547.2
1473.134	551.2
1477.802	512.2
1482.465	513.2
1487.123	493.2
1491.777	488.2
1496.426	489.2
1501.071	475.2
1505.711	475.2
1510.347	477.2
1514.978	456.2
1519.604	462.2
1524.226	469.2
1528.844	457.2
1533.457	464.2
1538.065	468.2
1542.669	456.2
1547.269	445.2
1551.864	465.2
1556.454	472.2
1561.041	472.2
1565.622	497.2
1570.199	490.2
1574.772	489.2
1579.34	487.2
1583.904	492.2
1588.464	501.2
1593.019	511.2
1597.569	491.2
1602.115	505.2
1606.657	497.2
1611.195	499.2
1615.728	500.2
1620.256	482.2
1624.78	497.2
1629.3	493.2
1633.816	490.2
1638.327	512.2
1642.834	497.2
1647.336	491.2
1651.834	494.2
1656.328	490.2
1660.817	488.2
1665.302	483.2
1669.783	466.2
1674.259	450.2
1678.732	447.2
1683.199	431.2
1687.663	420.2
1692.122	406.2
1696.577	374.2
1701.028	373.2
1705.474	342.2
1709.917	345.2
1714.355	336.2
1718.788	335.2
1723.218	341.2
1727.643	336.2
1732.064	336.2
1736.481	339.2
1740.893	328.2
1745.301	318.2
1749.705	314.2
1754.105	300.2
1758.501	295.2
1762.893	299.2
1767.28	279.2
1771.663	287.2
1776.042	280.2
1780.417	265.2
1784.787	264.2
1789.154	265.2
1793.516	256.2
1797.874	254.2
1802.228	261.2
1806.578	255.2
1810.924	241.2
1815.266	244.2
1819.603	253.2
1823.937	254.2
1828.266	252.2
1832.591	252.2
1836.913	248.2
1841.23	247.2
1845.543	245.2
1849.852	254.2
1854.156	263.2
1858.457	254.2
1862.754	247.2
1867.047	251.2
1871.335	251.2
1875.62	252.2
1879.9	246.2
1884.177	242.2
1888.449	236.2
1892.718	241.2
1896.982	242.2
1901.243	229.2
1905.499	223.2
1909.752	222.2
1914	226.2
1918.245	213.2
1922.485	205.2
1926.722	200.2
1930.954	206.2
1935.183	202.2
1939.408	201.2
1943.628	206.2
1947.845	201.2
1952.058	204.2
1956.267	197.2
1960.472	201.2
1964.673	192.2
1968.87	191.2
1973.063	191.2
1977.252	191.2
1981.438	191.2
1985.619	184.2
1989.797	188.2
1993.971	191.2
1998.14	190.2
2002.306	202.2
2006.469	197.2
2010.627	195.2
2014.781	197.2
2018.932	191.2
2023.078	190.2
2027.221	193.2
2031.36	193.2
2035.495	183.2
2039.627	167.2
2043.754	167.2
2047.878	176.2
2051.998	188.2
2056.114	174.2
2060.226	169.2
2064.334	171.2
2068.439	163.2
2072.54	173.2
2076.637	170.2
2080.73	171.2
2084.82	171.2
2088.906	167.2
2092.988	166.2
2097.066	157.2
2101.14	162.2
2105.211	152.2
2109.278	163.2
2113.342	152.2
2117.401	152.2
2121.457	146.2
2125.509	141.2
2129.558	146.2
2133.602	150.2
2137.643	154.2
2141.681	146.2
2145.714	144.2
2149.744	156.2
2153.77	149.2
2157.793	152.2
2161.812	151.2
2165.827	148.2
2169.838	146.2
2173.846	140.2
2177.851	138.2
2181.851	142.2
2185.848	139.2
2189.841	133.2
2193.831	123.2
2197.817	135.2
2201.799	130.2
2205.778	131.2
2209.753	133.2
2213.725	136.2
2217.693	133.2
2221.657	130.2
2225.618	132.2
2229.575	124.2
2233.529	123.2
2237.479	127.2
2241.425	117.2
2245.368	125.2
2249.307	124.2
2253.243	116.2
2257.175	116.2
2261.104	110.2
2265.029	114.2
2268.95	125.2
2272.868	110.2
2276.783	106.2
2280.694	102.2
2284.601	103.2
2288.505	107.2
2292.405	109.2
2296.302	110.2
2300.195	104.2
2304.085	98.2
2307.971	94.2
2311.854	97.2
2315.734	97.2
2319.609	98.2
2323.482	97.2
2327.351	101.2
2331.216	108.2
2335.078	123.2
2338.937	112.2
2342.792	93.2
2346.643	100.2
2350.492	102.2
2354.336	97.2
2358.178	90.2
2362.015	93.2
2365.85	91.2
2369.681	96.2
2373.508	98.2
2377.333	99.2
2381.153	97.2
2384.971	92.2
2388.785	93.2
2392.595	96.2
2396.402	95.2
2400.206	88.2
2404.007	95.2
2407.804	86.2
2411.597	86.2
2415.388	85.2
2419.174	95.2
2422.958	91.2
2426.738	94.2
2430.515	85.2
2434.289	94.2
2438.059	86.2
2441.825	84.2
2445.589	84.2
2449.349	78.2
2453.106	84.2
2456.859	78.2
2460.61	68.2
2464.356	81.2
2468.1	79.2
2471.84	76.2
2475.577	75.2
2479.311	73.2
2483.041	74.2
2486.768	73.2
2490.492	73.2
2494.213	76.2
2497.93	73.2
2501.644	74.2
2505.355	62.2
2509.062	65.2
2512.766	65.2
2516.467	55.2
2520.165	64.2
2523.859	64.2
2527.551	65.2
2531.239	62.2
2534.923	60.2
2538.605	59.2
2542.283	54.2
2545.958	59.2
2549.63	51.2
2553.299	50.2
2556.964	49.2
2560.626	52.2
2564.285	57.2
2567.941	51.2
2571.594	53.2
2575.243	56.2
2578.89	55.2
2582.533	53.2
2586.173	47.2
2589.809	49.2
2593.443	56.2
2597.073	44.2
2600.701	44.2
2604.325	39.2
2607.946	30.2
2611.564	41.2
2615.178	45.2
2618.79	47.2
2622.398	45.2
2626.004	44.2
2629.606	41.2
2633.205	40.2
2636.801	41.2
2640.394	42.2
2643.983	41.2
2647.57	37.2
2651.153	31.2
2654.734	36.2
2658.311	35.2
2661.885	41.2
2665.456	41.2
2669.025	40.2
2672.589	32.2
2676.151	34.2
2679.71	30.2
2683.266	30.2
2686.819	44.2
2690.368	29.2
2693.915	33.2
2697.458	26.2
2700.999	34.2
2704.536	26.2
2708.071	31.2
2711.602	26.2
2715.13	22.2
2718.656	27.2
2722.178	26.2
2725.697	22.2
2729.214	22.2
2732.727	34.2
2736.237	30.2
2739.744	17.2
2743.249	19.2
2746.75	19.2
2750.248	20.2
2753.743	12.2
2757.236	13.2
2760.725	10.2
2764.211	12.2
2767.695	14.2
2771.175	14.2
2774.652	18.2
2778.127	21.2
2781.598	10.2
2785.067	13.2
2788.532	14.2
2791.995	18.2
2795.455	6.2
2798.911	12.2
2802.365	16.2
2805.816	14.2
2809.264	16.2
2812.709	6.2
2816.151	16.2
2819.59	23.2
2823.026	20.2
2826.46	17.2
2829.89	9.2
2833.318	9.2
2836.742	19.2
2840.164	15.2
2843.583	16.2
2846.999	9.2
2850.412	13.2
2853.822	19.2
2857.229	19.2
2860.634	11.2
2864.035	20.2
2867.434	19.2
2870.83	27.2
2874.223	17.2
2877.613	23.2
2881	19.2
2884.385	27.2
2887.766	26.2
2891.145	20.2
2894.521	27.2
2897.894	31.2
2901.264	25.2
2904.631	26.2
2907.996	31.2
2911.358	34.2
2914.717	30.2
2918.073	26.2
2921.426	30.2
2924.777	35.2
2928.124	34.2
2931.469	37.2
2934.811	42.2
2938.15	35.2
2941.487	44.2
2944.821	37.2
2948.152	41.2
2951.48	36.2
2954.805	41.2
2958.128	32.2
2961.447	35.2
2964.765	30.2
2968.079	29.2
2971.39	31.2
2974.699	31.2
2978.005	37.2
2981.308	33.2
2984.609	34.2
2987.907	35.2
2991.202	34.2
2994.494	31.2
2997.784	28.2
3001.07	34.2
3004.355	44.2
3007.636	37.2
3010.915	38.2
3014.191	32.2
3017.464	39.2
3020.734	33.2
3024.002	36.2
3027.267	41.2
3030.53	40.2
3033.789	46.2
3037.046	39.2
3040.301	44.2
3043.552	53.2
3046.801	52.2
3050.048	48.2
3053.291	41.2
3056.532	46.2
3059.771	50.2
3063.006	61.2
3066.239	59.2
3069.469	75.2
3072.697	69.2
3075.922	67.2
3079.144	69.2
3082.364	77.2
3085.581	79.2
3088.795	83.2
3092.007	82.2
3095.216	84.2
3098.423	84.2
3101.627	81.2
3104.828	90.2
3108.026	88.2
3111.222	88.2
3114.416	93.2
3117.607	104.2
3120.795	101.2
3123.98	102.2
3127.163	109.2
3130.344	108.2
3133.521	107.2
3136.696	111.2
3139.869	114.2
3143.039	120.2
3146.206	121.2
3149.371	116.2
3152.533	132.2
3155.693	133.2
3158.85	127.2
3162.005	126.2
3165.157	131.2
3168.306	122.2
3171.453	127.2
3174.597	128.2
3177.739	127.2
3180.878	126.2
3184.014	129.2
3187.149	132.2
3190.28	126.2
3193.409	131.2
3196.536	129.2
3199.659	132.2
3202.781	135.2
3205.9	131.2
3209.016	130.2
3212.13	132.2
3215.241	124.2
3218.35	125.2
3221.456	129.2
3224.56	121.2
3227.661	119.2
3230.76	117.2
3233.856	118.2
3236.95	109.2
3240.041	106.2
3243.13	118.2
3246.216	107.2
3249.3	97.2
3252.382	99.2
3255.46	103.2
3258.537	99.2
3261.611	100.2
3264.682	105.2
3267.751	107.2
3270.818	97.2
3273.882	97.2
3276.943	91.2
3280.002	98.2
3283.059	92.2
3286.113	98.2
3289.165	90.2
3292.214	87.2
3295.261	95.2
3298.306	81.2
3301.348	91.2
3304.387	92.2
3307.425	87.2
3310.459	86.2
3313.492	83.2
3316.521	88.2
3319.549	88.2
3322.574	81.2
3325.597	86.2
3328.617	84.2
3331.635	87.2
3334.65	86.2
3337.663	76.2
3340.674	78.2
3343.682	83.2
3346.688	83.2
3349.691	92.2
3352.692	83.2
3355.691	84.2
3358.687	80.2
3361.681	78.2
3364.673	77.2
3367.662	77.2
3370.649	79.2
3373.633	69.2
3376.615	66.2
3379.595	68.2
3382.572	73.2
3385.547	70.2
3388.52	69.2
3391.49	59.2
3394.458	56.2
3397.424	61.2
3400.387	63.2
3403.348	58.2
3406.307	47.2
3409.263	57.2
3412.217	60.2
3415.168	63.2
3418.118	56.2
3421.065	51.2
3424.009	54.2
3426.951	51.2
3429.891	50.2
3432.829	42.2
3435.764	47.2
3438.697	44.2
3441.628	31.2
3444.557	39.2
3447.483	31.2
3450.407	32.2
3453.328	38.2
3456.247	28.2
3459.164	30.2
3462.079	20.2
3464.991	27.2
3467.902	23.2
3470.809	22.2
3473.715	20.2
3476.618	14.2
3479.519	9.2
3482.418	12.2
3485.315	11.2
3488.209	0.2
3491.101	2.2
3493.99	6.2
3496.878	5.2
3499.763	-4.8
3502.646	4.2
3505.527	1.2
3508.405	-4.8
3511.281	-6.8
3514.155	-5.8
3517.027	-12.8
3519.897	-8.8
3522.764	-7.8
3525.629	-9.8
3528.492	-8.8
3531.352	-15.8
3534.211	-19.8
3537.067	-15.8
3539.921	-15.8
3542.773	-23.8
3545.622	-15.8
3548.469	-21.8
3551.315	-20.8
3554.157	-28.8
3556.998	-25.8
3559.837	-24.8
3562.673	-29.8
3565.507	-26.8
3568.339	-23.8
3571.169	-23.8
3573.996	-22.8
3576.822	-31.8
3579.645	-29.8
3582.466	-27.8
3585.285	-33.8
3588.101	-31.8
3590.916	-33.8
3593.728	-39.8
3596.538	-40.8
3599.346	-37.8
3602.152	-38.8
3604.956	-29.8
3607.757	-27.8
3610.556	-33.8
3613.354	-40.8
3616.149	-38.8
3618.942	-36.8
3621.732	-39.8
3624.521	-38.8
3627.307	-39.8
3630.092	-45.8
3632.874	-43.8
3635.654	-44.8
3638.432	-37.8
3641.208	-43.8
3643.982	-41.8
3646.753	-44.8
3649.523	-40.8
3652.29	-45.8
3655.055	-41.8
3657.818	-46.8
3660.579	-46.8
3663.338	-42.8
3666.095	-48.8
3668.849	-47.8
3671.602	-45.8
3674.352	-44.8
3677.101	-47.8
3679.847	-41.8
3682.591	-48.8
3685.333	-45.8
3688.073	-48.8
3690.811	-45.8
3693.547	-49.8
3696.281	-43.8
3699.013	-45.8
3701.742	-49.8
3704.47	-46.8
3707.195	-47.8
3709.919	-51.8
3712.64	-44.8
3715.359	-49.8
3718.076	-51.8
3720.792	-48.8
3723.505	-53.8
3726.216	-49.8
3728.925	-48.8
3731.632	-50.8
3734.336	-51.8
3737.039	-44.8
3739.74	-51.8
3742.439	-54.8
3745.136	-54.8
3747.83	-52.8
3750.523	-57.8
3753.213	-59.8
3755.902	-50.8
3758.589	-49.8
3761.273	-45.8
3763.956	-52.8
3766.636	-51.8
3769.315	-46.8
3771.991	-58.8
3774.665	-52.8
3777.338	-50.8
3780.008	-48.8
3782.677	-60.8
3785.343	-53.8
3788.007	-46.8
3790.67	-52.8
3793.33	-49.8
3795.989	-52.8
3798.645	-51.8
3801.299	-54.8
3803.952	-51.8
3806.602	-53.8
3809.251	-51.8
3811.897	-59.8
3814.542	-61.8
3817.184	-49.8
3819.825	-48.8
3822.463	-46.8
3825.1	-48.8
3827.735	-52.8
3830.367	-51.8
3832.998	-57.8
3835.627	-55.8
3838.253	-52.8
3840.878	-50.8
3843.501	-54.8
3846.122	-55.8
3848.741	-55.8
3851.358	-52.8
3853.973	-48.8
3856.586	-49.8
3859.197	-48.8
3861.806	-53.8
3864.414	-54.8
3867.019	-50.8
3869.622	-45.8
3872.224	-42.8
3874.823	-33.8
3877.421	-28.8
3880.016	-8.8
3882.61	1.2
3885.202	1.2
3887.792	1.2
3890.38	-21.8
3892.966	-40.8
3895.55	-44.8
3898.132	-48.8
3900.713	-55.8
3903.291	-55.8
3905.868	-47.8
3908.442	-53.8
3911.015	-55.8
3913.586	-59.8
3916.155	-58.8
3918.722	-56.8
3921.287	-56.8
3923.85	-43.8
3926.411	-57.8
3928.971	-63.8
3931.528	-55.8
3934.084	-46.8
3936.638	-53.8
3939.19	-64.8
3941.74	-51.8
3944.288	-57.8
3946.834	-54.8
3949.378	-55.8
3951.921	-62.8
3954.462	-60.8
3957	-48.8
3959.537	-43.8
3962.072	-47.8
3964.606	-50.8
3967.137	-50.8
3969.667	-53.8
3972.194	-52.8
3974.72	-48.8
3977.244	-51.8
3979.766	-52.8
3982.286	-51.8
3984.805	-63.8
3987.321	-50.8
3989.836	-52.8
3992.349	-54.8
3994.86	-59.8
3997.369	-55.8
3999.877	-55.8
4002.382	-50.8
4004.886	-49.8
4007.388	-55.8
4009.888	-49.8
4012.386	-53.8
4014.883	-50.8
4017.377	-47.8
4019.87	-54.8
4022.361	-54.8
4024.85	-51.8
4027.338	-54.8
4029.823	-50.8
4032.307	-59.8
4034.789	-49.8
4037.269	-55.8
4039.747	-54.8
4042.224	-51.8
4044.699	-56.8
4047.172	-56.8
4049.643	-58.8
4052.112	-49.8
4054.58	-51.8
4057.046	-52.8
4059.51	-52.8
4061.972	-55.8
4064.432	-55.8
4066.891	-52.8
4069.348	-52.8
4071.803	-53.8
4074.256	-52.8
4076.708	-54.8
4079.158	-59.8
4081.606	-55.8
4084.052	-56.8
4086.497	-50.8
4088.939	-50.8
4091.38	-57.8
4093.819	-56.8
4096.257	-56.8
4098.693	-55.8
4101.127	-50.8
4103.559	-59.8
4105.989	26.2
4108.418	21.2
4110.845	15.2
4113.27	17.2
4115.694	18.2
4118.115	17.2
4120.535	-50.8
4122.954	-50.8
4125.37	-52.8
4127.785	-51.8
4130.198	-52.8
4132.609	-55.8
4135.019	-60.8
4137.427	-58.8
4139.833	-57.8
4142.237	-59.8
