Data from 2018-3-7_conc=6_n=6_RamanShift_05.txt Node
Date: Wed Mar 07 13:14:22 IST 2018
User: aro
Spectrometer: QEPB0276
Trigger mode: 0
Integration Time (sec): 3.000000E1
Scans to average: 1
Electric dark correction enabled: true
Nonlinearity correction enabled: false
Boxcar width: 0
XAxis mode: Raman Shifts
Number of Pixels in Spectrum: 1044
>>>>>Begin Spectral Data<<<<<
160.701	6.1
166.742	17.1
172.777	47.1
178.805	136.1
184.826	372.1
190.841	819.1
196.849	1381.1
202.85	1795.1
208.845	1959.1
214.833	1966.1
220.815	1942.1
226.789	1936.1
232.758	1953.1
238.719	1936.1
244.674	1935.1
250.623	1921.1
256.565	1880.1
262.5	1839.1
268.429	1829.1
274.351	1806.1
280.267	1806.1
286.176	1789.1
292.079	1794.1
297.975	1802.1
303.865	1792.1
309.748	1789.1
315.625	1771.1
321.495	1788.1
327.359	1780.1
333.217	1785.1
339.068	1786.1
344.912	1798.1
350.751	1777.1
356.583	1804.1
362.408	1785.1
368.227	1792.1
374.04	1803.1
379.847	1807.1
385.647	1804.1
391.44	1794.1
397.228	1810.1
403.009	1844.1
408.784	1845.1
414.553	1851.1
420.315	1853.1
426.071	1856.1
431.821	1841.1
437.565	1846.1
443.302	1829.1
449.033	1826.1
454.758	1840.1
460.477	1815.1
466.189	1786.1
471.896	1792.1
477.596	1793.1
483.29	1758.1
488.978	1775.1
494.66	1763.1
500.335	1735.1
506.005	1695.1
511.668	1629.1
517.325	1583.1
522.977	1531.1
528.622	1513.1
534.261	1482.1
539.894	1451.1
545.521	1449.1
551.141	1434.1
556.756	1437.1
562.365	1420.1
567.968	1411.1
573.565	1393.1
579.155	1407.1
584.74	1400.1
590.319	1383.1
595.892	1382.1
601.459	1380.1
607.02	1375.1
612.575	1377.1
618.124	1340.1
623.667	1339.1
629.204	1324.1
634.735	1323.1
640.261	1312.1
645.781	1311.1
651.294	1304.1
656.802	1295.1
662.304	1290.1
667.8	1284.1
673.29	1279.1
678.775	1290.1
684.254	1276.1
689.726	1274.1
695.193	1259.1
700.655	1248.1
706.11	1262.1
711.56	1252.1
717.004	1247.1
722.442	1240.1
727.874	1222.1
733.301	1229.1
738.722	1213.1
744.137	1193.1
749.547	1214.1
754.951	1208.1
760.349	1214.1
765.741	1207.1
771.128	1217.1
776.509	1230.1
781.885	1242.1
787.254	1239.1
792.618	1242.1
797.977	1227.1
803.33	1223.1
808.677	1206.1
814.019	1198.1
819.355	1186.1
824.686	1201.1
830.011	1180.1
835.33	1197.1
840.644	1187.1
845.952	1180.1
851.255	1184.1
856.552	1187.1
861.844	1142.1
867.13	1160.1
872.41	1163.1
877.686	1131.1
882.955	1147.1
888.219	1128.1
893.478	1109.1
898.731	1093.1
903.979	1069.1
909.221	1072.1
914.458	1060.1
919.69	1064.1
924.916	1077.1
930.136	1074.1
935.351	1070.1
940.561	1073.1
945.766	1075.1
950.965	1066.1
956.158	1070.1
961.347	1047.1
966.529	1044.1
971.707	1017.1
976.879	1001.1
982.046	992.1
987.208	993.1
992.364	994.1
997.515	992.1
1002.66	993.1
1007.801	1004.1
1012.936	1030.1
1018.066	1027.1
1023.19	1035.1
1028.309	1030.1
1033.423	1024.1
1038.532	1019.1
1043.636	1001.1
1048.734	1010.1
1053.827	984.1
1058.915	990.1
1063.998	969.1
1069.075	966.1
1074.147	975.1
1079.214	960.1
1084.276	985.1
1089.333	980.1
1094.385	979.1
1099.431	951.1
1104.472	974.1
1109.509	966.1
1114.54	952.1
1119.565	954.1
1124.586	925.1
1129.602	922.1
1134.613	907.1
1139.618	907.1
1144.619	911.1
1149.614	921.1
1154.604	918.1
1159.589	910.1
1164.57	910.1
1169.545	920.1
1174.515	921.1
1179.48	909.1
1184.44	909.1
1189.395	890.1
1194.345	898.1
1199.29	885.1
1204.23	896.1
1209.165	879.1
1214.095	892.1
1219.021	892.1
1223.941	899.1
1228.856	904.1
1233.766	911.1
1238.672	912.1
1243.572	911.1
1248.467	910.1
1253.358	903.1
1258.244	879.1
1263.124	861.1
1268	847.1
1272.871	833.1
1277.737	830.1
1282.599	840.1
1287.455	823.1
1292.306	829.1
1297.153	834.1
1301.995	843.1
1306.832	838.1
1311.664	843.1
1316.491	835.1
1321.314	842.1
1326.132	838.1
1330.945	822.1
1335.753	821.1
1340.556	785.1
1345.354	773.1
1350.148	768.1
1354.937	751.1
1359.722	724.1
1364.501	714.1
1369.276	708.1
1374.046	699.1
1378.811	685.1
1383.572	683.1
1388.327	675.1
1393.079	681.1
1397.825	699.1
1402.567	695.1
1407.304	696.1
1412.036	703.1
1416.764	700.1
1421.487	698.1
1426.205	708.1
1430.919	694.1
1435.628	699.1
1440.333	720.1
1445.032	713.1
1449.727	737.1
1454.418	725.1
1459.104	716.1
1463.785	697.1
1468.462	695.1
1473.134	684.1
1477.802	670.1
1482.465	656.1
1487.123	631.1
1491.777	619.1
1496.426	614.1
1501.071	600.1
1505.711	598.1
1510.347	588.1
1514.978	588.1
1519.604	583.1
1524.226	579.1
1528.844	583.1
1533.457	584.1
1538.065	575.1
1542.669	573.1
1547.269	562.1
1551.864	573.1
1556.454	586.1
1561.041	589.1
1565.622	602.1
1570.199	608.1
1574.772	596.1
1579.34	617.1
1583.904	622.1
1588.464	625.1
1593.019	629.1
1597.569	642.1
1602.115	626.1
1606.657	634.1
1611.195	628.1
1615.728	629.1
1620.256	620.1
1624.78	631.1
1629.3	626.1
1633.816	628.1
1638.327	651.1
1642.834	616.1
1647.336	626.1
1651.834	623.1
1656.328	630.1
1660.817	628.1
1665.302	608.1
1669.783	603.1
1674.259	586.1
1678.732	576.1
1683.199	552.1
1687.663	526.1
1692.122	506.1
1696.577	493.1
1701.028	463.1
1705.474	428.1
1709.917	426.1
1714.355	422.1
1718.788	408.1
1723.218	411.1
1727.643	411.1
1732.064	430.1
1736.481	425.1
1740.893	401.1
1745.301	400.1
1749.705	394.1
1754.105	386.1
1758.501	372.1
1762.893	364.1
1767.28	361.1
1771.663	349.1
1776.042	355.1
1780.417	340.1
1784.787	332.1
1789.154	329.1
1793.516	314.1
1797.874	306.1
1802.228	305.1
1806.578	304.1
1810.924	298.1
1815.266	301.1
1819.603	301.1
1823.937	308.1
1828.266	301.1
1832.591	316.1
1836.913	313.1
1841.23	320.1
1845.543	310.1
1849.852	329.1
1854.156	329.1
1858.457	315.1
1862.754	326.1
1867.047	322.1
1871.335	317.1
1875.62	319.1
1879.9	322.1
1884.177	312.1
1888.449	315.1
1892.718	304.1
1896.982	304.1
1901.243	281.1
1905.499	283.1
1909.752	274.1
1914	269.1
1918.245	272.1
1922.485	256.1
1926.722	248.1
1930.954	257.1
1935.183	260.1
1939.408	256.1
1943.628	250.1
1947.845	245.1
1952.058	241.1
1956.267	237.1
1960.472	239.1
1964.673	229.1
1968.87	228.1
1973.063	232.1
1977.252	239.1
1981.438	238.1
1985.619	234.1
1989.797	243.1
1993.971	246.1
1998.14	242.1
2002.306	242.1
2006.469	248.1
2010.627	243.1
2014.781	248.1
2018.932	238.1
2023.078	244.1
2027.221	248.1
2031.36	239.1
2035.495	234.1
2039.627	221.1
2043.754	239.1
2047.878	230.1
2051.998	227.1
2056.114	220.1
2060.226	218.1
2064.334	213.1
2068.439	214.1
2072.54	208.1
2076.637	213.1
2080.73	214.1
2084.82	211.1
2088.906	203.1
2092.988	208.1
2097.066	201.1
2101.14	203.1
2105.211	200.1
2109.278	194.1
2113.342	188.1
2117.401	187.1
2121.457	188.1
2125.509	193.1
2129.558	188.1
2133.602	186.1
2137.643	193.1
2141.681	193.1
2145.714	192.1
2149.744	189.1
2153.77	190.1
2157.793	192.1
2161.812	200.1
2165.827	193.1
2169.838	184.1
2173.846	179.1
2177.851	188.1
2181.851	177.1
2185.848	179.1
2189.841	178.1
2193.831	176.1
2197.817	183.1
2201.799	176.1
2205.778	174.1
2209.753	186.1
2213.725	190.1
2217.693	187.1
2221.657	169.1
2225.618	173.1
2229.575	171.1
2233.529	174.1
2237.479	180.1
2241.425	172.1
2245.368	172.1
2249.307	161.1
2253.243	168.1
2257.175	167.1
2261.104	147.1
2265.029	151.1
2268.95	157.1
2272.868	155.1
2276.783	151.1
2280.694	146.1
2284.601	142.1
2288.505	150.1
2292.405	153.1
2296.302	145.1
2300.195	140.1
2304.085	143.1
2307.971	139.1
2311.854	138.1
2315.734	135.1
2319.609	138.1
2323.482	135.1
2327.351	144.1
2331.216	143.1
2335.078	156.1
2338.937	151.1
2342.792	141.1
2346.643	138.1
2350.492	146.1
2354.336	139.1
2358.178	133.1
2362.015	138.1
2365.85	133.1
2369.681	147.1
2373.508	142.1
2377.333	144.1
2381.153	142.1
2384.971	136.1
2388.785	139.1
2392.595	139.1
2396.402	136.1
2400.206	141.1
2404.007	140.1
2407.804	136.1
2411.597	139.1
2415.388	139.1
2419.174	139.1
2422.958	135.1
2426.738	129.1
2430.515	131.1
2434.289	131.1
2438.059	126.1
2441.825	124.1
2445.589	127.1
2449.349	123.1
2453.106	131.1
2456.859	120.1
2460.61	125.1
2464.356	125.1
2468.1	122.1
2471.84	119.1
2475.577	111.1
2479.311	113.1
2483.041	117.1
2486.768	105.1
2490.492	117.1
2494.213	121.1
2497.93	110.1
2501.644	115.1
2505.355	103.1
2509.062	102.1
2512.766	104.1
2516.467	103.1
2520.165	104.1
2523.859	107.1
2527.551	90.1
2531.239	95.1
2534.923	92.1
2538.605	93.1
2542.283	91.1
2545.958	93.1
2549.63	101.1
2553.299	91.1
2556.964	80.1
2560.626	95.1
2564.285	86.1
2567.941	88.1
2571.594	86.1
2575.243	84.1
2578.89	79.1
2582.533	78.1
2586.173	75.1
2589.809	77.1
2593.443	83.1
2597.073	69.1
2600.701	83.1
2604.325	71.1
2607.946	69.1
2611.564	77.1
2615.178	72.1
2618.79	82.1
2622.398	78.1
2626.004	73.1
2629.606	72.1
2633.205	71.1
2636.801	74.1
2640.394	77.1
2643.983	73.1
2647.57	75.1
2651.153	63.1
2654.734	66.1
2658.311	69.1
2661.885	65.1
2665.456	66.1
2669.025	65.1
2672.589	64.1
2676.151	62.1
2679.71	52.1
2683.266	61.1
2686.819	69.1
2690.368	62.1
2693.915	59.1
2697.458	54.1
2700.999	61.1
2704.536	63.1
2708.071	60.1
2711.602	55.1
2715.13	52.1
2718.656	55.1
2722.178	49.1
2725.697	52.1
2729.214	40.1
2732.727	52.1
2736.237	47.1
2739.744	43.1
2743.249	39.1
2746.75	38.1
2750.248	38.1
2753.743	32.1
2757.236	33.1
2760.725	38.1
2764.211	38.1
2767.695	29.1
2771.175	32.1
2774.652	34.1
2778.127	29.1
2781.598	28.1
2785.067	31.1
2788.532	35.1
2791.995	38.1
2795.455	38.1
2798.911	36.1
2802.365	36.1
2805.816	33.1
2809.264	36.1
2812.709	32.1
2816.151	36.1
2819.59	41.1
2823.026	38.1
2826.46	35.1
2829.89	31.1
2833.318	33.1
2836.742	44.1
2840.164	28.1
2843.583	34.1
2846.999	42.1
2850.412	37.1
2853.822	40.1
2857.229	42.1
2860.634	38.1
2864.035	38.1
2867.434	42.1
2870.83	42.1
2874.223	41.1
2877.613	47.1
2881	42.1
2884.385	44.1
2887.766	53.1
2891.145	52.1
2894.521	49.1
2897.894	49.1
2901.264	47.1
2904.631	44.1
2907.996	50.1
2911.358	49.1
2914.717	51.1
2918.073	50.1
2921.426	53.1
2924.777	58.1
2928.124	53.1
2931.469	62.1
2934.811	62.1
2938.15	64.1
2941.487	70.1
2944.821	63.1
2948.152	73.1
2951.48	62.1
2954.805	69.1
2958.128	61.1
2961.447	66.1
2964.765	62.1
2968.079	52.1
2971.39	56.1
2974.699	56.1
2978.005	62.1
2981.308	56.1
2984.609	54.1
2987.907	60.1
2991.202	56.1
2994.494	57.1
2997.784	54.1
3001.07	59.1
3004.355	58.1
3007.636	64.1
3010.915	63.1
3014.191	56.1
3017.464	62.1
3020.734	67.1
3024.002	76.1
3027.267	72.1
3030.53	71.1
3033.789	73.1
3037.046	69.1
3040.301	77.1
3043.552	73.1
3046.801	79.1
3050.048	82.1
3053.291	82.1
3056.532	87.1
3059.771	94.1
3063.006	100.1
3066.239	96.1
3069.469	105.1
3072.697	108.1
3075.922	111.1
3079.144	107.1
3082.364	111.1
3085.581	113.1
3088.795	122.1
3092.007	132.1
3095.216	130.1
3098.423	125.1
3101.627	132.1
3104.828	142.1
3108.026	136.1
3111.222	141.1
3114.416	144.1
3117.607	147.1
3120.795	149.1
3123.98	149.1
3127.163	163.1
3130.344	160.1
3133.521	156.1
3136.696	163.1
3139.869	174.1
3143.039	172.1
3146.206	177.1
3149.371	175.1
3152.533	184.1
3155.693	181.1
3158.85	180.1
3162.005	188.1
3165.157	182.1
3168.306	183.1
3171.453	182.1
3174.597	183.1
3177.739	187.1
3180.878	183.1
3184.014	191.1
3187.149	191.1
3190.28	188.1
3193.409	191.1
3196.536	183.1
3199.659	185.1
3202.781	192.1
3205.9	191.1
3209.016	184.1
3212.13	194.1
3215.241	183.1
3218.35	176.1
3221.456	181.1
3224.56	173.1
3227.661	171.1
3230.76	173.1
3233.856	171.1
3236.95	165.1
3240.041	158.1
3243.13	175.1
3246.216	157.1
3249.3	155.1
3252.382	151.1
3255.46	161.1
3258.537	155.1
3261.611	149.1
3264.682	147.1
3267.751	146.1
3270.818	136.1
3273.882	138.1
3276.943	142.1
3280.002	145.1
3283.059	140.1
3286.113	139.1
3289.165	127.1
3292.214	135.1
3295.261	140.1
3298.306	138.1
3301.348	133.1
3304.387	134.1
3307.425	134.1
3310.459	126.1
3313.492	127.1
3316.521	132.1
3319.549	136.1
3322.574	120.1
3325.597	125.1
3328.617	130.1
3331.635	132.1
3334.65	140.1
3337.663	121.1
3340.674	125.1
3343.682	127.1
3346.688	126.1
3349.691	126.1
3352.692	129.1
3355.691	135.1
3358.687	122.1
3361.681	127.1
3364.673	124.1
3367.662	120.1
3370.649	123.1
3373.633	118.1
3376.615	120.1
3379.595	113.1
3382.572	106.1
3385.547	113.1
3388.52	107.1
3391.49	103.1
3394.458	102.1
3397.424	105.1
3400.387	103.1
3403.348	93.1
3406.307	98.1
3409.263	98.1
3412.217	98.1
3415.168	95.1
3418.118	89.1
3421.065	86.1
3424.009	89.1
3426.951	82.1
3429.891	82.1
3432.829	76.1
3435.764	85.1
3438.697	82.1
3441.628	66.1
3444.557	69.1
3447.483	68.1
3450.407	70.1
3453.328	66.1
3456.247	71.1
3459.164	63.1
3462.079	56.1
3464.991	51.1
3467.902	48.1
3470.809	50.1
3473.715	50.1
3476.618	39.1
3479.519	39.1
3482.418	38.1
3485.315	34.1
3488.209	24.1
3491.101	20.1
3493.99	27.1
3496.878	18.1
3499.763	21.1
3502.646	18.1
3505.527	14.1
3508.405	17.1
3511.281	9.1
3514.155	8.1
3517.027	6.1
3519.897	10.1
3522.764	9.1
3525.629	8.1
3528.492	-1.9
3531.352	1.1
3534.211	0.1
3537.067	-6.9
3539.921	1.1
3542.773	-10.9
3545.622	-4.9
3548.469	-4.9
3551.315	-6.9
3554.157	-12.9
3556.998	-13.9
3559.837	-16.9
3562.673	-17.9
3565.507	-12.9
3568.339	-16.9
3571.169	-18.9
3573.996	-17.9
3576.822	-21.9
3579.645	-23.9
3582.466	-16.9
3585.285	-26.9
3588.101	-24.9
3590.916	-15.9
3593.728	-22.9
3596.538	-25.9
3599.346	-24.9
3602.152	-25.9
3604.956	-24.9
3607.757	-25.9
3610.556	-28.9
3613.354	-32.9
3616.149	-35.9
3618.942	-34.9
3621.732	-33.9
3624.521	-26.9
3627.307	-32.9
3630.092	-39.9
3632.874	-39.9
3635.654	-35.9
3638.432	-35.9
3641.208	-31.9
3643.982	-30.9
3646.753	-33.9
3649.523	-37.9
3652.29	-37.9
3655.055	-36.9
3657.818	-39.9
3660.579	-38.9
3663.338	-32.9
3666.095	-40.9
3668.849	-40.9
3671.602	-41.9
3674.352	-40.9
3677.101	-42.9
3679.847	-37.9
3682.591	-48.9
3685.333	-48.9
3688.073	-45.9
3690.811	-38.9
3693.547	-46.9
3696.281	-38.9
3699.013	-45.9
3701.742	-45.9
3704.47	-36.9
3707.195	-38.9
3709.919	-40.9
3712.64	-41.9
3715.359	-38.9
3718.076	-44.9
3720.792	-40.9
3723.505	-44.9
3726.216	-39.9
3728.925	-52.9
3731.632	-43.9
3734.336	-46.9
3737.039	-45.9
3739.74	-51.9
3742.439	-52.9
3745.136	-48.9
3747.83	-45.9
3750.523	-49.9
3753.213	-54.9
3755.902	-43.9
3758.589	-47.9
3761.273	-44.9
3763.956	-47.9
3766.636	-45.9
3769.315	-42.9
3771.991	-45.9
3774.665	-45.9
3777.338	-46.9
3780.008	-47.9
3782.677	-53.9
3785.343	-51.9
3788.007	-51.9
3790.67	-52.9
3793.33	-53.9
3795.989	-54.9
3798.645	-54.9
3801.299	-52.9
3803.952	-49.9
3806.602	-48.9
3809.251	-50.9
3811.897	-51.9
3814.542	-54.9
3817.184	-52.9
3819.825	-47.9
3822.463	-45.9
3825.1	-40.9
3827.735	-52.9
3830.367	-48.9
3832.998	-50.9
3835.627	-50.9
3838.253	-46.9
3840.878	-42.9
3843.501	-47.9
3846.122	-53.9
3848.741	-54.9
3851.358	-46.9
3853.973	-48.9
3856.586	-47.9
3859.197	-53.9
3861.806	-49.9
3864.414	-48.9
3867.019	-50.9
3869.622	-45.9
3872.224	-39.9
3874.823	-30.9
3877.421	-27.9
3880.016	-14.9
3882.61	-0.9
3885.202	-2.9
3887.792	-13.9
3890.38	-29.9
3892.966	-44.9
3895.55	-45.9
3898.132	-52.9
3900.713	-52.9
3903.291	-53.9
3905.868	-50.9
3908.442	-48.9
3911.015	-46.9
3913.586	-55.9
3916.155	-51.9
3918.722	-49.9
3921.287	-51.9
3923.85	-39.9
3926.411	-51.9
3928.971	-59.9
3931.528	-51.9
3934.084	-45.9
3936.638	-50.9
3939.19	-54.9
3941.74	-45.9
3944.288	-51.9
3946.834	-49.9
3949.378	-52.9
3951.921	-55.9
3954.462	-50.9
3957	-43.9
3959.537	-41.9
3962.072	-49.9
3964.606	-47.9
3967.137	-50.9
3969.667	-50.9
3972.194	-44.9
3974.72	-47.9
3977.244	-47.9
3979.766	-46.9
3982.286	-49.9
3984.805	-55.9
3987.321	-52.9
3989.836	-48.9
3992.349	-40.9
3994.86	-50.9
3997.369	-53.9
3999.877	-49.9
4002.382	-50.9
4004.886	-47.9
4007.388	-48.9
4009.888	-51.9
4012.386	-57.9
4014.883	-48.9
4017.377	-48.9
4019.87	-48.9
4022.361	-53.9
4024.85	-47.9
4027.338	-61.9
4029.823	-50.9
4032.307	-50.9
4034.789	-49.9
4037.269	-46.9
4039.747	-47.9
4042.224	-49.9
4044.699	-48.9
4047.172	-51.9
4049.643	-47.9
4052.112	-51.9
4054.58	-50.9
4057.046	-44.9
4059.51	-51.9
4061.972	-53.9
4064.432	-46.9
4066.891	-47.9
4069.348	-46.9
4071.803	-48.9
4074.256	-49.9
4076.708	-55.9
4079.158	-56.9
4081.606	-49.9
4084.052	-53.9
4086.497	-46.9
4088.939	-46.9
4091.38	-51.9
4093.819	-53.9
4096.257	-52.9
4098.693	-53.9
4101.127	-49.9
4103.559	-52.9
4105.989	1.1
4108.418	-3.9
4110.845	-8.9
4113.27	-0.9
4115.694	3.1
4118.115	3.1
4120.535	-49.9
4122.954	-39.9
4125.37	-51.9
4127.785	-39.9
4130.198	-49.9
4132.609	-54.9
4135.019	-51.9
4137.427	-55.9
4139.833	-47.9
4142.237	-50.9
