Data from 2018-3-7_conc=5_n=7_RamanShift_03.txt Node
Date: Wed Mar 07 12:44:22 IST 2018
User: aro
Spectrometer: QEPB0276
Trigger mode: 0
Integration Time (sec): 3.000000E1
Scans to average: 1
Electric dark correction enabled: true
Nonlinearity correction enabled: false
Boxcar width: 0
XAxis mode: Raman Shifts
Number of Pixels in Spectrum: 1044
>>>>>Begin Spectral Data<<<<<
160.701	4.1
166.742	15.1
172.777	60.1
178.805	193.1
184.826	516.1
190.841	1139.1
196.849	1884.1
202.85	2507.1
208.845	2729.1
214.833	2732.1
220.815	2694.1
226.789	2698.1
232.758	2697.1
238.719	2692.1
244.674	2680.1
250.623	2642.1
256.565	2597.1
262.5	2565.1
268.429	2534.1
274.351	2488.1
280.267	2476.1
286.176	2491.1
292.079	2451.1
297.975	2454.1
303.865	2454.1
309.748	2434.1
315.625	2425.1
321.495	2422.1
327.359	2446.1
333.217	2420.1
339.068	2418.1
344.912	2408.1
350.751	2420.1
356.583	2408.1
362.408	2422.1
368.227	2421.1
374.04	2440.1
379.847	2446.1
385.647	2441.1
391.44	2454.1
397.228	2479.1
403.009	2490.1
408.784	2484.1
414.553	2514.1
420.315	2499.1
426.071	2489.1
431.821	2509.1
437.565	2492.1
443.302	2484.1
449.033	2480.1
454.758	2479.1
460.477	2451.1
466.189	2467.1
471.896	2452.1
477.596	2433.1
483.29	2436.1
488.978	2425.1
494.66	2414.1
500.335	2364.1
506.005	2310.1
511.668	2266.1
517.325	2221.1
522.977	2175.1
528.622	2135.1
534.261	2098.1
539.894	2091.1
545.521	2072.1
551.141	2052.1
556.756	2064.1
562.365	2039.1
567.968	2016.1
573.565	2007.1
579.155	2010.1
584.74	1999.1
590.319	1966.1
595.892	1973.1
601.459	1956.1
607.02	1964.1
612.575	1964.1
618.124	1942.1
623.667	1921.1
629.204	1898.1
634.735	1893.1
640.261	1876.1
645.781	1861.1
651.294	1850.1
656.802	1860.1
662.304	1850.1
667.8	1851.1
673.29	1850.1
678.775	1842.1
684.254	1845.1
689.726	1842.1
695.193	1821.1
700.655	1814.1
706.11	1804.1
711.56	1794.1
717.004	1788.1
722.442	1777.1
727.874	1767.1
733.301	1755.1
738.722	1754.1
744.137	1734.1
749.547	1739.1
754.951	1730.1
760.349	1747.1
765.741	1744.1
771.128	1741.1
776.509	1756.1
781.885	1779.1
787.254	1757.1
792.618	1744.1
797.977	1739.1
803.33	1726.1
808.677	1717.1
814.019	1727.1
819.355	1709.1
824.686	1677.1
830.011	1689.1
835.33	1689.1
840.644	1676.1
845.952	1686.1
851.255	1659.1
856.552	1683.1
861.844	1668.1
867.13	1667.1
872.41	1654.1
877.686	1648.1
882.955	1641.1
888.219	1630.1
893.478	1597.1
898.731	1584.1
903.979	1565.1
909.221	1571.1
914.458	1539.1
919.69	1531.1
924.916	1556.1
930.136	1554.1
935.351	1555.1
940.561	1552.1
945.766	1549.1
950.965	1545.1
956.158	1535.1
961.347	1519.1
966.529	1486.1
971.707	1458.1
976.879	1452.1
982.046	1449.1
987.208	1429.1
992.364	1430.1
997.515	1435.1
1002.66	1459.1
1007.801	1466.1
1012.936	1469.1
1018.066	1487.1
1023.19	1480.1
1028.309	1478.1
1033.423	1472.1
1038.532	1472.1
1043.636	1445.1
1048.734	1437.1
1053.827	1419.1
1058.915	1404.1
1063.998	1385.1
1069.075	1391.1
1074.147	1384.1
1079.214	1378.1
1084.276	1396.1
1089.333	1409.1
1094.385	1404.1
1099.431	1408.1
1104.472	1404.1
1109.509	1379.1
1114.54	1381.1
1119.565	1352.1
1124.586	1343.1
1129.602	1316.1
1134.613	1324.1
1139.618	1306.1
1144.619	1294.1
1149.614	1310.1
1154.604	1309.1
1159.589	1319.1
1164.57	1312.1
1169.545	1307.1
1174.515	1317.1
1179.48	1313.1
1184.44	1294.1
1189.395	1274.1
1194.345	1276.1
1199.29	1268.1
1204.23	1267.1
1209.165	1273.1
1214.095	1281.1
1219.021	1297.1
1223.941	1292.1
1228.856	1294.1
1233.766	1307.1
1238.672	1322.1
1243.572	1303.1
1248.467	1296.1
1253.358	1271.1
1258.244	1263.1
1263.124	1249.1
1268	1223.1
1272.871	1209.1
1277.737	1197.1
1282.599	1205.1
1287.455	1205.1
1292.306	1188.1
1297.153	1201.1
1301.995	1201.1
1306.832	1209.1
1311.664	1217.1
1316.491	1227.1
1321.314	1213.1
1326.132	1217.1
1330.945	1194.1
1335.753	1171.1
1340.556	1142.1
1345.354	1132.1
1350.148	1117.1
1354.937	1079.1
1359.722	1059.1
1364.501	1033.1
1369.276	1010.1
1374.046	985.1
1378.811	972.1
1383.572	969.1
1388.327	973.1
1393.079	970.1
1397.825	975.1
1402.567	985.1
1407.304	988.1
1412.036	983.1
1416.764	998.1
1421.487	998.1
1426.205	1002.1
1430.919	1013.1
1435.628	1016.1
1440.333	1041.1
1445.032	1023.1
1449.727	1032.1
1454.418	1043.1
1459.104	1022.1
1463.785	1026.1
1468.462	1007.1
1473.134	984.1
1477.802	968.1
1482.465	920.1
1487.123	910.1
1491.777	891.1
1496.426	875.1
1501.071	868.1
1505.711	843.1
1510.347	844.1
1514.978	845.1
1519.604	831.1
1524.226	820.1
1528.844	815.1
1533.457	824.1
1538.065	804.1
1542.669	795.1
1547.269	793.1
1551.864	817.1
1556.454	830.1
1561.041	845.1
1565.622	853.1
1570.199	855.1
1574.772	866.1
1579.34	874.1
1583.904	890.1
1588.464	912.1
1593.019	914.1
1597.569	908.1
1602.115	911.1
1606.657	897.1
1611.195	897.1
1615.728	897.1
1620.256	902.1
1624.78	909.1
1629.3	913.1
1633.816	901.1
1638.327	906.1
1642.834	897.1
1647.336	903.1
1651.834	899.1
1656.328	897.1
1660.817	897.1
1665.302	893.1
1669.783	861.1
1674.259	846.1
1678.732	830.1
1683.199	798.1
1687.663	772.1
1692.122	726.1
1696.577	689.1
1701.028	641.1
1705.474	609.1
1709.917	584.1
1714.355	579.1
1718.788	573.1
1723.218	586.1
1727.643	577.1
1732.064	585.1
1736.481	593.1
1740.893	574.1
1745.301	566.1
1749.705	555.1
1754.105	544.1
1758.501	525.1
1762.893	512.1
1767.28	497.1
1771.663	512.1
1776.042	504.1
1780.417	500.1
1784.787	481.1
1789.154	465.1
1793.516	455.1
1797.874	436.1
1802.228	437.1
1806.578	424.1
1810.924	423.1
1815.266	429.1
1819.603	414.1
1823.937	426.1
1828.266	429.1
1832.591	438.1
1836.913	429.1
1841.23	447.1
1845.543	441.1
1849.852	449.1
1854.156	463.1
1858.457	452.1
1862.754	454.1
1867.047	450.1
1871.335	450.1
1875.62	451.1
1879.9	446.1
1884.177	443.1
1888.449	444.1
1892.718	435.1
1896.982	421.1
1901.243	405.1
1905.499	405.1
1909.752	388.1
1914	388.1
1918.245	377.1
1922.485	370.1
1926.722	361.1
1930.954	363.1
1935.183	351.1
1939.408	351.1
1943.628	349.1
1947.845	339.1
1952.058	339.1
1956.267	324.1
1960.472	337.1
1964.673	324.1
1968.87	331.1
1973.063	326.1
1977.252	322.1
1981.438	334.1
1985.619	335.1
1989.797	330.1
1993.971	345.1
1998.14	338.1
2002.306	334.1
2006.469	349.1
2010.627	341.1
2014.781	337.1
2018.932	349.1
2023.078	353.1
2027.221	335.1
2031.36	341.1
2035.495	354.1
2039.627	335.1
2043.754	331.1
2047.878	323.1
2051.998	325.1
2056.114	322.1
2060.226	317.1
2064.334	318.1
2068.439	302.1
2072.54	305.1
2076.637	306.1
2080.73	301.1
2084.82	296.1
2088.906	287.1
2092.988	292.1
2097.066	275.1
2101.14	285.1
2105.211	277.1
2109.278	271.1
2113.342	270.1
2117.401	274.1
2121.457	271.1
2125.509	259.1
2129.558	261.1
2133.602	257.1
2137.643	265.1
2141.681	266.1
2145.714	266.1
2149.744	274.1
2153.77	264.1
2157.793	276.1
2161.812	281.1
2165.827	273.1
2169.838	256.1
2173.846	261.1
2177.851	259.1
2181.851	260.1
2185.848	255.1
2189.841	249.1
2193.831	248.1
2197.817	253.1
2201.799	244.1
2205.778	254.1
2209.753	246.1
2213.725	254.1
2217.693	255.1
2221.657	247.1
2225.618	247.1
2229.575	242.1
2233.529	243.1
2237.479	251.1
2241.425	235.1
2245.368	237.1
2249.307	239.1
2253.243	225.1
2257.175	230.1
2261.104	208.1
2265.029	221.1
2268.95	213.1
2272.868	210.1
2276.783	216.1
2280.694	202.1
2284.601	205.1
2288.505	216.1
2292.405	212.1
2296.302	212.1
2300.195	198.1
2304.085	199.1
2307.971	193.1
2311.854	194.1
2315.734	193.1
2319.609	194.1
2323.482	193.1
2327.351	192.1
2331.216	198.1
2335.078	206.1
2338.937	197.1
2342.792	194.1
2346.643	192.1
2350.492	187.1
2354.336	196.1
2358.178	187.1
2362.015	195.1
2365.85	194.1
2369.681	204.1
2373.508	203.1
2377.333	204.1
2381.153	195.1
2384.971	194.1
2388.785	193.1
2392.595	202.1
2396.402	196.1
2400.206	191.1
2404.007	188.1
2407.804	184.1
2411.597	187.1
2415.388	183.1
2419.174	203.1
2422.958	184.1
2426.738	188.1
2430.515	185.1
2434.289	187.1
2438.059	172.1
2441.825	183.1
2445.589	180.1
2449.349	179.1
2453.106	185.1
2456.859	179.1
2460.61	171.1
2464.356	169.1
2468.1	168.1
2471.84	170.1
2475.577	157.1
2479.311	161.1
2483.041	164.1
2486.768	156.1
2490.492	153.1
2494.213	151.1
2497.93	152.1
2501.644	160.1
2505.355	147.1
2509.062	154.1
2512.766	150.1
2516.467	144.1
2520.165	144.1
2523.859	154.1
2527.551	137.1
2531.239	139.1
2534.923	129.1
2538.605	119.1
2542.283	133.1
2545.958	135.1
2549.63	127.1
2553.299	129.1
2556.964	125.1
2560.626	125.1
2564.285	130.1
2567.941	113.1
2571.594	123.1
2575.243	115.1
2578.89	116.1
2582.533	110.1
2586.173	108.1
2589.809	113.1
2593.443	113.1
2597.073	106.1
2600.701	113.1
2604.325	98.1
2607.946	95.1
2611.564	104.1
2615.178	103.1
2618.79	107.1
2622.398	106.1
2626.004	96.1
2629.606	96.1
2633.205	110.1
2636.801	97.1
2640.394	107.1
2643.983	92.1
2647.57	103.1
2651.153	93.1
2654.734	93.1
2658.311	100.1
2661.885	100.1
2665.456	103.1
2669.025	95.1
2672.589	88.1
2676.151	87.1
2679.71	81.1
2683.266	83.1
2686.819	85.1
2690.368	79.1
2693.915	90.1
2697.458	80.1
2700.999	84.1
2704.536	87.1
2708.071	83.1
2711.602	72.1
2715.13	71.1
2718.656	73.1
2722.178	75.1
2725.697	67.1
2729.214	70.1
2732.727	70.1
2736.237	68.1
2739.744	58.1
2743.249	56.1
2746.75	55.1
2750.248	59.1
2753.743	61.1
2757.236	52.1
2760.725	53.1
2764.211	46.1
2767.695	44.1
2771.175	47.1
2774.652	47.1
2778.127	48.1
2781.598	47.1
2785.067	46.1
2788.532	46.1
2791.995	48.1
2795.455	45.1
2798.911	48.1
2802.365	53.1
2805.816	54.1
2809.264	50.1
2812.709	50.1
2816.151	62.1
2819.59	60.1
2823.026	53.1
2826.46	53.1
2829.89	59.1
2833.318	49.1
2836.742	53.1
2840.164	52.1
2843.583	53.1
2846.999	54.1
2850.412	51.1
2853.822	51.1
2857.229	55.1
2860.634	55.1
2864.035	58.1
2867.434	62.1
2870.83	72.1
2874.223	63.1
2877.613	64.1
2881	73.1
2884.385	68.1
2887.766	81.1
2891.145	74.1
2894.521	74.1
2897.894	69.1
2901.264	64.1
2904.631	67.1
2907.996	70.1
2911.358	76.1
2914.717	80.1
2918.073	77.1
2921.426	76.1
2924.777	85.1
2928.124	79.1
2931.469	88.1
2934.811	93.1
2938.15	89.1
2941.487	98.1
2944.821	99.1
2948.152	104.1
2951.48	105.1
2954.805	104.1
2958.128	88.1
2961.447	99.1
2964.765	86.1
2968.079	90.1
2971.39	89.1
2974.699	89.1
2978.005	95.1
2981.308	88.1
2984.609	87.1
2987.907	93.1
2991.202	90.1
2994.494	83.1
2997.784	80.1
3001.07	90.1
3004.355	94.1
3007.636	91.1
3010.915	90.1
3014.191	97.1
3017.464	103.1
3020.734	103.1
3024.002	111.1
3027.267	106.1
3030.53	119.1
3033.789	111.1
3037.046	107.1
3040.301	110.1
3043.552	119.1
3046.801	122.1
3050.048	127.1
3053.291	131.1
3056.532	135.1
3059.771	131.1
3063.006	140.1
3066.239	151.1
3069.469	158.1
3072.697	156.1
3075.922	169.1
3079.144	168.1
3082.364	178.1
3085.581	175.1
3088.795	182.1
3092.007	186.1
3095.216	195.1
3098.423	201.1
3101.627	190.1
3104.828	201.1
3108.026	201.1
3111.222	210.1
3114.416	212.1
3117.607	219.1
3120.795	222.1
3123.98	225.1
3127.163	230.1
3130.344	233.1
3133.521	241.1
3136.696	246.1
3139.869	258.1
3143.039	257.1
3146.206	250.1
3149.371	260.1
3152.533	274.1
3155.693	279.1
3158.85	277.1
3162.005	279.1
3165.157	270.1
3168.306	278.1
3171.453	279.1
3174.597	273.1
3177.739	288.1
3180.878	282.1
3184.014	272.1
3187.149	287.1
3190.28	290.1
3193.409	281.1
3196.536	272.1
3199.659	295.1
3202.781	283.1
3205.9	286.1
3209.016	282.1
3212.13	288.1
3215.241	282.1
3218.35	270.1
3221.456	273.1
3224.56	272.1
3227.661	273.1
3230.76	267.1
3233.856	263.1
3236.95	259.1
3240.041	257.1
3243.13	252.1
3246.216	245.1
3249.3	241.1
3252.382	238.1
3255.46	234.1
3258.537	223.1
3261.611	220.1
3264.682	226.1
3267.751	226.1
3270.818	214.1
3273.882	216.1
3276.943	209.1
3280.002	217.1
3283.059	216.1
3286.113	204.1
3289.165	204.1
3292.214	203.1
3295.261	215.1
3298.306	202.1
3301.348	205.1
3304.387	204.1
3307.425	202.1
3310.459	193.1
3313.492	196.1
3316.521	192.1
3319.549	202.1
3322.574	194.1
3325.597	192.1
3328.617	192.1
3331.635	194.1
3334.65	192.1
3337.663	192.1
3340.674	197.1
3343.682	199.1
3346.688	195.1
3349.691	200.1
3352.692	199.1
3355.691	200.1
3358.687	199.1
3361.681	205.1
3364.673	194.1
3367.662	192.1
3370.649	190.1
3373.633	185.1
3376.615	187.1
3379.595	173.1
3382.572	175.1
3385.547	182.1
3388.52	163.1
3391.49	160.1
3394.458	156.1
3397.424	166.1
3400.387	158.1
3403.348	153.1
3406.307	146.1
3409.263	152.1
3412.217	145.1
3415.168	155.1
3418.118	151.1
3421.065	142.1
3424.009	130.1
3426.951	134.1
3429.891	136.1
3432.829	126.1
3435.764	134.1
3438.697	127.1
3441.628	115.1
3444.557	114.1
3447.483	113.1
3450.407	101.1
3453.328	102.1
3456.247	92.1
3459.164	92.1
3462.079	81.1
3464.991	86.1
3467.902	77.1
3470.809	75.1
3473.715	74.1
3476.618	68.1
3479.519	56.1
3482.418	63.1
3485.315	63.1
3488.209	52.1
3491.101	53.1
3493.99	51.1
3496.878	44.1
3499.763	37.1
3502.646	37.1
3505.527	37.1
3508.405	35.1
3511.281	27.1
3514.155	25.1
3517.027	20.1
3519.897	27.1
3522.764	21.1
3525.629	16.1
3528.492	13.1
3531.352	-0.9
3534.211	7.1
3537.067	2.1
3539.921	3.1
3542.773	-1.9
3545.622	2.1
3548.469	-2.9
3551.315	-10.9
3554.157	-6.9
3556.998	-7.9
3559.837	-14.9
3562.673	-15.9
3565.507	-19.9
3568.339	-14.9
3571.169	-17.9
3573.996	-19.9
3576.822	-27.9
3579.645	-23.9
3582.466	-24.9
3585.285	-22.9
3588.101	-26.9
3590.916	-26.9
3593.728	-33.9
3596.538	-29.9
3599.346	-30.9
3602.152	-33.9
3604.956	-28.9
3607.757	-23.9
3610.556	-33.9
3613.354	-39.9
3616.149	-42.9
3618.942	-39.9
3621.732	-39.9
3624.521	-37.9
3627.307	-37.9
3630.092	-33.9
3632.874	-43.9
3635.654	-41.9
3638.432	-47.9
3641.208	-40.9
3643.982	-37.9
3646.753	-46.9
3649.523	-41.9
3652.29	-47.9
3655.055	-44.9
3657.818	-47.9
3660.579	-48.9
3663.338	-40.9
3666.095	-46.9
3668.849	-48.9
3671.602	-47.9
3674.352	-49.9
3677.101	-49.9
3679.847	-47.9
3682.591	-54.9
3685.333	-50.9
3688.073	-58.9
3690.811	-45.9
3693.547	-55.9
3696.281	-47.9
3699.013	-52.9
3701.742	-56.9
3704.47	-47.9
3707.195	-50.9
3709.919	-56.9
3712.64	-49.9
3715.359	-51.9
3718.076	-57.9
3720.792	-54.9
3723.505	-55.9
3726.216	-53.9
3728.925	-55.9
3731.632	-55.9
3734.336	-56.9
3737.039	-52.9
3739.74	-62.9
3742.439	-70.9
3745.136	-60.9
3747.83	-59.9
3750.523	-67.9
3753.213	-58.9
3755.902	-60.9
3758.589	-61.9
3761.273	-51.9
3763.956	-60.9
3766.636	-60.9
3769.315	-53.9
3771.991	-57.9
3774.665	-59.9
3777.338	-58.9
3780.008	-62.9
3782.677	-63.9
3785.343	-61.9
3788.007	-60.9
3790.67	-58.9
3793.33	-62.9
3795.989	-65.9
3798.645	-63.9
3801.299	-61.9
3803.952	-61.9
3806.602	-65.9
3809.251	-63.9
3811.897	-67.9
3814.542	-69.9
3817.184	-66.9
3819.825	-64.9
3822.463	-65.9
3825.1	-62.9
3827.735	-63.9
3830.367	-68.9
3832.998	-65.9
3835.627	-59.9
3838.253	-59.9
3840.878	-56.9
3843.501	-55.9
3846.122	-64.9
3848.741	-63.9
3851.358	-61.9
3853.973	-57.9
3856.586	-57.9
3859.197	-57.9
3861.806	-61.9
3864.414	-65.9
3867.019	-63.9
3869.622	-59.9
3872.224	-58.9
3874.823	-43.9
3877.421	-44.9
3880.016	-34.9
3882.61	-18.9
3885.202	-20.9
3887.792	-17.9
3890.38	-38.9
3892.966	-54.9
3895.55	-61.9
3898.132	-62.9
3900.713	-59.9
3903.291	-65.9
3905.868	-60.9
3908.442	-59.9
3911.015	-62.9
3913.586	-63.9
3916.155	-60.9
3918.722	-62.9
3921.287	-65.9
3923.85	-59.9
3926.411	-66.9
3928.971	-76.9
3931.528	-67.9
3934.084	-62.9
3936.638	-66.9
3939.19	-68.9
3941.74	-61.9
3944.288	-62.9
3946.834	-60.9
3949.378	-64.9
3951.921	-64.9
3954.462	-65.9
3957	-59.9
3959.537	-54.9
3962.072	-56.9
3964.606	-62.9
3967.137	-62.9
3969.667	-63.9
3972.194	-61.9
3974.72	-57.9
3977.244	-58.9
3979.766	-63.9
3982.286	-64.9
3984.805	-76.9
3987.321	-64.9
3989.836	-58.9
3992.349	-65.9
3994.86	-65.9
3997.369	-65.9
3999.877	-58.9
4002.382	-62.9
4004.886	-58.9
4007.388	-64.9
4009.888	-60.9
4012.386	-59.9
4014.883	-60.9
4017.377	-57.9
4019.87	-61.9
4022.361	-63.9
4024.85	-61.9
4027.338	-68.9
4029.823	-63.9
4032.307	-63.9
4034.789	-59.9
4037.269	-61.9
4039.747	-63.9
4042.224	-68.9
4044.699	-68.9
4047.172	-66.9
4049.643	-63.9
4052.112	-63.9
4054.58	-65.9
4057.046	-60.9
4059.51	-67.9
4061.972	-67.9
4064.432	-57.9
4066.891	-55.9
4069.348	-60.9
4071.803	-56.9
4074.256	-59.9
4076.708	-63.9
4079.158	-65.9
4081.606	-60.9
4084.052	-65.9
4086.497	-61.9
4088.939	-59.9
4091.38	-69.9
4093.819	-65.9
4096.257	-66.9
4098.693	-64.9
4101.127	-60.9
4103.559	-67.9
4105.989	-4.9
4108.418	-3.9
4110.845	-7.9
4113.27	-3.9
4115.694	0.1
4118.115	3.1
4120.535	-65.9
4122.954	-60.9
4125.37	-66.9
4127.785	-61.9
4130.198	-58.9
4132.609	-70.9
4135.019	-67.9
4137.427	-68.9
4139.833	-66.9
4142.237	-68.9
