Data from 2018-3-7_conc=5_n=9_RamanShift_03.txt Node
Date: Wed Mar 07 12:51:22 IST 2018
User: aro
Spectrometer: QEPB0276
Trigger mode: 0
Integration Time (sec): 3.000000E1
Scans to average: 1
Electric dark correction enabled: true
Nonlinearity correction enabled: false
Boxcar width: 0
XAxis mode: Raman Shifts
Number of Pixels in Spectrum: 1044
>>>>>Begin Spectral Data<<<<<
160.701	-2.9
166.742	20.1
172.777	71.1
178.805	249.1
184.826	689.1
190.841	1517.1
196.849	2563.1
202.85	3392.1
208.845	3712.1
214.833	3736.1
220.815	3639.1
226.789	3628.1
232.758	3636.1
238.719	3620.1
244.674	3597.1
250.623	3579.1
256.565	3488.1
262.5	3400.1
268.429	3364.1
274.351	3344.1
280.267	3315.1
286.176	3312.1
292.079	3287.1
297.975	3266.1
303.865	3249.1
309.748	3224.1
315.625	3214.1
321.495	3186.1
327.359	3176.1
333.217	3189.1
339.068	3205.1
344.912	3206.1
350.751	3185.1
356.583	3203.1
362.408	3172.1
368.227	3177.1
374.04	3195.1
379.847	3190.1
385.647	3192.1
391.44	3225.1
397.228	3204.1
403.009	3239.1
408.784	3242.1
414.553	3248.1
420.315	3270.1
426.071	3252.1
431.821	3244.1
437.565	3236.1
443.302	3237.1
449.033	3242.1
454.758	3237.1
460.477	3203.1
466.189	3191.1
471.896	3182.1
477.596	3181.1
483.29	3159.1
488.978	3172.1
494.66	3119.1
500.335	3134.1
506.005	3067.1
511.668	3013.1
517.325	2977.1
522.977	2905.1
528.622	2885.1
534.261	2838.1
539.894	2804.1
545.521	2805.1
551.141	2774.1
556.756	2790.1
562.365	2758.1
567.968	2754.1
573.565	2755.1
579.155	2743.1
584.74	2716.1
590.319	2708.1
595.892	2691.1
601.459	2676.1
607.02	2677.1
612.575	2658.1
618.124	2630.1
623.667	2615.1
629.204	2600.1
634.735	2588.1
640.261	2567.1
645.781	2565.1
651.294	2537.1
656.802	2533.1
662.304	2528.1
667.8	2523.1
673.29	2549.1
678.775	2519.1
684.254	2521.1
689.726	2481.1
695.193	2498.1
700.655	2489.1
706.11	2451.1
711.56	2469.1
717.004	2430.1
722.442	2434.1
727.874	2429.1
733.301	2424.1
738.722	2423.1
744.137	2391.1
749.547	2386.1
754.951	2388.1
760.349	2404.1
765.741	2387.1
771.128	2401.1
776.509	2400.1
781.885	2426.1
787.254	2404.1
792.618	2400.1
797.977	2393.1
803.33	2365.1
808.677	2374.1
814.019	2339.1
819.355	2337.1
824.686	2304.1
830.011	2310.1
835.33	2301.1
840.644	2311.1
845.952	2318.1
851.255	2315.1
856.552	2309.1
861.844	2303.1
867.13	2274.1
872.41	2294.1
877.686	2265.1
882.955	2280.1
888.219	2237.1
893.478	2217.1
898.731	2180.1
903.979	2147.1
909.221	2149.1
914.458	2139.1
919.69	2143.1
924.916	2134.1
930.136	2156.1
935.351	2159.1
940.561	2156.1
945.766	2152.1
950.965	2148.1
956.158	2142.1
961.347	2106.1
966.529	2090.1
971.707	2043.1
976.879	1995.1
982.046	2020.1
987.208	1993.1
992.364	2015.1
997.515	1983.1
1002.66	2015.1
1007.801	2049.1
1012.936	2040.1
1018.066	2081.1
1023.19	2059.1
1028.309	2057.1
1033.423	2024.1
1038.532	2031.1
1043.636	2019.1
1048.734	1989.1
1053.827	1973.1
1058.915	1946.1
1063.998	1934.1
1069.075	1893.1
1074.147	1924.1
1079.214	1944.1
1084.276	1938.1
1089.333	1967.1
1094.385	1963.1
1099.431	1951.1
1104.472	1963.1
1109.509	1955.1
1114.54	1923.1
1119.565	1923.1
1124.586	1888.1
1129.602	1865.1
1134.613	1842.1
1139.618	1841.1
1144.619	1832.1
1149.614	1850.1
1154.604	1844.1
1159.589	1841.1
1164.57	1853.1
1169.545	1840.1
1174.515	1843.1
1179.48	1830.1
1184.44	1801.1
1189.395	1807.1
1194.345	1785.1
1199.29	1781.1
1204.23	1787.1
1209.165	1793.1
1214.095	1815.1
1219.021	1811.1
1223.941	1830.1
1228.856	1828.1
1233.766	1818.1
1238.672	1844.1
1243.572	1842.1
1248.467	1831.1
1253.358	1798.1
1258.244	1793.1
1263.124	1753.1
1268	1724.1
1272.871	1687.1
1277.737	1678.1
1282.599	1698.1
1287.455	1674.1
1292.306	1677.1
1297.153	1707.1
1301.995	1717.1
1306.832	1708.1
1311.664	1728.1
1316.491	1738.1
1321.314	1729.1
1326.132	1712.1
1330.945	1686.1
1335.753	1664.1
1340.556	1646.1
1345.354	1581.1
1350.148	1566.1
1354.937	1521.1
1359.722	1467.1
1364.501	1428.1
1369.276	1395.1
1374.046	1344.1
1378.811	1350.1
1383.572	1352.1
1388.327	1360.1
1393.079	1381.1
1397.825	1390.1
1402.567	1406.1
1407.304	1413.1
1412.036	1420.1
1416.764	1422.1
1421.487	1433.1
1426.205	1443.1
1430.919	1430.1
1435.628	1438.1
1440.333	1478.1
1445.032	1460.1
1449.727	1497.1
1454.418	1464.1
1459.104	1467.1
1463.785	1439.1
1468.462	1416.1
1473.134	1379.1
1477.802	1318.1
1482.465	1313.1
1487.123	1255.1
1491.777	1239.1
1496.426	1227.1
1501.071	1203.1
1505.711	1184.1
1510.347	1191.1
1514.978	1171.1
1519.604	1170.1
1524.226	1150.1
1528.844	1165.1
1533.457	1162.1
1538.065	1154.1
1542.669	1144.1
1547.269	1146.1
1551.864	1172.1
1556.454	1188.1
1561.041	1206.1
1565.622	1205.1
1570.199	1217.1
1574.772	1233.1
1579.34	1256.1
1583.904	1279.1
1588.464	1290.1
1593.019	1297.1
1597.569	1303.1
1602.115	1303.1
1606.657	1311.1
1611.195	1301.1
1615.728	1284.1
1620.256	1273.1
1624.78	1275.1
1629.3	1272.1
1633.816	1277.1
1638.327	1288.1
1642.834	1281.1
1647.336	1276.1
1651.834	1285.1
1656.328	1283.1
1660.817	1267.1
1665.302	1228.1
1669.783	1225.1
1674.259	1175.1
1678.732	1154.1
1683.199	1106.1
1687.663	1064.1
1692.122	1000.1
1696.577	943.1
1701.028	884.1
1705.474	834.1
1709.917	803.1
1714.355	817.1
1718.788	823.1
1723.218	828.1
1727.643	837.1
1732.064	839.1
1736.481	844.1
1740.893	814.1
1745.301	812.1
1749.705	791.1
1754.105	773.1
1758.501	747.1
1762.893	736.1
1767.28	729.1
1771.663	720.1
1776.042	705.1
1780.417	687.1
1784.787	681.1
1789.154	649.1
1793.516	640.1
1797.874	611.1
1802.228	622.1
1806.578	599.1
1810.924	597.1
1815.266	607.1
1819.603	612.1
1823.937	624.1
1828.266	617.1
1832.591	636.1
1836.913	631.1
1841.23	631.1
1845.543	641.1
1849.852	647.1
1854.156	651.1
1858.457	647.1
1862.754	651.1
1867.047	638.1
1871.335	663.1
1875.62	634.1
1879.9	643.1
1884.177	633.1
1888.449	619.1
1892.718	605.1
1896.982	586.1
1901.243	576.1
1905.499	569.1
1909.752	548.1
1914	544.1
1918.245	524.1
1922.485	521.1
1926.722	503.1
1930.954	495.1
1935.183	492.1
1939.408	487.1
1943.628	479.1
1947.845	470.1
1952.058	471.1
1956.267	462.1
1960.472	464.1
1964.673	469.1
1968.87	465.1
1973.063	475.1
1977.252	484.1
1981.438	477.1
1985.619	486.1
1989.797	495.1
1993.971	503.1
1998.14	495.1
2002.306	511.1
2006.469	507.1
2010.627	505.1
2014.781	509.1
2018.932	506.1
2023.078	504.1
2027.221	507.1
2031.36	493.1
2035.495	492.1
2039.627	489.1
2043.754	494.1
2047.878	478.1
2051.998	463.1
2056.114	458.1
2060.226	449.1
2064.334	456.1
2068.439	432.1
2072.54	442.1
2076.637	444.1
2080.73	435.1
2084.82	432.1
2088.906	423.1
2092.988	410.1
2097.066	403.1
2101.14	398.1
2105.211	397.1
2109.278	390.1
2113.342	388.1
2117.401	379.1
2121.457	378.1
2125.509	381.1
2129.558	383.1
2133.602	393.1
2137.643	394.1
2141.681	383.1
2145.714	403.1
2149.744	398.1
2153.77	406.1
2157.793	398.1
2161.812	400.1
2165.827	396.1
2169.838	388.1
2173.846	396.1
2177.851	391.1
2181.851	384.1
2185.848	375.1
2189.841	375.1
2193.831	369.1
2197.817	373.1
2201.799	369.1
2205.778	385.1
2209.753	373.1
2213.725	382.1
2217.693	376.1
2221.657	378.1
2225.618	367.1
2229.575	371.1
2233.529	374.1
2237.479	377.1
2241.425	365.1
2245.368	355.1
2249.307	365.1
2253.243	345.1
2257.175	347.1
2261.104	321.1
2265.029	337.1
2268.95	342.1
2272.868	337.1
2276.783	333.1
2280.694	326.1
2284.601	325.1
2288.505	324.1
2292.405	335.1
2296.302	319.1
2300.195	311.1
2304.085	306.1
2307.971	304.1
2311.854	307.1
2315.734	301.1
2319.609	302.1
2323.482	300.1
2327.351	295.1
2331.216	306.1
2335.078	317.1
2338.937	299.1
2342.792	304.1
2346.643	303.1
2350.492	308.1
2354.336	305.1
2358.178	303.1
2362.015	298.1
2365.85	299.1
2369.681	311.1
2373.508	312.1
2377.333	310.1
2381.153	305.1
2384.971	309.1
2388.785	307.1
2392.595	311.1
2396.402	324.1
2400.206	309.1
2404.007	311.1
2407.804	308.1
2411.597	293.1
2415.388	302.1
2419.174	310.1
2422.958	298.1
2426.738	307.1
2430.515	303.1
2434.289	300.1
2438.059	284.1
2441.825	290.1
2445.589	281.1
2449.349	283.1
2453.106	279.1
2456.859	271.1
2460.61	279.1
2464.356	275.1
2468.1	265.1
2471.84	268.1
2475.577	258.1
2479.311	256.1
2483.041	260.1
2486.768	259.1
2490.492	254.1
2494.213	256.1
2497.93	251.1
2501.644	253.1
2505.355	249.1
2509.062	243.1
2512.766	247.1
2516.467	233.1
2520.165	242.1
2523.859	231.1
2527.551	225.1
2531.239	219.1
2534.923	214.1
2538.605	210.1
2542.283	211.1
2545.958	210.1
2549.63	202.1
2553.299	203.1
2556.964	187.1
2560.626	197.1
2564.285	194.1
2567.941	194.1
2571.594	193.1
2575.243	187.1
2578.89	192.1
2582.533	189.1
2586.173	187.1
2589.809	182.1
2593.443	190.1
2597.073	186.1
2600.701	181.1
2604.325	172.1
2607.946	167.1
2611.564	179.1
2615.178	175.1
2618.79	171.1
2622.398	175.1
2626.004	168.1
2629.606	175.1
2633.205	171.1
2636.801	166.1
2640.394	175.1
2643.983	170.1
2647.57	174.1
2651.153	163.1
2654.734	165.1
2658.311	159.1
2661.885	167.1
2665.456	161.1
2669.025	165.1
2672.589	158.1
2676.151	157.1
2679.71	155.1
2683.266	159.1
2686.819	147.1
2690.368	143.1
2693.915	148.1
2697.458	134.1
2700.999	146.1
2704.536	143.1
2708.071	134.1
2711.602	133.1
2715.13	128.1
2718.656	129.1
2722.178	131.1
2725.697	128.1
2729.214	122.1
2732.727	123.1
2736.237	118.1
2739.744	112.1
2743.249	110.1
2746.75	104.1
2750.248	100.1
2753.743	93.1
2757.236	86.1
2760.725	87.1
2764.211	84.1
2767.695	77.1
2771.175	83.1
2774.652	85.1
2778.127	82.1
2781.598	76.1
2785.067	86.1
2788.532	90.1
2791.995	91.1
2795.455	84.1
2798.911	87.1
2802.365	100.1
2805.816	94.1
2809.264	94.1
2812.709	83.1
2816.151	97.1
2819.59	105.1
2823.026	90.1
2826.46	98.1
2829.89	92.1
2833.318	92.1
2836.742	92.1
2840.164	96.1
2843.583	88.1
2846.999	91.1
2850.412	88.1
2853.822	98.1
2857.229	99.1
2860.634	98.1
2864.035	99.1
2867.434	106.1
2870.83	105.1
2874.223	106.1
2877.613	105.1
2881	113.1
2884.385	117.1
2887.766	120.1
2891.145	116.1
2894.521	123.1
2897.894	122.1
2901.264	124.1
2904.631	114.1
2907.996	125.1
2911.358	136.1
2914.717	125.1
2918.073	127.1
2921.426	129.1
2924.777	136.1
2928.124	132.1
2931.469	145.1
2934.811	153.1
2938.15	151.1
2941.487	156.1
2944.821	150.1
2948.152	158.1
2951.48	152.1
2954.805	156.1
2958.128	144.1
2961.447	155.1
2964.765	145.1
2968.079	144.1
2971.39	137.1
2974.699	138.1
2978.005	145.1
2981.308	134.1
2984.609	131.1
2987.907	139.1
2991.202	131.1
2994.494	137.1
2997.784	129.1
3001.07	136.1
3004.355	142.1
3007.636	145.1
3010.915	145.1
3014.191	146.1
3017.464	148.1
3020.734	152.1
3024.002	162.1
3027.267	161.1
3030.53	164.1
3033.789	173.1
3037.046	169.1
3040.301	177.1
3043.552	182.1
3046.801	186.1
3050.048	196.1
3053.291	199.1
3056.532	204.1
3059.771	204.1
3063.006	218.1
3066.239	224.1
3069.469	234.1
3072.697	237.1
3075.922	253.1
3079.144	244.1
3082.364	256.1
3085.581	257.1
3088.795	266.1
3092.007	271.1
3095.216	278.1
3098.423	285.1
3101.627	285.1
3104.828	297.1
3108.026	294.1
3111.222	291.1
3114.416	299.1
3117.607	315.1
3120.795	307.1
3123.98	328.1
3127.163	337.1
3130.344	341.1
3133.521	342.1
3136.696	348.1
3139.869	355.1
3143.039	365.1
3146.206	369.1
3149.371	371.1
3152.533	375.1
3155.693	388.1
3158.85	376.1
3162.005	391.1
3165.157	395.1
3168.306	392.1
3171.453	384.1
3174.597	394.1
3177.739	410.1
3180.878	408.1
3184.014	402.1
3187.149	403.1
3190.28	398.1
3193.409	395.1
3196.536	410.1
3199.659	407.1
3202.781	402.1
3205.9	409.1
3209.016	402.1
3212.13	404.1
3215.241	401.1
3218.35	404.1
3221.456	405.1
3224.56	382.1
3227.661	383.1
3230.76	384.1
3233.856	375.1
3236.95	363.1
3240.041	350.1
3243.13	354.1
3246.216	336.1
3249.3	339.1
3252.382	331.1
3255.46	334.1
3258.537	322.1
3261.611	318.1
3264.682	320.1
3267.751	315.1
3270.818	305.1
3273.882	319.1
3276.943	314.1
3280.002	309.1
3283.059	312.1
3286.113	305.1
3289.165	306.1
3292.214	311.1
3295.261	297.1
3298.306	301.1
3301.348	299.1
3304.387	285.1
3307.425	294.1
3310.459	287.1
3313.492	290.1
3316.521	284.1
3319.549	294.1
3322.574	281.1
3325.597	280.1
3328.617	285.1
3331.635	288.1
3334.65	284.1
3337.663	275.1
3340.674	284.1
3343.682	284.1
3346.688	280.1
3349.691	287.1
3352.692	291.1
3355.691	287.1
3358.687	278.1
3361.681	269.1
3364.673	270.1
3367.662	274.1
3370.649	272.1
3373.633	262.1
3376.615	260.1
3379.595	251.1
3382.572	246.1
3385.547	243.1
3388.52	238.1
3391.49	238.1
3394.458	225.1
3397.424	225.1
3400.387	225.1
3403.348	216.1
3406.307	214.1
3409.263	216.1
3412.217	216.1
3415.168	215.1
3418.118	207.1
3421.065	206.1
3424.009	193.1
3426.951	191.1
3429.891	197.1
3432.829	191.1
3435.764	181.1
3438.697	181.1
3441.628	169.1
3444.557	163.1
3447.483	155.1
3450.407	151.1
3453.328	149.1
3456.247	140.1
3459.164	136.1
3462.079	124.1
3464.991	125.1
3467.902	118.1
3470.809	110.1
3473.715	103.1
3476.618	103.1
3479.519	92.1
3482.418	89.1
3485.315	79.1
3488.209	75.1
3491.101	72.1
3493.99	84.1
3496.878	69.1
3499.763	63.1
3502.646	56.1
3505.527	56.1
3508.405	48.1
3511.281	41.1
3514.155	39.1
3517.027	34.1
3519.897	41.1
3522.764	26.1
3525.629	27.1
3528.492	27.1
3531.352	15.1
3534.211	13.1
3537.067	10.1
3539.921	19.1
3542.773	-3.9
3545.622	1.1
3548.469	5.1
3551.315	1.1
3554.157	-6.9
3556.998	-10.9
3559.837	-20.9
3562.673	-11.9
3565.507	-19.9
3568.339	-17.9
3571.169	-19.9
3573.996	-18.9
3576.822	-32.9
3579.645	-29.9
3582.466	-26.9
3585.285	-25.9
3588.101	-32.9
3590.916	-27.9
3593.728	-36.9
3596.538	-37.9
3599.346	-38.9
3602.152	-44.9
3604.956	-33.9
3607.757	-35.9
3610.556	-40.9
3613.354	-42.9
3616.149	-47.9
3618.942	-50.9
3621.732	-46.9
3624.521	-48.9
3627.307	-51.9
3630.092	-49.9
3632.874	-55.9
3635.654	-53.9
3638.432	-52.9
3641.208	-47.9
3643.982	-51.9
3646.753	-57.9
3649.523	-52.9
3652.29	-60.9
3655.055	-57.9
3657.818	-57.9
3660.579	-58.9
3663.338	-55.9
3666.095	-64.9
3668.849	-62.9
3671.602	-63.9
3674.352	-62.9
3677.101	-64.9
3679.847	-65.9
3682.591	-72.9
3685.333	-66.9
3688.073	-69.9
3690.811	-63.9
3693.547	-73.9
3696.281	-65.9
3699.013	-66.9
3701.742	-73.9
3704.47	-67.9
3707.195	-70.9
3709.919	-66.9
3712.64	-69.9
3715.359	-71.9
3718.076	-74.9
3720.792	-74.9
3723.505	-73.9
3726.216	-67.9
3728.925	-73.9
3731.632	-71.9
3734.336	-77.9
3737.039	-72.9
3739.74	-74.9
3742.439	-80.9
3745.136	-74.9
3747.83	-80.9
3750.523	-83.9
3753.213	-85.9
3755.902	-82.9
3758.589	-81.9
3761.273	-76.9
3763.956	-77.9
3766.636	-77.9
3769.315	-73.9
3771.991	-76.9
3774.665	-82.9
3777.338	-78.9
3780.008	-76.9
3782.677	-81.9
3785.343	-76.9
3788.007	-76.9
3790.67	-73.9
3793.33	-77.9
3795.989	-83.9
3798.645	-80.9
3801.299	-78.9
3803.952	-81.9
3806.602	-85.9
3809.251	-82.9
3811.897	-82.9
3814.542	-86.9
3817.184	-81.9
3819.825	-82.9
3822.463	-82.9
3825.1	-72.9
3827.735	-85.9
3830.367	-84.9
3832.998	-82.9
3835.627	-77.9
3838.253	-78.9
3840.878	-76.9
3843.501	-76.9
3846.122	-83.9
3848.741	-85.9
3851.358	-78.9
3853.973	-77.9
3856.586	-78.9
3859.197	-80.9
3861.806	-82.9
3864.414	-83.9
3867.019	-87.9
3869.622	-78.9
3872.224	-74.9
3874.823	-66.9
3877.421	-58.9
3880.016	-53.9
3882.61	-37.9
3885.202	-41.9
3887.792	-38.9
3890.38	-56.9
3892.966	-73.9
3895.55	-75.9
3898.132	-78.9
3900.713	-80.9
3903.291	-81.9
3905.868	-80.9
3908.442	-81.9
3911.015	-78.9
3913.586	-86.9
3916.155	-85.9
3918.722	-85.9
3921.287	-83.9
3923.85	-77.9
3926.411	-85.9
3928.971	-96.9
3931.528	-88.9
3934.084	-80.9
3936.638	-85.9
3939.19	-89.9
3941.74	-82.9
3944.288	-83.9
3946.834	-86.9
3949.378	-85.9
3951.921	-82.9
3954.462	-86.9
3957	-80.9
3959.537	-75.9
3962.072	-76.9
3964.606	-78.9
3967.137	-78.9
3969.667	-83.9
3972.194	-79.9
3974.72	-74.9
3977.244	-76.9
3979.766	-85.9
3982.286	-84.9
3984.805	-89.9
3987.321	-86.9
3989.836	-80.9
3992.349	-84.9
3994.86	-87.9
3997.369	-83.9
3999.877	-81.9
4002.382	-79.9
4004.886	-74.9
4007.388	-82.9
4009.888	-77.9
4012.386	-86.9
4014.883	-80.9
4017.377	-80.9
4019.87	-74.9
4022.361	-83.9
4024.85	-77.9
4027.338	-84.9
4029.823	-83.9
4032.307	-83.9
4034.789	-74.9
4037.269	-80.9
4039.747	-86.9
4042.224	-84.9
4044.699	-83.9
4047.172	-85.9
4049.643	-85.9
4052.112	-89.9
4054.58	-79.9
4057.046	-79.9
4059.51	-87.9
4061.972	-85.9
4064.432	-80.9
4066.891	-78.9
4069.348	-75.9
4071.803	-75.9
4074.256	-77.9
4076.708	-80.9
4079.158	-87.9
4081.606	-80.9
4084.052	-81.9
4086.497	-80.9
4088.939	-81.9
4091.38	-84.9
4093.819	-87.9
4096.257	-86.9
4098.693	-85.9
4101.127	-79.9
4103.559	-84.9
4105.989	-19.9
4108.418	-19.9
4110.845	-24.9
4113.27	-19.9
4115.694	-9.9
4118.115	-8.9
4120.535	-81.9
4122.954	-78.9
4125.37	-84.9
4127.785	-81.9
4130.198	-80.9
4132.609	-83.9
4135.019	-83.9
4137.427	-87.9
4139.833	-84.9
4142.237	-80.9
