Data from 2018-3-7_conc=4_n=9_RamanShift_04.txt Node
Date: Wed Mar 07 12:16:52 IST 2018
User: aro
Spectrometer: QEPB0276
Trigger mode: 0
Integration Time (sec): 3.000000E1
Scans to average: 1
Electric dark correction enabled: true
Nonlinearity correction enabled: false
Boxcar width: 0
XAxis mode: Raman Shifts
Number of Pixels in Spectrum: 1044
>>>>>Begin Spectral Data<<<<<
160.701	8.2
166.742	18.2
172.777	46.2
178.805	147.2
184.826	385.2
190.841	806.2
196.849	1327.2
202.85	1764.2
208.845	1907.2
214.833	1927.2
220.815	1885.2
226.789	1872.2
232.758	1912.2
238.719	1900.2
244.674	1896.2
250.623	1871.2
256.565	1849.2
262.5	1814.2
268.429	1804.2
274.351	1790.2
280.267	1772.2
286.176	1776.2
292.079	1787.2
297.975	1768.2
303.865	1766.2
309.748	1776.2
315.625	1743.2
321.495	1763.2
327.359	1756.2
333.217	1770.2
339.068	1780.2
344.912	1786.2
350.751	1773.2
356.583	1769.2
362.408	1769.2
368.227	1783.2
374.04	1783.2
379.847	1790.2
385.647	1797.2
391.44	1814.2
397.228	1808.2
403.009	1812.2
408.784	1842.2
414.553	1826.2
420.315	1830.2
426.071	1833.2
431.821	1837.2
437.565	1841.2
443.302	1833.2
449.033	1812.2
454.758	1819.2
460.477	1802.2
466.189	1781.2
471.896	1778.2
477.596	1779.2
483.29	1770.2
488.978	1756.2
494.66	1748.2
500.335	1719.2
506.005	1667.2
511.668	1622.2
517.325	1549.2
522.977	1516.2
528.622	1515.2
534.261	1463.2
539.894	1439.2
545.521	1437.2
551.141	1418.2
556.756	1414.2
562.365	1398.2
567.968	1396.2
573.565	1364.2
579.155	1379.2
584.74	1363.2
590.319	1346.2
595.892	1357.2
601.459	1352.2
607.02	1347.2
612.575	1348.2
618.124	1328.2
623.667	1308.2
629.204	1299.2
634.735	1273.2
640.261	1275.2
645.781	1263.2
651.294	1277.2
656.802	1256.2
662.304	1264.2
667.8	1254.2
673.29	1267.2
678.775	1263.2
684.254	1257.2
689.726	1241.2
695.193	1232.2
700.655	1242.2
706.11	1221.2
711.56	1217.2
717.004	1201.2
722.442	1185.2
727.874	1193.2
733.301	1179.2
738.722	1190.2
744.137	1170.2
749.547	1174.2
754.951	1169.2
760.349	1161.2
765.741	1172.2
771.128	1185.2
776.509	1196.2
781.885	1193.2
787.254	1200.2
792.618	1201.2
797.977	1192.2
803.33	1190.2
808.677	1181.2
814.019	1173.2
819.355	1179.2
824.686	1153.2
830.011	1150.2
835.33	1136.2
840.644	1153.2
845.952	1143.2
851.255	1137.2
856.552	1133.2
861.844	1117.2
867.13	1111.2
872.41	1130.2
877.686	1114.2
882.955	1099.2
888.219	1094.2
893.478	1080.2
898.731	1060.2
903.979	1057.2
909.221	1054.2
914.458	1034.2
919.69	1036.2
924.916	1040.2
930.136	1034.2
935.351	1042.2
940.561	1036.2
945.766	1041.2
950.965	1018.2
956.158	1036.2
961.347	1009.2
966.529	1006.2
971.707	989.2
976.879	974.2
982.046	956.2
987.208	972.2
992.364	957.2
997.515	960.2
1002.66	969.2
1007.801	984.2
1012.936	981.2
1018.066	999.2
1023.19	1005.2
1028.309	985.2
1033.423	978.2
1038.532	987.2
1043.636	971.2
1048.734	974.2
1053.827	946.2
1058.915	951.2
1063.998	932.2
1069.075	919.2
1074.147	931.2
1079.214	927.2
1084.276	945.2
1089.333	943.2
1094.385	950.2
1099.431	935.2
1104.472	962.2
1109.509	925.2
1114.54	929.2
1119.565	907.2
1124.586	904.2
1129.602	883.2
1134.613	887.2
1139.618	856.2
1144.619	871.2
1149.614	877.2
1154.604	875.2
1159.589	877.2
1164.57	885.2
1169.545	873.2
1174.515	900.2
1179.48	891.2
1184.44	875.2
1189.395	865.2
1194.345	847.2
1199.29	841.2
1204.23	848.2
1209.165	839.2
1214.095	867.2
1219.021	853.2
1223.941	860.2
1228.856	868.2
1233.766	873.2
1238.672	881.2
1243.572	870.2
1248.467	873.2
1253.358	848.2
1258.244	841.2
1263.124	828.2
1268	825.2
1272.871	811.2
1277.737	808.2
1282.599	792.2
1287.455	802.2
1292.306	786.2
1297.153	807.2
1301.995	795.2
1306.832	813.2
1311.664	823.2
1316.491	817.2
1321.314	799.2
1326.132	811.2
1330.945	793.2
1335.753	778.2
1340.556	753.2
1345.354	747.2
1350.148	734.2
1354.937	724.2
1359.722	703.2
1364.501	687.2
1369.276	680.2
1374.046	663.2
1378.811	655.2
1383.572	646.2
1388.327	646.2
1393.079	642.2
1397.825	655.2
1402.567	660.2
1407.304	662.2
1412.036	666.2
1416.764	657.2
1421.487	673.2
1426.205	664.2
1430.919	665.2
1435.628	676.2
1440.333	689.2
1445.032	669.2
1449.727	690.2
1454.418	701.2
1459.104	683.2
1463.785	678.2
1468.462	663.2
1473.134	647.2
1477.802	632.2
1482.465	615.2
1487.123	598.2
1491.777	584.2
1496.426	580.2
1501.071	582.2
1505.711	560.2
1510.347	564.2
1514.978	567.2
1519.604	563.2
1524.226	547.2
1528.844	566.2
1533.457	546.2
1538.065	549.2
1542.669	544.2
1547.269	543.2
1551.864	554.2
1556.454	558.2
1561.041	571.2
1565.622	561.2
1570.199	569.2
1574.772	584.2
1579.34	581.2
1583.904	581.2
1588.464	599.2
1593.019	600.2
1597.569	605.2
1602.115	609.2
1606.657	598.2
1611.195	600.2
1615.728	592.2
1620.256	578.2
1624.78	599.2
1629.3	591.2
1633.816	585.2
1638.327	593.2
1642.834	592.2
1647.336	579.2
1651.834	590.2
1656.328	594.2
1660.817	593.2
1665.302	582.2
1669.783	568.2
1674.259	552.2
1678.732	540.2
1683.199	523.2
1687.663	503.2
1692.122	473.2
1696.577	457.2
1701.028	442.2
1705.474	414.2
1709.917	407.2
1714.355	395.2
1718.788	388.2
1723.218	398.2
1727.643	388.2
1732.064	391.2
1736.481	402.2
1740.893	380.2
1745.301	376.2
1749.705	376.2
1754.105	355.2
1758.501	353.2
1762.893	344.2
1767.28	350.2
1771.663	337.2
1776.042	342.2
1780.417	322.2
1784.787	324.2
1789.154	314.2
1793.516	305.2
1797.874	297.2
1802.228	307.2
1806.578	293.2
1810.924	291.2
1815.266	274.2
1819.603	288.2
1823.937	293.2
1828.266	297.2
1832.591	297.2
1836.913	286.2
1841.23	303.2
1845.543	296.2
1849.852	308.2
1854.156	302.2
1858.457	305.2
1862.754	313.2
1867.047	299.2
1871.335	308.2
1875.62	299.2
1879.9	293.2
1884.177	285.2
1888.449	290.2
1892.718	286.2
1896.982	278.2
1901.243	275.2
1905.499	265.2
1909.752	262.2
1914	264.2
1918.245	261.2
1922.485	250.2
1926.722	246.2
1930.954	247.2
1935.183	247.2
1939.408	243.2
1943.628	240.2
1947.845	238.2
1952.058	230.2
1956.267	230.2
1960.472	229.2
1964.673	226.2
1968.87	218.2
1973.063	225.2
1977.252	227.2
1981.438	232.2
1985.619	225.2
1989.797	228.2
1993.971	238.2
1998.14	227.2
2002.306	233.2
2006.469	242.2
2010.627	233.2
2014.781	241.2
2018.932	229.2
2023.078	232.2
2027.221	230.2
2031.36	223.2
2035.495	226.2
2039.627	214.2
2043.754	209.2
2047.878	218.2
2051.998	211.2
2056.114	207.2
2060.226	203.2
2064.334	205.2
2068.439	198.2
2072.54	201.2
2076.637	198.2
2080.73	207.2
2084.82	205.2
2088.906	203.2
2092.988	194.2
2097.066	196.2
2101.14	190.2
2105.211	194.2
2109.278	189.2
2113.342	179.2
2117.401	180.2
2121.457	180.2
2125.509	179.2
2129.558	172.2
2133.602	177.2
2137.643	173.2
2141.681	172.2
2145.714	180.2
2149.744	187.2
2153.77	177.2
2157.793	178.2
2161.812	178.2
2165.827	179.2
2169.838	173.2
2173.846	172.2
2177.851	165.2
2181.851	172.2
2185.848	171.2
2189.841	168.2
2193.831	165.2
2197.817	167.2
2201.799	159.2
2205.778	164.2
2209.753	170.2
2213.725	161.2
2217.693	170.2
2221.657	166.2
2225.618	159.2
2229.575	153.2
2233.529	158.2
2237.479	157.2
2241.425	152.2
2245.368	150.2
2249.307	155.2
2253.243	148.2
2257.175	147.2
2261.104	140.2
2265.029	144.2
2268.95	143.2
2272.868	141.2
2276.783	136.2
2280.694	139.2
2284.601	137.2
2288.505	139.2
2292.405	134.2
2296.302	142.2
2300.195	132.2
2304.085	129.2
2307.971	114.2
2311.854	123.2
2315.734	118.2
2319.609	120.2
2323.482	123.2
2327.351	122.2
2331.216	130.2
2335.078	145.2
2338.937	138.2
2342.792	131.2
2346.643	120.2
2350.492	121.2
2354.336	127.2
2358.178	114.2
2362.015	121.2
2365.85	124.2
2369.681	128.2
2373.508	127.2
2377.333	125.2
2381.153	127.2
2384.971	118.2
2388.785	124.2
2392.595	114.2
2396.402	127.2
2400.206	126.2
2404.007	120.2
2407.804	119.2
2411.597	108.2
2415.388	119.2
2419.174	129.2
2422.958	113.2
2426.738	120.2
2430.515	124.2
2434.289	114.2
2438.059	114.2
2441.825	110.2
2445.589	105.2
2449.349	104.2
2453.106	113.2
2456.859	101.2
2460.61	110.2
2464.356	103.2
2468.1	102.2
2471.84	97.2
2475.577	95.2
2479.311	98.2
2483.041	102.2
2486.768	97.2
2490.492	101.2
2494.213	95.2
2497.93	96.2
2501.644	93.2
2505.355	92.2
2509.062	99.2
2512.766	97.2
2516.467	86.2
2520.165	93.2
2523.859	90.2
2527.551	95.2
2531.239	86.2
2534.923	78.2
2538.605	74.2
2542.283	81.2
2545.958	79.2
2549.63	78.2
2553.299	81.2
2556.964	70.2
2560.626	74.2
2564.285	74.2
2567.941	74.2
2571.594	67.2
2575.243	74.2
2578.89	69.2
2582.533	67.2
2586.173	68.2
2589.809	67.2
2593.443	71.2
2597.073	68.2
2600.701	69.2
2604.325	53.2
2607.946	52.2
2611.564	68.2
2615.178	67.2
2618.79	62.2
2622.398	65.2
2626.004	58.2
2629.606	60.2
2633.205	59.2
2636.801	53.2
2640.394	60.2
2643.983	52.2
2647.57	54.2
2651.153	50.2
2654.734	50.2
2658.311	53.2
2661.885	56.2
2665.456	62.2
2669.025	56.2
2672.589	45.2
2676.151	49.2
2679.71	45.2
2683.266	45.2
2686.819	50.2
2690.368	50.2
2693.915	54.2
2697.458	46.2
2700.999	47.2
2704.536	47.2
2708.071	50.2
2711.602	46.2
2715.13	38.2
2718.656	38.2
2722.178	33.2
2725.697	41.2
2729.214	34.2
2732.727	39.2
2736.237	41.2
2739.744	30.2
2743.249	32.2
2746.75	28.2
2750.248	27.2
2753.743	27.2
2757.236	26.2
2760.725	29.2
2764.211	19.2
2767.695	20.2
2771.175	24.2
2774.652	29.2
2778.127	28.2
2781.598	21.2
2785.067	22.2
2788.532	27.2
2791.995	29.2
2795.455	27.2
2798.911	24.2
2802.365	32.2
2805.816	27.2
2809.264	26.2
2812.709	22.2
2816.151	29.2
2819.59	36.2
2823.026	26.2
2826.46	27.2
2829.89	31.2
2833.318	25.2
2836.742	37.2
2840.164	24.2
2843.583	28.2
2846.999	34.2
2850.412	27.2
2853.822	34.2
2857.229	35.2
2860.634	25.2
2864.035	28.2
2867.434	32.2
2870.83	37.2
2874.223	32.2
2877.613	39.2
2881	36.2
2884.385	41.2
2887.766	46.2
2891.145	36.2
2894.521	40.2
2897.894	42.2
2901.264	50.2
2904.631	38.2
2907.996	41.2
2911.358	49.2
2914.717	44.2
2918.073	43.2
2921.426	40.2
2924.777	48.2
2928.124	47.2
2931.469	51.2
2934.811	55.2
2938.15	61.2
2941.487	60.2
2944.821	59.2
2948.152	59.2
2951.48	58.2
2954.805	55.2
2958.128	56.2
2961.447	58.2
2964.765	52.2
2968.079	51.2
2971.39	54.2
2974.699	50.2
2978.005	53.2
2981.308	48.2
2984.609	45.2
2987.907	53.2
2991.202	51.2
2994.494	47.2
2997.784	45.2
3001.07	53.2
3004.355	47.2
3007.636	57.2
3010.915	61.2
3014.191	49.2
3017.464	57.2
3020.734	63.2
3024.002	60.2
3027.267	59.2
3030.53	60.2
3033.789	60.2
3037.046	62.2
3040.301	66.2
3043.552	69.2
3046.801	68.2
3050.048	72.2
3053.291	76.2
3056.532	74.2
3059.771	80.2
3063.006	85.2
3066.239	84.2
3069.469	98.2
3072.697	95.2
3075.922	103.2
3079.144	97.2
3082.364	101.2
3085.581	106.2
3088.795	107.2
3092.007	118.2
3095.216	107.2
3098.423	110.2
3101.627	113.2
3104.828	123.2
3108.026	120.2
3111.222	125.2
3114.416	126.2
3117.607	133.2
3120.795	137.2
3123.98	135.2
3127.163	145.2
3130.344	143.2
3133.521	150.2
3136.696	152.2
3139.869	157.2
3143.039	157.2
3146.206	157.2
3149.371	163.2
3152.533	166.2
3155.693	169.2
3158.85	174.2
3162.005	167.2
3165.157	169.2
3168.306	166.2
3171.453	156.2
3174.597	164.2
3177.739	169.2
3180.878	172.2
3184.014	170.2
3187.149	176.2
3190.28	171.2
3193.409	169.2
3196.536	170.2
3199.659	180.2
3202.781	182.2
3205.9	165.2
3209.016	172.2
3212.13	166.2
3215.241	173.2
3218.35	164.2
3221.456	165.2
3224.56	163.2
3227.661	164.2
3230.76	159.2
3233.856	159.2
3236.95	154.2
3240.041	146.2
3243.13	158.2
3246.216	139.2
3249.3	143.2
3252.382	140.2
3255.46	140.2
3258.537	140.2
3261.611	139.2
3264.682	136.2
3267.751	136.2
3270.818	127.2
3273.882	136.2
3276.943	128.2
3280.002	127.2
3283.059	125.2
3286.113	125.2
3289.165	123.2
3292.214	118.2
3295.261	119.2
3298.306	114.2
3301.348	124.2
3304.387	118.2
3307.425	124.2
3310.459	113.2
3313.492	113.2
3316.521	114.2
3319.549	125.2
3322.574	111.2
3325.597	114.2
3328.617	114.2
3331.635	120.2
3334.65	126.2
3337.663	108.2
3340.674	115.2
3343.682	121.2
3346.688	114.2
3349.691	124.2
3352.692	121.2
3355.691	122.2
3358.687	121.2
3361.681	113.2
3364.673	116.2
3367.662	113.2
3370.649	107.2
3373.633	107.2
3376.615	106.2
3379.595	97.2
3382.572	99.2
3385.547	105.2
3388.52	99.2
3391.49	91.2
3394.458	90.2
3397.424	91.2
3400.387	96.2
3403.348	79.2
3406.307	84.2
3409.263	83.2
3412.217	86.2
3415.168	91.2
3418.118	76.2
3421.065	76.2
3424.009	76.2
3426.951	72.2
3429.891	76.2
3432.829	77.2
3435.764	75.2
3438.697	71.2
3441.628	57.2
3444.557	59.2
3447.483	64.2
3450.407	56.2
3453.328	55.2
3456.247	47.2
3459.164	48.2
3462.079	32.2
3464.991	44.2
3467.902	39.2
3470.809	38.2
3473.715	30.2
3476.618	25.2
3479.519	28.2
3482.418	22.2
3485.315	33.2
3488.209	20.2
3491.101	21.2
3493.99	25.2
3496.878	13.2
3499.763	11.2
3502.646	8.2
3505.527	13.2
3508.405	8.2
3511.281	9.2
3514.155	4.2
3517.027	0.2
3519.897	4.2
3522.764	-0.8
3525.629	-3.8
3528.492	-1.8
3531.352	-7.8
3534.211	-12.8
3537.067	-8.8
3539.921	-11.8
3542.773	-17.8
3545.622	-9.8
3548.469	-12.8
3551.315	-11.8
3554.157	-15.8
3556.998	-9.8
3559.837	-14.8
3562.673	-15.8
3565.507	-19.8
3568.339	-14.8
3571.169	-23.8
3573.996	-21.8
3576.822	-34.8
3579.645	-33.8
3582.466	-21.8
3585.285	-26.8
3588.101	-23.8
3590.916	-29.8
3593.728	-29.8
3596.538	-31.8
3599.346	-32.8
3602.152	-33.8
3604.956	-32.8
3607.757	-26.8
3610.556	-30.8
3613.354	-40.8
3616.149	-33.8
3618.942	-37.8
3621.732	-39.8
3624.521	-32.8
3627.307	-39.8
3630.092	-38.8
3632.874	-38.8
3635.654	-40.8
3638.432	-40.8
3641.208	-32.8
3643.982	-40.8
3646.753	-41.8
3649.523	-34.8
3652.29	-40.8
3655.055	-38.8
3657.818	-40.8
3660.579	-41.8
3663.338	-42.8
3666.095	-40.8
3668.849	-43.8
3671.602	-42.8
3674.352	-43.8
3677.101	-46.8
3679.847	-45.8
3682.591	-52.8
3685.333	-45.8
3688.073	-48.8
3690.811	-46.8
3693.547	-50.8
3696.281	-44.8
3699.013	-43.8
3701.742	-47.8
3704.47	-43.8
3707.195	-42.8
3709.919	-48.8
3712.64	-45.8
3715.359	-47.8
3718.076	-51.8
3720.792	-46.8
3723.505	-46.8
3726.216	-44.8
3728.925	-50.8
3731.632	-45.8
3734.336	-48.8
3737.039	-44.8
3739.74	-53.8
3742.439	-61.8
3745.136	-52.8
3747.83	-53.8
3750.523	-51.8
3753.213	-61.8
3755.902	-48.8
3758.589	-50.8
3761.273	-49.8
3763.956	-53.8
3766.636	-45.8
3769.315	-44.8
3771.991	-47.8
3774.665	-48.8
3777.338	-51.8
3780.008	-50.8
3782.677	-51.8
3785.343	-48.8
3788.007	-51.8
3790.67	-51.8
3793.33	-53.8
3795.989	-53.8
3798.645	-54.8
3801.299	-55.8
3803.952	-54.8
3806.602	-52.8
3809.251	-51.8
3811.897	-56.8
3814.542	-56.8
3817.184	-51.8
3819.825	-48.8
3822.463	-46.8
3825.1	-46.8
3827.735	-55.8
3830.367	-54.8
3832.998	-51.8
3835.627	-52.8
3838.253	-52.8
3840.878	-49.8
3843.501	-47.8
3846.122	-57.8
3848.741	-54.8
3851.358	-54.8
3853.973	-48.8
3856.586	-56.8
3859.197	-51.8
3861.806	-54.8
3864.414	-56.8
3867.019	-52.8
3869.622	-49.8
3872.224	-39.8
3874.823	-33.8
3877.421	-27.8
3880.016	-16.8
3882.61	-1.8
3885.202	-7.8
3887.792	-9.8
3890.38	-26.8
3892.966	-43.8
3895.55	-48.8
3898.132	-55.8
3900.713	-52.8
3903.291	-53.8
3905.868	-50.8
3908.442	-48.8
3911.015	-56.8
3913.586	-60.8
3916.155	-49.8
3918.722	-52.8
3921.287	-53.8
3923.85	-47.8
3926.411	-56.8
3928.971	-62.8
3931.528	-56.8
3934.084	-52.8
3936.638	-52.8
3939.19	-59.8
3941.74	-53.8
3944.288	-55.8
3946.834	-53.8
3949.378	-57.8
3951.921	-52.8
3954.462	-55.8
3957	-51.8
3959.537	-44.8
3962.072	-45.8
3964.606	-49.8
3967.137	-50.8
3969.667	-51.8
3972.194	-46.8
3974.72	-44.8
3977.244	-50.8
3979.766	-54.8
3982.286	-52.8
3984.805	-57.8
3987.321	-53.8
3989.836	-50.8
3992.349	-49.8
3994.86	-58.8
3997.369	-56.8
3999.877	-54.8
4002.382	-52.8
4004.886	-52.8
4007.388	-55.8
4009.888	-52.8
4012.386	-55.8
4014.883	-48.8
4017.377	-46.8
4019.87	-51.8
4022.361	-54.8
4024.85	-48.8
4027.338	-51.8
4029.823	-54.8
4032.307	-56.8
4034.789	-50.8
4037.269	-54.8
4039.747	-52.8
4042.224	-55.8
4044.699	-52.8
4047.172	-55.8
4049.643	-55.8
4052.112	-51.8
4054.58	-54.8
4057.046	-53.8
4059.51	-56.8
4061.972	-52.8
4064.432	-51.8
4066.891	-46.8
4069.348	-50.8
4071.803	-47.8
4074.256	-54.8
4076.708	-57.8
4079.158	-58.8
4081.606	-53.8
4084.052	-55.8
4086.497	-49.8
4088.939	-51.8
4091.38	-54.8
4093.819	-59.8
4096.257	-59.8
4098.693	-56.8
4101.127	-47.8
4103.559	-54.8
4105.989	6.2
4108.418	8.2
4110.845	1.2
4113.27	5.2
4115.694	12.2
4118.115	8.2
4120.535	-49.8
4122.954	-51.8
4125.37	-50.8
4127.785	-49.8
4130.198	-53.8
4132.609	-54.8
4135.019	-54.8
4137.427	-57.8
4139.833	-51.8
4142.237	-55.8
