Data from 2018-3-7_conc=0_n=8_RamanShift_05.txt Node
Date: Wed Mar 07 10:31:52 IST 2018
User: aro
Spectrometer: QEPB0276
Trigger mode: 0
Integration Time (sec): 3.000000E1
Scans to average: 1
Electric dark correction enabled: true
Nonlinearity correction enabled: false
Boxcar width: 0
XAxis mode: Raman Shifts
Number of Pixels in Spectrum: 1044
>>>>>Begin Spectral Data<<<<<
160.701	5.2
166.742	18.2
172.777	61.2
178.805	200.2
184.826	505.2
190.841	1076.2
196.849	1814.2
202.85	2373.2
208.845	2572.2
214.833	2574.2
220.815	2550.2
226.789	2548.2
232.758	2569.2
238.719	2603.2
244.674	2599.2
250.623	2561.2
256.565	2539.2
262.5	2505.2
268.429	2477.2
274.351	2476.2
280.267	2461.2
286.176	2458.2
292.079	2466.2
297.975	2461.2
303.865	2452.2
309.748	2461.2
315.625	2477.2
321.495	2464.2
327.359	2463.2
333.217	2457.2
339.068	2447.2
344.912	2492.2
350.751	2482.2
356.583	2486.2
362.408	2498.2
368.227	2507.2
374.04	2498.2
379.847	2527.2
385.647	2519.2
391.44	2530.2
397.228	2567.2
403.009	2558.2
408.784	2591.2
414.553	2590.2
420.315	2614.2
426.071	2608.2
431.821	2609.2
437.565	2603.2
443.302	2608.2
449.033	2611.2
454.758	2571.2
460.477	2571.2
466.189	2543.2
471.896	2527.2
477.596	2492.2
483.29	2505.2
488.978	2497.2
494.66	2468.2
500.335	2433.2
506.005	2352.2
511.668	2269.2
517.325	2156.2
522.977	2107.2
528.622	2042.2
534.261	2030.2
539.894	1971.2
545.521	1955.2
551.141	1927.2
556.756	1930.2
562.365	1910.2
567.968	1890.2
573.565	1880.2
579.155	1869.2
584.74	1871.2
590.319	1841.2
595.892	1866.2
601.459	1862.2
607.02	1841.2
612.575	1812.2
618.124	1804.2
623.667	1780.2
629.204	1771.2
634.735	1767.2
640.261	1740.2
645.781	1726.2
651.294	1729.2
656.802	1715.2
662.304	1712.2
667.8	1710.2
673.29	1715.2
678.775	1694.2
684.254	1704.2
689.726	1696.2
695.193	1678.2
700.655	1665.2
706.11	1667.2
711.56	1653.2
717.004	1627.2
722.442	1623.2
727.874	1604.2
733.301	1611.2
738.722	1614.2
744.137	1624.2
749.547	1615.2
754.951	1596.2
760.349	1591.2
765.741	1609.2
771.128	1598.2
776.509	1629.2
781.885	1643.2
787.254	1661.2
792.618	1651.2
797.977	1641.2
803.33	1655.2
808.677	1633.2
814.019	1622.2
819.355	1585.2
824.686	1585.2
830.011	1575.2
835.33	1569.2
840.644	1571.2
845.952	1570.2
851.255	1554.2
856.552	1561.2
861.844	1554.2
867.13	1542.2
872.41	1564.2
877.686	1588.2
882.955	1612.2
888.219	1589.2
893.478	1552.2
898.731	1480.2
903.979	1446.2
909.221	1428.2
914.458	1427.2
919.69	1414.2
924.916	1417.2
930.136	1407.2
935.351	1405.2
940.561	1411.2
945.766	1413.2
950.965	1387.2
956.158	1393.2
961.347	1382.2
966.529	1365.2
971.707	1341.2
976.879	1319.2
982.046	1314.2
987.208	1305.2
992.364	1306.2
997.515	1314.2
1002.66	1338.2
1007.801	1324.2
1012.936	1332.2
1018.066	1339.2
1023.19	1364.2
1028.309	1374.2
1033.423	1350.2
1038.532	1370.2
1043.636	1349.2
1048.734	1357.2
1053.827	1340.2
1058.915	1328.2
1063.998	1298.2
1069.075	1282.2
1074.147	1291.2
1079.214	1301.2
1084.276	1317.2
1089.333	1314.2
1094.385	1332.2
1099.431	1327.2
1104.472	1303.2
1109.509	1290.2
1114.54	1261.2
1119.565	1242.2
1124.586	1233.2
1129.602	1220.2
1134.613	1211.2
1139.618	1200.2
1144.619	1204.2
1149.614	1203.2
1154.604	1199.2
1159.589	1210.2
1164.57	1207.2
1169.545	1197.2
1174.515	1205.2
1179.48	1203.2
1184.44	1194.2
1189.395	1182.2
1194.345	1171.2
1199.29	1155.2
1204.23	1155.2
1209.165	1165.2
1214.095	1167.2
1219.021	1155.2
1223.941	1170.2
1228.856	1181.2
1233.766	1193.2
1238.672	1188.2
1243.572	1181.2
1248.467	1181.2
1253.358	1158.2
1258.244	1141.2
1263.124	1131.2
1268	1114.2
1272.871	1097.2
1277.737	1085.2
1282.599	1102.2
1287.455	1088.2
1292.306	1100.2
1297.153	1087.2
1301.995	1091.2
1306.832	1106.2
1311.664	1102.2
1316.491	1116.2
1321.314	1103.2
1326.132	1108.2
1330.945	1061.2
1335.753	1047.2
1340.556	1020.2
1345.354	1004.2
1350.148	993.2
1354.937	962.2
1359.722	942.2
1364.501	920.2
1369.276	908.2
1374.046	886.2
1378.811	883.2
1383.572	878.2
1388.327	888.2
1393.079	890.2
1397.825	887.2
1402.567	897.2
1407.304	908.2
1412.036	921.2
1416.764	905.2
1421.487	912.2
1426.205	916.2
1430.919	915.2
1435.628	938.2
1440.333	940.2
1445.032	943.2
1449.727	971.2
1454.418	981.2
1459.104	980.2
1463.785	960.2
1468.462	923.2
1473.134	888.2
1477.802	846.2
1482.465	822.2
1487.123	806.2
1491.777	787.2
1496.426	777.2
1501.071	758.2
1505.711	745.2
1510.347	742.2
1514.978	728.2
1519.604	725.2
1524.226	722.2
1528.844	721.2
1533.457	721.2
1538.065	719.2
1542.669	719.2
1547.269	718.2
1551.864	733.2
1556.454	761.2
1561.041	760.2
1565.622	754.2
1570.199	762.2
1574.772	781.2
1579.34	791.2
1583.904	801.2
1588.464	822.2
1593.019	809.2
1597.569	810.2
1602.115	797.2
1606.657	793.2
1611.195	793.2
1615.728	788.2
1620.256	784.2
1624.78	778.2
1629.3	781.2
1633.816	794.2
1638.327	792.2
1642.834	776.2
1647.336	796.2
1651.834	777.2
1656.328	780.2
1660.817	761.2
1665.302	753.2
1669.783	736.2
1674.259	719.2
1678.732	692.2
1683.199	661.2
1687.663	628.2
1692.122	596.2
1696.577	567.2
1701.028	547.2
1705.474	514.2
1709.917	495.2
1714.355	489.2
1718.788	496.2
1723.218	490.2
1727.643	505.2
1732.064	510.2
1736.481	505.2
1740.893	496.2
1745.301	481.2
1749.705	483.2
1754.105	464.2
1758.501	451.2
1762.893	445.2
1767.28	434.2
1771.663	430.2
1776.042	431.2
1780.417	408.2
1784.787	395.2
1789.154	388.2
1793.516	371.2
1797.874	360.2
1802.228	368.2
1806.578	355.2
1810.924	346.2
1815.266	351.2
1819.603	359.2
1823.937	361.2
1828.266	369.2
1832.591	380.2
1836.913	379.2
1841.23	377.2
1845.543	388.2
1849.852	396.2
1854.156	389.2
1858.457	384.2
1862.754	392.2
1867.047	380.2
1871.335	378.2
1875.62	381.2
1879.9	385.2
1884.177	366.2
1888.449	367.2
1892.718	353.2
1896.982	349.2
1901.243	329.2
1905.499	329.2
1909.752	301.2
1914	310.2
1918.245	304.2
1922.485	290.2
1926.722	277.2
1930.954	287.2
1935.183	278.2
1939.408	280.2
1943.628	265.2
1947.845	271.2
1952.058	267.2
1956.267	262.2
1960.472	275.2
1964.673	275.2
1968.87	261.2
1973.063	272.2
1977.252	279.2
1981.438	279.2
1985.619	279.2
1989.797	273.2
1993.971	283.2
1998.14	279.2
2002.306	295.2
2006.469	288.2
2010.627	288.2
2014.781	290.2
2018.932	282.2
2023.078	291.2
2027.221	294.2
2031.36	284.2
2035.495	288.2
2039.627	269.2
2043.754	267.2
2047.878	268.2
2051.998	262.2
2056.114	259.2
2060.226	249.2
2064.334	249.2
2068.439	245.2
2072.54	249.2
2076.637	241.2
2080.73	236.2
2084.82	244.2
2088.906	232.2
2092.988	226.2
2097.066	223.2
2101.14	213.2
2105.211	214.2
2109.278	217.2
2113.342	213.2
2117.401	224.2
2121.457	213.2
2125.509	214.2
2129.558	210.2
2133.602	209.2
2137.643	217.2
2141.681	206.2
2145.714	225.2
2149.744	227.2
2153.77	226.2
2157.793	226.2
2161.812	226.2
2165.827	223.2
2169.838	219.2
2173.846	210.2
2177.851	214.2
2181.851	217.2
2185.848	212.2
2189.841	207.2
2193.831	214.2
2197.817	210.2
2201.799	212.2
2205.778	205.2
2209.753	204.2
2213.725	198.2
2217.693	212.2
2221.657	210.2
2225.618	201.2
2229.575	212.2
2233.529	199.2
2237.479	201.2
2241.425	196.2
2245.368	198.2
2249.307	200.2
2253.243	185.2
2257.175	186.2
2261.104	178.2
2265.029	191.2
2268.95	187.2
2272.868	187.2
2276.783	175.2
2280.694	174.2
2284.601	170.2
2288.505	176.2
2292.405	174.2
2296.302	178.2
2300.195	171.2
2304.085	172.2
2307.971	178.2
2311.854	167.2
2315.734	161.2
2319.609	169.2
2323.482	160.2
2327.351	163.2
2331.216	175.2
2335.078	187.2
2338.937	186.2
2342.792	163.2
2346.643	175.2
2350.492	167.2
2354.336	170.2
2358.178	166.2
2362.015	168.2
2365.85	165.2
2369.681	169.2
2373.508	180.2
2377.333	177.2
2381.153	182.2
2384.971	163.2
2388.785	179.2
2392.595	171.2
2396.402	169.2
2400.206	179.2
2404.007	163.2
2407.804	172.2
2411.597	171.2
2415.388	165.2
2419.174	170.2
2422.958	164.2
2426.738	165.2
2430.515	168.2
2434.289	167.2
2438.059	156.2
2441.825	152.2
2445.589	160.2
2449.349	157.2
2453.106	154.2
2456.859	150.2
2460.61	154.2
2464.356	152.2
2468.1	146.2
2471.84	150.2
2475.577	135.2
2479.311	132.2
2483.041	136.2
2486.768	143.2
2490.492	142.2
2494.213	134.2
2497.93	141.2
2501.644	133.2
2505.355	133.2
2509.062	129.2
2512.766	123.2
2516.467	126.2
2520.165	123.2
2523.859	122.2
2527.551	121.2
2531.239	110.2
2534.923	110.2
2538.605	114.2
2542.283	105.2
2545.958	109.2
2549.63	106.2
2553.299	104.2
2556.964	99.2
2560.626	106.2
2564.285	99.2
2567.941	106.2
2571.594	94.2
2575.243	99.2
2578.89	90.2
2582.533	93.2
2586.173	91.2
2589.809	91.2
2593.443	92.2
2597.073	91.2
2600.701	90.2
2604.325	82.2
2607.946	84.2
2611.564	92.2
2615.178	94.2
2618.79	81.2
2622.398	87.2
2626.004	78.2
2629.606	80.2
2633.205	80.2
2636.801	80.2
2640.394	90.2
2643.983	87.2
2647.57	87.2
2651.153	75.2
2654.734	82.2
2658.311	78.2
2661.885	78.2
2665.456	80.2
2669.025	79.2
2672.589	75.2
2676.151	75.2
2679.71	73.2
2683.266	79.2
2686.819	82.2
2690.368	74.2
2693.915	75.2
2697.458	66.2
2700.999	72.2
2704.536	70.2
2708.071	64.2
2711.602	60.2
2715.13	62.2
2718.656	61.2
2722.178	60.2
2725.697	52.2
2729.214	54.2
2732.727	60.2
2736.237	58.2
2739.744	52.2
2743.249	41.2
2746.75	51.2
2750.248	49.2
2753.743	39.2
2757.236	38.2
2760.725	31.2
2764.211	36.2
2767.695	32.2
2771.175	34.2
2774.652	40.2
2778.127	43.2
2781.598	40.2
2785.067	35.2
2788.532	33.2
2791.995	36.2
2795.455	33.2
2798.911	38.2
2802.365	47.2
2805.816	43.2
2809.264	42.2
2812.709	39.2
2816.151	42.2
2819.59	55.2
2823.026	38.2
2826.46	42.2
2829.89	46.2
2833.318	38.2
2836.742	49.2
2840.164	44.2
2843.583	50.2
2846.999	55.2
2850.412	55.2
2853.822	51.2
2857.229	47.2
2860.634	57.2
2864.035	53.2
2867.434	57.2
2870.83	65.2
2874.223	67.2
2877.613	68.2
2881	68.2
2884.385	78.2
2887.766	86.2
2891.145	82.2
2894.521	82.2
2897.894	83.2
2901.264	82.2
2904.631	72.2
2907.996	83.2
2911.358	89.2
2914.717	81.2
2918.073	81.2
2921.426	90.2
2924.777	97.2
2928.124	92.2
2931.469	108.2
2934.811	114.2
2938.15	122.2
2941.487	127.2
2944.821	115.2
2948.152	118.2
2951.48	103.2
2954.805	96.2
2958.128	96.2
2961.447	91.2
2964.765	81.2
2968.079	83.2
2971.39	88.2
2974.699	77.2
2978.005	81.2
2981.308	81.2
2984.609	74.2
2987.907	78.2
2991.202	79.2
2994.494	75.2
2997.784	66.2
3001.07	79.2
3004.355	72.2
3007.636	76.2
3010.915	75.2
3014.191	68.2
3017.464	71.2
3020.734	76.2
3024.002	73.2
3027.267	84.2
3030.53	79.2
3033.789	86.2
3037.046	83.2
3040.301	77.2
3043.552	88.2
3046.801	91.2
3050.048	94.2
3053.291	99.2
3056.532	98.2
3059.771	104.2
3063.006	111.2
3066.239	124.2
3069.469	132.2
3072.697	116.2
3075.922	136.2
3079.144	125.2
3082.364	139.2
3085.581	141.2
3088.795	138.2
3092.007	144.2
3095.216	145.2
3098.423	146.2
3101.627	147.2
3104.828	154.2
3108.026	159.2
3111.222	162.2
3114.416	170.2
3117.607	166.2
3120.795	167.2
3123.98	172.2
3127.163	186.2
3130.344	189.2
3133.521	177.2
3136.696	182.2
3139.869	189.2
3143.039	193.2
3146.206	203.2
3149.371	194.2
3152.533	211.2
3155.693	204.2
3158.85	208.2
3162.005	210.2
3165.157	204.2
3168.306	205.2
3171.453	203.2
3174.597	213.2
3177.739	216.2
3180.878	213.2
3184.014	210.2
3187.149	205.2
3190.28	210.2
3193.409	218.2
3196.536	209.2
3199.659	215.2
3202.781	222.2
3205.9	210.2
3209.016	211.2
3212.13	213.2
3215.241	211.2
3218.35	205.2
3221.456	194.2
3224.56	183.2
3227.661	196.2
3230.76	185.2
3233.856	185.2
3236.95	175.2
3240.041	172.2
3243.13	174.2
3246.216	165.2
3249.3	164.2
3252.382	160.2
3255.46	162.2
3258.537	149.2
3261.611	152.2
3264.682	154.2
3267.751	157.2
3270.818	143.2
3273.882	152.2
3276.943	148.2
3280.002	155.2
3283.059	143.2
3286.113	149.2
3289.165	133.2
3292.214	143.2
3295.261	144.2
3298.306	139.2
3301.348	143.2
3304.387	147.2
3307.425	139.2
3310.459	136.2
3313.492	134.2
3316.521	134.2
3319.549	145.2
3322.574	135.2
3325.597	135.2
3328.617	142.2
3331.635	145.2
3334.65	146.2
3337.663	134.2
3340.674	141.2
3343.682	147.2
3346.688	131.2
3349.691	144.2
3352.692	135.2
3355.691	143.2
3358.687	132.2
3361.681	133.2
3364.673	139.2
3367.662	141.2
3370.649	135.2
3373.633	125.2
3376.615	128.2
3379.595	116.2
3382.572	115.2
3385.547	125.2
3388.52	112.2
3391.49	117.2
3394.458	108.2
3397.424	109.2
3400.387	106.2
3403.348	101.2
3406.307	96.2
3409.263	103.2
3412.217	101.2
3415.168	98.2
3418.118	96.2
3421.065	91.2
3424.009	84.2
3426.951	91.2
3429.891	86.2
3432.829	84.2
3435.764	89.2
3438.697	76.2
3441.628	70.2
3444.557	69.2
3447.483	65.2
3450.407	62.2
3453.328	64.2
3456.247	62.2
3459.164	47.2
3462.079	45.2
3464.991	44.2
3467.902	38.2
3470.809	32.2
3473.715	33.2
3476.618	34.2
3479.519	25.2
3482.418	23.2
3485.315	23.2
3488.209	20.2
3491.101	11.2
3493.99	25.2
3496.878	15.2
3499.763	6.2
3502.646	9.2
3505.527	14.2
3508.405	12.2
3511.281	10.2
3514.155	1.2
3517.027	-5.8
3519.897	-4.8
3522.764	-8.8
3525.629	-7.8
3528.492	-13.8
3531.352	-16.8
3534.211	-12.8
3537.067	-17.8
3539.921	-11.8
3542.773	-19.8
3545.622	-25.8
3548.469	-22.8
3551.315	-25.8
3554.157	-19.8
3556.998	-24.8
3559.837	-27.8
3562.673	-29.8
3565.507	-30.8
3568.339	-28.8
3571.169	-29.8
3573.996	-24.8
3576.822	-36.8
3579.645	-37.8
3582.466	-32.8
3585.285	-32.8
3588.101	-41.8
3590.916	-36.8
3593.728	-41.8
3596.538	-39.8
3599.346	-39.8
3602.152	-41.8
3604.956	-36.8
3607.757	-39.8
3610.556	-43.8
3613.354	-52.8
3616.149	-54.8
3618.942	-47.8
3621.732	-43.8
3624.521	-41.8
3627.307	-49.8
3630.092	-47.8
3632.874	-49.8
3635.654	-45.8
3638.432	-49.8
3641.208	-43.8
3643.982	-50.8
3646.753	-48.8
3649.523	-45.8
3652.29	-51.8
3655.055	-47.8
3657.818	-54.8
3660.579	-53.8
3663.338	-46.8
3666.095	-55.8
3668.849	-58.8
3671.602	-57.8
3674.352	-52.8
3677.101	-55.8
3679.847	-52.8
3682.591	-53.8
3685.333	-57.8
3688.073	-60.8
3690.811	-57.8
3693.547	-65.8
3696.281	-63.8
3699.013	-61.8
3701.742	-55.8
3704.47	-55.8
3707.195	-56.8
3709.919	-61.8
3712.64	-55.8
3715.359	-61.8
3718.076	-63.8
3720.792	-62.8
3723.505	-61.8
3726.216	-59.8
3728.925	-62.8
3731.632	-56.8
3734.336	-61.8
3737.039	-55.8
3739.74	-67.8
3742.439	-62.8
3745.136	-65.8
3747.83	-64.8
3750.523	-64.8
3753.213	-65.8
3755.902	-63.8
3758.589	-66.8
3761.273	-57.8
3763.956	-63.8
3766.636	-62.8
3769.315	-58.8
3771.991	-64.8
3774.665	-65.8
3777.338	-61.8
3780.008	-62.8
3782.677	-72.8
3785.343	-63.8
3788.007	-65.8
3790.67	-67.8
3793.33	-63.8
3795.989	-71.8
3798.645	-67.8
3801.299	-65.8
3803.952	-65.8
3806.602	-66.8
3809.251	-63.8
3811.897	-67.8
3814.542	-64.8
3817.184	-65.8
3819.825	-61.8
3822.463	-59.8
3825.1	-59.8
3827.735	-71.8
3830.367	-67.8
3832.998	-67.8
3835.627	-61.8
3838.253	-58.8
3840.878	-56.8
3843.501	-57.8
3846.122	-64.8
3848.741	-65.8
3851.358	-63.8
3853.973	-62.8
3856.586	-62.8
3859.197	-63.8
3861.806	-65.8
3864.414	-68.8
3867.019	-65.8
3869.622	-59.8
3872.224	-52.8
3874.823	-48.8
3877.421	-48.8
3880.016	-39.8
3882.61	-20.8
3885.202	-21.8
3887.792	-24.8
3890.38	-35.8
3892.966	-54.8
3895.55	-65.8
3898.132	-65.8
3900.713	-67.8
3903.291	-69.8
3905.868	-66.8
3908.442	-69.8
3911.015	-62.8
3913.586	-65.8
3916.155	-62.8
3918.722	-72.8
3921.287	-66.8
3923.85	-64.8
3926.411	-67.8
3928.971	-71.8
3931.528	-69.8
3934.084	-64.8
3936.638	-62.8
3939.19	-68.8
3941.74	-61.8
3944.288	-65.8
3946.834	-64.8
3949.378	-69.8
3951.921	-68.8
3954.462	-69.8
3957	-62.8
3959.537	-59.8
3962.072	-62.8
3964.606	-63.8
3967.137	-62.8
3969.667	-67.8
3972.194	-66.8
3974.72	-63.8
3977.244	-59.8
3979.766	-65.8
3982.286	-68.8
3984.805	-75.8
3987.321	-62.8
3989.836	-62.8
3992.349	-60.8
3994.86	-70.8
3997.369	-67.8
3999.877	-66.8
4002.382	-65.8
4004.886	-65.8
4007.388	-66.8
4009.888	-62.8
4012.386	-64.8
4014.883	-66.8
4017.377	-58.8
4019.87	-63.8
4022.361	-72.8
4024.85	-62.8
4027.338	-65.8
4029.823	-65.8
4032.307	-68.8
4034.789	-58.8
4037.269	-67.8
4039.747	-68.8
4042.224	-63.8
4044.699	-68.8
4047.172	-73.8
4049.643	-67.8
4052.112	-66.8
4054.58	-61.8
4057.046	-58.8
4059.51	-69.8
4061.972	-65.8
4064.432	-65.8
4066.891	-68.8
4069.348	-66.8
4071.803	-63.8
4074.256	-61.8
4076.708	-61.8
4079.158	-65.8
4081.606	-62.8
4084.052	-65.8
4086.497	-63.8
4088.939	-61.8
4091.38	-72.8
4093.819	-71.8
4096.257	-67.8
4098.693	-70.8
4101.127	-63.8
4103.559	-69.8
4105.989	6.2
4108.418	-3.8
4110.845	-6.8
4113.27	-6.8
4115.694	1.2
4118.115	3.2
4120.535	-68.8
4122.954	-63.8
4125.37	-67.8
4127.785	-60.8
4130.198	-62.8
4132.609	-68.8
4135.019	-73.8
4137.427	-73.8
4139.833	-67.8
4142.237	-69.8
