Data from 2018-3-7 Ethanol_RamanShift_01.txt Node
Date: Wed Mar 07 09:56:23 IST 2018
User: aro
Spectrometer: QEPB0276
Trigger mode: 0
Integration Time (sec): 3.000000E1
Scans to average: 1
Electric dark correction enabled: true
Nonlinearity correction enabled: false
Boxcar width: 0
XAxis mode: Raman Shifts
Number of Pixels in Spectrum: 1044
>>>>>Begin Spectral Data<<<<<
160.701	16.1
166.742	33.1
172.777	84.1
178.805	268.1
184.826	703.1
190.841	1476.1
196.849	2425.1
202.85	3135.1
208.845	3367.1
214.833	3332.1
220.815	3240.1
226.789	3181.1
232.758	3164.1
238.719	3125.1
244.674	3067.1
250.623	3061.1
256.565	3012.1
262.5	2969.1
268.429	2934.1
274.351	2908.1
280.267	2878.1
286.176	2808.1
292.079	2756.1
297.975	2671.1
303.865	2630.1
309.748	2576.1
315.625	2529.1
321.495	2507.1
327.359	2488.1
333.217	2481.1
339.068	2480.1
344.912	2462.1
350.751	2479.1
356.583	2489.1
362.408	2502.1
368.227	2524.1
374.04	2574.1
379.847	2616.1
385.647	2649.1
391.44	2701.1
397.228	2776.1
403.009	2904.1
408.784	3061.1
414.553	3283.1
420.315	3627.1
426.071	4113.1
431.821	4776.1
437.565	5352.1
443.302	5490.1
449.033	5095.1
454.758	4506.1
460.477	3925.1
466.189	3496.1
471.896	3169.1
477.596	2984.1
483.29	2844.1
488.978	2755.1
494.66	2683.1
500.335	2566.1
506.005	2430.1
511.668	2295.1
517.325	2172.1
522.977	2046.1
528.622	1964.1
534.261	1893.1
539.894	1816.1
545.521	1789.1
551.141	1781.1
556.756	1754.1
562.365	1715.1
567.968	1689.1
573.565	1665.1
579.155	1658.1
584.74	1667.1
590.319	1633.1
595.892	1622.1
601.459	1631.1
607.02	1614.1
612.575	1616.1
618.124	1597.1
623.667	1550.1
629.204	1527.1
634.735	1512.1
640.261	1491.1
645.781	1472.1
651.294	1493.1
656.802	1459.1
662.304	1443.1
667.8	1462.1
673.29	1469.1
678.775	1450.1
684.254	1450.1
689.726	1425.1
695.193	1425.1
700.655	1428.1
706.11	1413.1
711.56	1417.1
717.004	1409.1
722.442	1374.1
727.874	1384.1
733.301	1383.1
738.722	1388.1
744.137	1386.1
749.547	1411.1
754.951	1408.1
760.349	1428.1
765.741	1441.1
771.128	1458.1
776.509	1507.1
781.885	1550.1
787.254	1608.1
792.618	1642.1
797.977	1686.1
803.33	1721.1
808.677	1764.1
814.019	1842.1
819.355	1855.1
824.686	1881.1
830.011	1898.1
835.33	1949.1
840.644	2056.1
845.952	2219.1
851.255	2454.1
856.552	2827.1
861.844	3507.1
867.13	4922.1
872.41	7909.1
877.686	13453.1
882.955	20405.1
888.219	24076.1
893.478	20550.1
898.731	12893.1
903.979	7061.1
909.221	4245.1
914.458	3077.1
919.69	2500.1
924.916	2149.1
930.136	1963.1
935.351	1816.1
940.561	1718.1
945.766	1636.1
950.965	1606.1
956.158	1547.1
961.347	1515.1
966.529	1485.1
971.707	1468.1
976.879	1481.1
982.046	1469.1
987.208	1514.1
992.364	1572.1
997.515	1652.1
1002.66	1780.1
1007.801	2007.1
1012.936	2307.1
1018.066	2697.1
1023.19	3167.1
1028.309	3697.1
1033.423	4253.1
1038.532	5045.1
1043.636	6201.1
1048.734	7721.1
1053.827	8884.1
1058.915	8799.1
1063.998	7566.1
1069.075	6217.1
1074.147	5638.1
1079.214	5851.1
1084.276	6757.1
1089.333	7948.1
1094.385	8992.1
1099.431	9024.1
1104.472	7912.1
1109.509	6166.1
1114.54	4769.1
1119.565	4013.1
1124.586	3620.1
1129.602	3348.1
1134.613	3022.1
1139.618	2641.1
1144.619	2301.1
1149.614	2070.1
1154.604	1911.1
1159.589	1809.1
1164.57	1706.1
1169.545	1597.1
1174.515	1499.1
1179.48	1428.1
1184.44	1359.1
1189.395	1313.1
1194.345	1293.1
1199.29	1264.1
1204.23	1257.1
1209.165	1260.1
1214.095	1273.1
1219.021	1290.1
1223.941	1335.1
1228.856	1387.1
1233.766	1442.1
1238.672	1527.1
1243.572	1619.1
1248.467	1705.1
1253.358	1827.1
1258.244	1961.1
1263.124	2209.1
1268	2611.1
1272.871	3232.1
1277.737	4027.1
1282.599	4550.1
1287.455	4419.1
1292.306	3751.1
1297.153	3009.1
1301.995	2480.1
1306.832	2192.1
1311.664	2025.1
1316.491	1930.1
1321.314	1847.1
1326.132	1798.1
1330.945	1754.1
1335.753	1705.1
1340.556	1671.1
1345.354	1641.1
1350.148	1624.1
1354.937	1617.1
1359.722	1626.1
1364.501	1636.1
1369.276	1665.1
1374.046	1745.1
1378.811	1858.1
1383.572	2068.1
1388.327	2244.1
1393.079	2376.1
1397.825	2458.1
1402.567	2533.1
1407.304	2653.1
1412.036	2862.1
1416.764	3058.1
1421.487	3317.1
1426.205	3577.1
1430.919	3936.1
1435.628	4393.1
1440.333	5080.1
1445.032	6041.1
1449.727	7704.1
1454.418	9774.1
1459.104	11310.1
1463.785	11066.1
1468.462	9138.1
1473.134	6906.1
1477.802	5513.1
1482.465	4908.1
1487.123	4685.1
1491.777	4416.1
1496.426	3825.1
1501.071	3169.1
1505.711	2586.1
1510.347	2205.1
1514.978	1956.1
1519.604	1783.1
1524.226	1657.1
1528.844	1526.1
1533.457	1439.1
1538.065	1358.1
1542.669	1277.1
1547.269	1235.1
1551.864	1187.1
1556.454	1145.1
1561.041	1115.1
1565.622	1081.1
1570.199	1027.1
1574.772	1003.1
1579.34	989.1
1583.904	968.1
1588.464	946.1
1593.019	925.1
1597.569	895.1
1602.115	869.1
1606.657	862.1
1611.195	852.1
1615.728	860.1
1620.256	863.1
1624.78	859.1
1629.3	834.1
1633.816	828.1
1638.327	802.1
1642.834	785.1
1647.336	776.1
1651.834	730.1
1656.328	725.1
1660.817	712.1
1665.302	703.1
1669.783	678.1
1674.259	663.1
1678.732	643.1
1683.199	600.1
1687.663	602.1
1692.122	547.1
1696.577	513.1
1701.028	485.1
1705.474	454.1
1709.917	449.1
1714.355	437.1
1718.788	432.1
1723.218	433.1
1727.643	421.1
1732.064	416.1
1736.481	414.1
1740.893	395.1
1745.301	385.1
1749.705	365.1
1754.105	351.1
1758.501	338.1
1762.893	325.1
1767.28	312.1
1771.663	309.1
1776.042	293.1
1780.417	283.1
1784.787	275.1
1789.154	274.1
1793.516	257.1
1797.874	247.1
1802.228	250.1
1806.578	244.1
1810.924	236.1
1815.266	237.1
1819.603	242.1
1823.937	251.1
1828.266	243.1
1832.591	250.1
1836.913	236.1
1841.23	241.1
1845.543	245.1
1849.852	240.1
1854.156	245.1
1858.457	243.1
1862.754	244.1
1867.047	245.1
1871.335	235.1
1875.62	247.1
1879.9	243.1
1884.177	242.1
1888.449	236.1
1892.718	234.1
1896.982	229.1
1901.243	221.1
1905.499	217.1
1909.752	202.1
1914	205.1
1918.245	206.1
1922.485	202.1
1926.722	184.1
1930.954	191.1
1935.183	190.1
1939.408	183.1
1943.628	186.1
1947.845	188.1
1952.058	182.1
1956.267	184.1
1960.472	189.1
1964.673	179.1
1968.87	176.1
1973.063	187.1
1977.252	192.1
1981.438	183.1
1985.619	184.1
1989.797	190.1
1993.971	194.1
1998.14	189.1
2002.306	194.1
2006.469	192.1
2010.627	197.1
2014.781	194.1
2018.932	185.1
2023.078	193.1
2027.221	188.1
2031.36	187.1
2035.495	176.1
2039.627	167.1
2043.754	173.1
2047.878	179.1
2051.998	181.1
2056.114	161.1
2060.226	163.1
2064.334	178.1
2068.439	171.1
2072.54	172.1
2076.637	174.1
2080.73	181.1
2084.82	176.1
2088.906	184.1
2092.988	180.1
2097.066	177.1
2101.14	179.1
2105.211	171.1
2109.278	166.1
2113.342	151.1
2117.401	153.1
2121.457	155.1
2125.509	156.1
2129.558	162.1
2133.602	150.1
2137.643	162.1
2141.681	152.1
2145.714	164.1
2149.744	164.1
2153.77	168.1
2157.793	169.1
2161.812	172.1
2165.827	168.1
2169.838	169.1
2173.846	165.1
2177.851	166.1
2181.851	176.1
2185.848	170.1
2189.841	172.1
2193.831	165.1
2197.817	162.1
2201.799	164.1
2205.778	160.1
2209.753	170.1
2213.725	172.1
2217.693	170.1
2221.657	168.1
2225.618	153.1
2229.575	164.1
2233.529	172.1
2237.479	173.1
2241.425	171.1
2245.368	174.1
2249.307	184.1
2253.243	182.1
2257.175	180.1
2261.104	181.1
2265.029	187.1
2268.95	193.1
2272.868	185.1
2276.783	176.1
2280.694	184.1
2284.601	187.1
2288.505	184.1
2292.405	191.1
2296.302	180.1
2300.195	176.1
2304.085	168.1
2307.971	167.1
2311.854	160.1
2315.734	152.1
2319.609	151.1
2323.482	154.1
2327.351	147.1
2331.216	170.1
2335.078	171.1
2338.937	168.1
2342.792	157.1
2346.643	151.1
2350.492	148.1
2354.336	149.1
2358.178	135.1
2362.015	141.1
2365.85	137.1
2369.681	142.1
2373.508	146.1
2377.333	141.1
2381.153	132.1
2384.971	123.1
2388.785	128.1
2392.595	132.1
2396.402	135.1
2400.206	139.1
2404.007	139.1
2407.804	128.1
2411.597	133.1
2415.388	140.1
2419.174	145.1
2422.958	146.1
2426.738	153.1
2430.515	151.1
2434.289	153.1
2438.059	147.1
2441.825	151.1
2445.589	152.1
2449.349	150.1
2453.106	161.1
2456.859	161.1
2460.61	166.1
2464.356	165.1
2468.1	165.1
2471.84	164.1
2475.577	166.1
2479.311	169.1
2483.041	163.1
2486.768	156.1
2490.492	166.1
2494.213	158.1
2497.93	161.1
2501.644	163.1
2505.355	156.1
2509.062	154.1
2512.766	161.1
2516.467	156.1
2520.165	168.1
2523.859	175.1
2527.551	170.1
2531.239	186.1
2534.923	181.1
2538.605	196.1
2542.283	209.1
2545.958	221.1
2549.63	228.1
2553.299	230.1
2556.964	228.1
2560.626	227.1
2564.285	216.1
2567.941	203.1
2571.594	209.1
2575.243	201.1
2578.89	204.1
2582.533	199.1
2586.173	199.1
2589.809	210.1
2593.443	212.1
2597.073	208.1
2600.701	210.1
2604.325	208.1
2607.946	218.1
2611.564	221.1
2615.178	212.1
2618.79	218.1
2622.398	225.1
2626.004	217.1
2629.606	217.1
2633.205	223.1
2636.801	239.1
2640.394	245.1
2643.983	242.1
2647.57	247.1
2651.153	255.1
2654.734	262.1
2658.311	268.1
2661.885	279.1
2665.456	289.1
2669.025	298.1
2672.589	307.1
2676.151	327.1
2679.71	340.1
2683.266	366.1
2686.819	394.1
2690.368	435.1
2693.915	451.1
2697.458	507.1
2700.999	564.1
2704.536	626.1
2708.071	691.1
2711.602	766.1
2715.13	832.1
2718.656	879.1
2722.178	912.1
2725.697	926.1
2729.214	926.1
2732.727	898.1
2736.237	867.1
2739.744	814.1
2743.249	772.1
2746.75	748.1
2750.248	713.1
2753.743	707.1
2757.236	707.1
2760.725	680.1
2764.211	658.1
2767.695	635.1
2771.175	613.1
2774.652	607.1
2778.127	590.1
2781.598	601.1
2785.067	612.1
2788.532	623.1
2791.995	658.1
2795.455	688.1
2798.911	719.1
2802.365	790.1
2805.816	829.1
2809.264	885.1
2812.709	947.1
2816.151	1033.1
2819.59	1137.1
2823.026	1222.1
2826.46	1364.1
2829.89	1491.1
2833.318	1636.1
2836.742	1822.1
2840.164	1961.1
2843.583	2102.1
2846.999	2223.1
2850.412	2332.1
2853.822	2472.1
2857.229	2648.1
2860.634	2847.1
2864.035	3121.1
2867.434	3477.1
2870.83	3907.1
2874.223	4469.1
2877.613	5102.1
2881	5607.1
2884.385	5946.1
2887.766	6109.1
2891.145	6090.1
2894.521	5994.1
2897.894	5908.1
2901.264	5769.1
2904.631	5644.1
2907.996	5514.1
2911.358	5482.1
2914.717	5515.1
2918.073	5655.1
2921.426	6020.1
2924.777	6608.1
2928.124	7384.1
2931.469	8187.1
2934.811	8722.1
2938.15	8687.1
2941.487	8089.1
2944.821	7264.1
2948.152	6426.1
2951.48	5671.1
2954.805	5056.1
2958.128	4457.1
2961.447	4124.1
2964.765	3874.1
2968.079	3749.1
2971.39	3713.1
2974.699	3770.1
2978.005	3755.1
2981.308	3616.1
2984.609	3413.1
2987.907	3105.1
2991.202	2754.1
2994.494	2421.1
2997.784	2087.1
3001.07	1834.1
3004.355	1610.1
3007.636	1442.1
3010.915	1289.1
3014.191	1167.1
3017.464	1070.1
3020.734	986.1
3024.002	902.1
3027.267	857.1
3030.53	804.1
3033.789	754.1
3037.046	697.1
3040.301	672.1
3043.552	653.1
3046.801	618.1
3050.048	592.1
3053.291	567.1
3056.532	534.1
3059.771	520.1
3063.006	515.1
3066.239	503.1
3069.469	491.1
3072.697	470.1
3075.922	464.1
3079.144	440.1
3082.364	441.1
3085.581	428.1
3088.795	406.1
3092.007	405.1
3095.216	396.1
3098.423	381.1
3101.627	377.1
3104.828	378.1
3108.026	371.1
3111.222	366.1
3114.416	362.1
3117.607	363.1
3120.795	356.1
3123.98	350.1
3127.163	360.1
3130.344	358.1
3133.521	375.1
3136.696	361.1
3139.869	362.1
3143.039	367.1
3146.206	360.1
3149.371	364.1
3152.533	366.1
3155.693	361.1
3158.85	367.1
3162.005	360.1
3165.157	360.1
3168.306	363.1
3171.453	354.1
3174.597	365.1
3177.739	365.1
3180.878	364.1
3184.014	355.1
3187.149	360.1
3190.28	370.1
3193.409	373.1
3196.536	367.1
3199.659	375.1
3202.781	369.1
3205.9	365.1
3209.016	369.1
3212.13	366.1
3215.241	375.1
3218.35	360.1
3221.456	363.1
3224.56	351.1
3227.661	347.1
3230.76	341.1
3233.856	331.1
3236.95	325.1
3240.041	327.1
3243.13	322.1
3246.216	309.1
3249.3	299.1
3252.382	298.1
3255.46	284.1
3258.537	296.1
3261.611	281.1
3264.682	286.1
3267.751	285.1
3270.818	274.1
3273.882	278.1
3276.943	281.1
3280.002	272.1
3283.059	282.1
3286.113	278.1
3289.165	274.1
3292.214	276.1
3295.261	277.1
3298.306	267.1
3301.348	261.1
3304.387	271.1
3307.425	274.1
3310.459	256.1
3313.492	258.1
3316.521	254.1
3319.549	265.1
3322.574	255.1
3325.597	249.1
3328.617	249.1
3331.635	264.1
3334.65	264.1
3337.663	257.1
3340.674	248.1
3343.682	258.1
3346.688	258.1
3349.691	249.1
3352.692	257.1
3355.691	253.1
3358.687	250.1
3361.681	253.1
3364.673	249.1
3367.662	244.1
3370.649	251.1
3373.633	230.1
3376.615	229.1
3379.595	229.1
3382.572	211.1
3385.547	226.1
3388.52	214.1
3391.49	205.1
3394.458	204.1
3397.424	210.1
3400.387	203.1
3403.348	185.1
3406.307	194.1
3409.263	199.1
3412.217	191.1
3415.168	184.1
3418.118	190.1
3421.065	175.1
3424.009	169.1
3426.951	174.1
3429.891	167.1
3432.829	167.1
3435.764	158.1
3438.697	151.1
3441.628	139.1
3444.557	136.1
3447.483	134.1
3450.407	124.1
3453.328	128.1
3456.247	117.1
3459.164	108.1
3462.079	89.1
3464.991	95.1
3467.902	84.1
3470.809	85.1
3473.715	82.1
3476.618	76.1
3479.519	61.1
3482.418	55.1
3485.315	52.1
3488.209	49.1
3491.101	40.1
3493.99	54.1
3496.878	39.1
3499.763	32.1
3502.646	29.1
3505.527	26.1
3508.405	19.1
3511.281	20.1
3514.155	11.1
3517.027	11.1
3519.897	10.1
3522.764	0.1
3525.629	0.1
3528.492	-4.9
3531.352	-14.9
3534.211	-14.9
3537.067	-20.9
3539.921	-14.9
3542.773	-26.9
3545.622	-25.9
3548.469	-25.9
3551.315	-26.9
3554.157	-28.9
3556.998	-29.9
3559.837	-35.9
3562.673	-38.9
3565.507	-40.9
3568.339	-40.9
3571.169	-41.9
3573.996	-38.9
3576.822	-50.9
3579.645	-45.9
3582.466	-47.9
3585.285	-51.9
3588.101	-54.9
3590.916	-52.9
3593.728	-57.9
3596.538	-57.9
3599.346	-62.9
3602.152	-58.9
3604.956	-59.9
3607.757	-57.9
3610.556	-58.9
3613.354	-65.9
3616.149	-61.9
3618.942	-66.9
3621.732	-70.9
3624.521	-64.9
3627.307	-66.9
3630.092	-70.9
3632.874	-72.9
3635.654	-70.9
3638.432	-72.9
3641.208	-71.9
3643.982	-69.9
3646.753	-76.9
3649.523	-74.9
3652.29	-69.9
3655.055	-77.9
3657.818	-80.9
3660.579	-79.9
3663.338	-71.9
3666.095	-80.9
3668.849	-73.9
3671.602	-76.9
3674.352	-76.9
3677.101	-79.9
3679.847	-75.9
3682.591	-73.9
3685.333	-78.9
3688.073	-80.9
3690.811	-80.9
3693.547	-80.9
3696.281	-80.9
3699.013	-79.9
3701.742	-85.9
3704.47	-81.9
3707.195	-79.9
3709.919	-85.9
3712.64	-82.9
3715.359	-89.9
3718.076	-85.9
3720.792	-83.9
3723.505	-84.9
3726.216	-83.9
3728.925	-86.9
3731.632	-83.9
3734.336	-87.9
3737.039	-84.9
3739.74	-91.9
3742.439	-90.9
3745.136	-87.9
3747.83	-86.9
3750.523	-90.9
3753.213	-97.9
3755.902	-86.9
3758.589	-89.9
3761.273	-86.9
3763.956	-84.9
3766.636	-82.9
3769.315	-84.9
3771.991	-86.9
3774.665	-92.9
3777.338	-86.9
3780.008	-87.9
3782.677	-90.9
3785.343	-90.9
3788.007	-90.9
3790.67	-87.9
3793.33	-89.9
3795.989	-89.9
3798.645	-92.9
3801.299	-84.9
3803.952	-86.9
3806.602	-91.9
3809.251	-93.9
3811.897	-94.9
3814.542	-92.9
3817.184	-84.9
3819.825	-85.9
3822.463	-90.9
3825.1	-84.9
3827.735	-92.9
3830.367	-94.9
3832.998	-93.9
3835.627	-92.9
3838.253	-85.9
3840.878	-86.9
3843.501	-93.9
3846.122	-89.9
3848.741	-89.9
3851.358	-88.9
3853.973	-86.9
3856.586	-88.9
3859.197	-93.9
3861.806	-90.9
3864.414	-90.9
3867.019	-88.9
3869.622	-84.9
3872.224	-77.9
3874.823	-70.9
3877.421	-60.9
3880.016	-51.9
3882.61	-33.9
3885.202	-24.9
3887.792	-32.9
3890.38	-50.9
3892.966	-74.9
3895.55	-85.9
3898.132	-90.9
3900.713	-90.9
3903.291	-89.9
3905.868	-87.9
3908.442	-93.9
3911.015	-94.9
3913.586	-95.9
3916.155	-88.9
3918.722	-91.9
3921.287	-88.9
3923.85	-89.9
3926.411	-92.9
3928.971	-97.9
3931.528	-97.9
3934.084	-89.9
3936.638	-88.9
3939.19	-98.9
3941.74	-92.9
3944.288	-91.9
3946.834	-91.9
3949.378	-90.9
3951.921	-97.9
3954.462	-90.9
3957	-88.9
3959.537	-85.9
3962.072	-86.9
3964.606	-91.9
3967.137	-90.9
3969.667	-91.9
3972.194	-90.9
3974.72	-89.9
3977.244	-89.9
3979.766	-92.9
3982.286	-93.9
3984.805	-95.9
3987.321	-86.9
3989.836	-86.9
3992.349	-89.9
3994.86	-88.9
3997.369	-95.9
3999.877	-92.9
4002.382	-91.9
4004.886	-87.9
4007.388	-89.9
4009.888	-93.9
4012.386	-91.9
4014.883	-89.9
4017.377	-87.9
4019.87	-89.9
4022.361	-95.9
4024.85	-88.9
4027.338	-94.9
4029.823	-90.9
4032.307	-93.9
4034.789	-89.9
4037.269	-94.9
4039.747	-88.9
4042.224	-87.9
4044.699	-93.9
4047.172	-100.9
4049.643	-96.9
4052.112	-91.9
4054.58	-86.9
4057.046	-88.9
4059.51	-91.9
4061.972	-96.9
4064.432	-91.9
4066.891	-87.9
4069.348	-92.9
4071.803	-82.9
4074.256	-87.9
4076.708	-88.9
4079.158	-88.9
4081.606	-92.9
4084.052	-88.9
4086.497	-84.9
4088.939	-86.9
4091.38	-93.9
4093.819	-95.9
4096.257	-97.9
4098.693	-97.9
4101.127	-90.9
4103.559	-95.9
4105.989	24.1
4108.418	15.1
4110.845	10.1
4113.27	12.1
4115.694	21.1
4118.115	10.1
4120.535	-93.9
4122.954	-86.9
4125.37	-91.9
4127.785	-88.9
4130.198	-89.9
4132.609	-88.9
4135.019	-97.9
4137.427	-100.9
4139.833	-99.9
4142.237	-102.9
