Data from 2018-3-7_conc=4_n=5_RamanShift_02.txt Node
Date: Wed Mar 07 12:01:52 IST 2018
User: aro
Spectrometer: QEPB0276
Trigger mode: 0
Integration Time (sec): 3.000000E1
Scans to average: 1
Electric dark correction enabled: true
Nonlinearity correction enabled: false
Boxcar width: 0
XAxis mode: Raman Shifts
Number of Pixels in Spectrum: 1044
>>>>>Begin Spectral Data<<<<<
160.701	15.1
166.742	25.1
172.777	53.1
178.805	153.1
184.826	373.1
190.841	790.1
196.849	1294.1
202.85	1701.1
208.845	1881.1
214.833	1866.1
220.815	1851.1
226.789	1827.1
232.758	1862.1
238.719	1856.1
244.674	1836.1
250.623	1825.1
256.565	1796.1
262.5	1780.1
268.429	1758.1
274.351	1754.1
280.267	1742.1
286.176	1740.1
292.079	1747.1
297.975	1739.1
303.865	1742.1
309.748	1730.1
315.625	1745.1
321.495	1725.1
327.359	1715.1
333.217	1729.1
339.068	1732.1
344.912	1738.1
350.751	1753.1
356.583	1741.1
362.408	1750.1
368.227	1757.1
374.04	1756.1
379.847	1781.1
385.647	1761.1
391.44	1790.1
397.228	1777.1
403.009	1797.1
408.784	1801.1
414.553	1814.1
420.315	1803.1
426.071	1811.1
431.821	1809.1
437.565	1812.1
443.302	1820.1
449.033	1809.1
454.758	1784.1
460.477	1778.1
466.189	1782.1
471.896	1755.1
477.596	1735.1
483.29	1759.1
488.978	1742.1
494.66	1738.1
500.335	1687.1
506.005	1637.1
511.668	1585.1
517.325	1530.1
522.977	1469.1
528.622	1441.1
534.261	1434.1
539.894	1396.1
545.521	1394.1
551.141	1376.1
556.756	1359.1
562.365	1349.1
567.968	1351.1
573.565	1354.1
579.155	1328.1
584.74	1316.1
590.319	1313.1
595.892	1314.1
601.459	1318.1
607.02	1302.1
612.575	1300.1
618.124	1279.1
623.667	1259.1
629.204	1263.1
634.735	1242.1
640.261	1233.1
645.781	1231.1
651.294	1230.1
656.802	1205.1
662.304	1220.1
667.8	1218.1
673.29	1207.1
678.775	1212.1
684.254	1199.1
689.726	1199.1
695.193	1185.1
700.655	1187.1
706.11	1167.1
711.56	1157.1
717.004	1150.1
722.442	1128.1
727.874	1138.1
733.301	1135.1
738.722	1124.1
744.137	1140.1
749.547	1137.1
754.951	1137.1
760.349	1124.1
765.741	1139.1
771.128	1152.1
776.509	1142.1
781.885	1149.1
787.254	1162.1
792.618	1168.1
797.977	1165.1
803.33	1142.1
808.677	1137.1
814.019	1134.1
819.355	1127.1
824.686	1114.1
830.011	1099.1
835.33	1115.1
840.644	1108.1
845.952	1100.1
851.255	1093.1
856.552	1098.1
861.844	1093.1
867.13	1069.1
872.41	1067.1
877.686	1067.1
882.955	1062.1
888.219	1038.1
893.478	1025.1
898.731	1003.1
903.979	1008.1
909.221	1007.1
914.458	1000.1
919.69	987.1
924.916	994.1
930.136	1000.1
935.351	997.1
940.561	993.1
945.766	995.1
950.965	993.1
956.158	974.1
961.347	969.1
966.529	955.1
971.707	930.1
976.879	920.1
982.046	917.1
987.208	917.1
992.364	922.1
997.515	919.1
1002.66	920.1
1007.801	935.1
1012.936	943.1
1018.066	958.1
1023.19	955.1
1028.309	952.1
1033.423	947.1
1038.532	942.1
1043.636	928.1
1048.734	928.1
1053.827	913.1
1058.915	906.1
1063.998	900.1
1069.075	878.1
1074.147	888.1
1079.214	885.1
1084.276	898.1
1089.333	907.1
1094.385	905.1
1099.431	897.1
1104.472	900.1
1109.509	885.1
1114.54	880.1
1119.565	869.1
1124.586	860.1
1129.602	846.1
1134.613	828.1
1139.618	833.1
1144.619	843.1
1149.614	836.1
1154.604	835.1
1159.589	842.1
1164.57	841.1
1169.545	835.1
1174.515	848.1
1179.48	839.1
1184.44	824.1
1189.395	829.1
1194.345	814.1
1199.29	804.1
1204.23	801.1
1209.165	811.1
1214.095	807.1
1219.021	818.1
1223.941	827.1
1228.856	824.1
1233.766	829.1
1238.672	837.1
1243.572	840.1
1248.467	826.1
1253.358	813.1
1258.244	802.1
1263.124	782.1
1268	780.1
1272.871	763.1
1277.737	760.1
1282.599	757.1
1287.455	760.1
1292.306	741.1
1297.153	759.1
1301.995	766.1
1306.832	764.1
1311.664	768.1
1316.491	773.1
1321.314	763.1
1326.132	766.1
1330.945	739.1
1335.753	742.1
1340.556	720.1
1345.354	704.1
1350.148	707.1
1354.937	681.1
1359.722	668.1
1364.501	657.1
1369.276	647.1
1374.046	628.1
1378.811	624.1
1383.572	622.1
1388.327	610.1
1393.079	619.1
1397.825	632.1
1402.567	630.1
1407.304	633.1
1412.036	630.1
1416.764	630.1
1421.487	643.1
1426.205	630.1
1430.919	632.1
1435.628	634.1
1440.333	649.1
1445.032	633.1
1449.727	655.1
1454.418	651.1
1459.104	647.1
1463.785	645.1
1468.462	627.1
1473.134	616.1
1477.802	591.1
1482.465	572.1
1487.123	564.1
1491.777	554.1
1496.426	545.1
1501.071	544.1
1505.711	541.1
1510.347	531.1
1514.978	529.1
1519.604	524.1
1524.226	529.1
1528.844	525.1
1533.457	527.1
1538.065	525.1
1542.669	511.1
1547.269	511.1
1551.864	521.1
1556.454	537.1
1561.041	532.1
1565.622	538.1
1570.199	536.1
1574.772	543.1
1579.34	553.1
1583.904	562.1
1588.464	575.1
1593.019	569.1
1597.569	572.1
1602.115	585.1
1606.657	564.1
1611.195	567.1
1615.728	558.1
1620.256	563.1
1624.78	559.1
1629.3	562.1
1633.816	562.1
1638.327	561.1
1642.834	559.1
1647.336	568.1
1651.834	558.1
1656.328	564.1
1660.817	548.1
1665.302	548.1
1669.783	534.1
1674.259	531.1
1678.732	512.1
1683.199	502.1
1687.663	491.1
1692.122	460.1
1696.577	435.1
1701.028	421.1
1705.474	398.1
1709.917	380.1
1714.355	379.1
1718.788	381.1
1723.218	373.1
1727.643	361.1
1732.064	374.1
1736.481	374.1
1740.893	360.1
1745.301	357.1
1749.705	352.1
1754.105	333.1
1758.501	330.1
1762.893	328.1
1767.28	315.1
1771.663	320.1
1776.042	323.1
1780.417	307.1
1784.787	308.1
1789.154	295.1
1793.516	292.1
1797.874	289.1
1802.228	283.1
1806.578	282.1
1810.924	273.1
1815.266	271.1
1819.603	275.1
1823.937	284.1
1828.266	277.1
1832.591	279.1
1836.913	275.1
1841.23	277.1
1845.543	279.1
1849.852	287.1
1854.156	282.1
1858.457	285.1
1862.754	303.1
1867.047	278.1
1871.335	286.1
1875.62	283.1
1879.9	288.1
1884.177	273.1
1888.449	274.1
1892.718	270.1
1896.982	261.1
1901.243	258.1
1905.499	251.1
1909.752	244.1
1914	239.1
1918.245	243.1
1922.485	233.1
1926.722	224.1
1930.954	225.1
1935.183	231.1
1939.408	232.1
1943.628	231.1
1947.845	222.1
1952.058	223.1
1956.267	217.1
1960.472	218.1
1964.673	204.1
1968.87	214.1
1973.063	211.1
1977.252	209.1
1981.438	210.1
1985.619	203.1
1989.797	210.1
1993.971	208.1
1998.14	214.1
2002.306	213.1
2006.469	224.1
2010.627	209.1
2014.781	219.1
2018.932	226.1
2023.078	218.1
2027.221	212.1
2031.36	208.1
2035.495	206.1
2039.627	195.1
2043.754	197.1
2047.878	199.1
2051.998	196.1
2056.114	190.1
2060.226	182.1
2064.334	190.1
2068.439	184.1
2072.54	183.1
2076.637	185.1
2080.73	188.1
2084.82	178.1
2088.906	181.1
2092.988	182.1
2097.066	180.1
2101.14	186.1
2105.211	182.1
2109.278	172.1
2113.342	160.1
2117.401	163.1
2121.457	169.1
2125.509	163.1
2129.558	164.1
2133.602	160.1
2137.643	156.1
2141.681	157.1
2145.714	164.1
2149.744	166.1
2153.77	168.1
2157.793	163.1
2161.812	168.1
2165.827	172.1
2169.838	162.1
2173.846	160.1
2177.851	159.1
2181.851	160.1
2185.848	155.1
2189.841	151.1
2193.831	152.1
2197.817	147.1
2201.799	146.1
2205.778	147.1
2209.753	156.1
2213.725	151.1
2217.693	151.1
2221.657	140.1
2225.618	144.1
2229.575	140.1
2233.529	145.1
2237.479	146.1
2241.425	141.1
2245.368	140.1
2249.307	143.1
2253.243	135.1
2257.175	131.1
2261.104	123.1
2265.029	126.1
2268.95	132.1
2272.868	132.1
2276.783	120.1
2280.694	127.1
2284.601	111.1
2288.505	118.1
2292.405	117.1
2296.302	117.1
2300.195	112.1
2304.085	110.1
2307.971	115.1
2311.854	107.1
2315.734	108.1
2319.609	108.1
2323.482	113.1
2327.351	115.1
2331.216	129.1
2335.078	129.1
2338.937	125.1
2342.792	113.1
2346.643	108.1
2350.492	106.1
2354.336	104.1
2358.178	96.1
2362.015	106.1
2365.85	103.1
2369.681	112.1
2373.508	115.1
2377.333	118.1
2381.153	108.1
2384.971	110.1
2388.785	104.1
2392.595	105.1
2396.402	108.1
2400.206	103.1
2404.007	115.1
2407.804	110.1
2411.597	104.1
2415.388	99.1
2419.174	112.1
2422.958	97.1
2426.738	101.1
2430.515	101.1
2434.289	104.1
2438.059	94.1
2441.825	97.1
2445.589	91.1
2449.349	96.1
2453.106	100.1
2456.859	90.1
2460.61	88.1
2464.356	88.1
2468.1	90.1
2471.84	95.1
2475.577	82.1
2479.311	82.1
2483.041	82.1
2486.768	88.1
2490.492	86.1
2494.213	81.1
2497.93	85.1
2501.644	82.1
2505.355	73.1
2509.062	82.1
2512.766	78.1
2516.467	71.1
2520.165	71.1
2523.859	80.1
2527.551	70.1
2531.239	74.1
2534.923	71.1
2538.605	70.1
2542.283	67.1
2545.958	58.1
2549.63	60.1
2553.299	60.1
2556.964	56.1
2560.626	62.1
2564.285	60.1
2567.941	59.1
2571.594	53.1
2575.243	55.1
2578.89	55.1
2582.533	55.1
2586.173	49.1
2589.809	52.1
2593.443	64.1
2597.073	55.1
2600.701	59.1
2604.325	53.1
2607.946	40.1
2611.564	49.1
2615.178	53.1
2618.79	44.1
2622.398	54.1
2626.004	50.1
2629.606	39.1
2633.205	42.1
2636.801	40.1
2640.394	47.1
2643.983	46.1
2647.57	41.1
2651.153	41.1
2654.734	47.1
2658.311	43.1
2661.885	46.1
2665.456	42.1
2669.025	41.1
2672.589	35.1
2676.151	37.1
2679.71	32.1
2683.266	32.1
2686.819	42.1
2690.368	34.1
2693.915	39.1
2697.458	33.1
2700.999	40.1
2704.536	47.1
2708.071	35.1
2711.602	33.1
2715.13	26.1
2718.656	32.1
2722.178	32.1
2725.697	29.1
2729.214	21.1
2732.727	31.1
2736.237	29.1
2739.744	18.1
2743.249	20.1
2746.75	23.1
2750.248	22.1
2753.743	20.1
2757.236	14.1
2760.725	17.1
2764.211	19.1
2767.695	12.1
2771.175	13.1
2774.652	17.1
2778.127	20.1
2781.598	17.1
2785.067	9.1
2788.532	18.1
2791.995	13.1
2795.455	11.1
2798.911	12.1
2802.365	19.1
2805.816	14.1
2809.264	14.1
2812.709	11.1
2816.151	21.1
2819.59	25.1
2823.026	17.1
2826.46	22.1
2829.89	21.1
2833.318	20.1
2836.742	22.1
2840.164	20.1
2843.583	16.1
2846.999	19.1
2850.412	18.1
2853.822	17.1
2857.229	26.1
2860.634	11.1
2864.035	15.1
2867.434	17.1
2870.83	27.1
2874.223	25.1
2877.613	23.1
2881	32.1
2884.385	34.1
2887.766	35.1
2891.145	32.1
2894.521	31.1
2897.894	36.1
2901.264	25.1
2904.631	20.1
2907.996	31.1
2911.358	32.1
2914.717	27.1
2918.073	23.1
2921.426	24.1
2924.777	38.1
2928.124	30.1
2931.469	41.1
2934.811	48.1
2938.15	45.1
2941.487	53.1
2944.821	47.1
2948.152	48.1
2951.48	45.1
2954.805	45.1
2958.128	38.1
2961.447	43.1
2964.765	38.1
2968.079	39.1
2971.39	43.1
2974.699	29.1
2978.005	43.1
2981.308	35.1
2984.609	38.1
2987.907	40.1
2991.202	39.1
2994.494	37.1
2997.784	33.1
3001.07	38.1
3004.355	45.1
3007.636	39.1
3010.915	47.1
3014.191	38.1
3017.464	39.1
3020.734	47.1
3024.002	44.1
3027.267	46.1
3030.53	52.1
3033.789	50.1
3037.046	48.1
3040.301	51.1
3043.552	53.1
3046.801	59.1
3050.048	63.1
3053.291	61.1
3056.532	67.1
3059.771	73.1
3063.006	71.1
3066.239	77.1
3069.469	82.1
3072.697	76.1
3075.922	92.1
3079.144	82.1
3082.364	93.1
3085.581	94.1
3088.795	99.1
3092.007	103.1
3095.216	100.1
3098.423	94.1
3101.627	103.1
3104.828	113.1
3108.026	113.1
3111.222	119.1
3114.416	105.1
3117.607	122.1
3120.795	118.1
3123.98	118.1
3127.163	136.1
3130.344	128.1
3133.521	133.1
3136.696	135.1
3139.869	140.1
3143.039	138.1
3146.206	139.1
3149.371	143.1
3152.533	143.1
3155.693	147.1
3158.85	150.1
3162.005	150.1
3165.157	150.1
3168.306	149.1
3171.453	151.1
3174.597	150.1
3177.739	156.1
3180.878	155.1
3184.014	145.1
3187.149	161.1
3190.28	152.1
3193.409	161.1
3196.536	152.1
3199.659	153.1
3202.781	156.1
3205.9	142.1
3209.016	159.1
3212.13	159.1
3215.241	157.1
3218.35	145.1
3221.456	152.1
3224.56	139.1
3227.661	145.1
3230.76	136.1
3233.856	143.1
3236.95	134.1
3240.041	136.1
3243.13	135.1
3246.216	126.1
3249.3	125.1
3252.382	122.1
3255.46	128.1
3258.537	126.1
3261.611	114.1
3264.682	119.1
3267.751	120.1
3270.818	114.1
3273.882	119.1
3276.943	115.1
3280.002	116.1
3283.059	115.1
3286.113	107.1
3289.165	107.1
3292.214	109.1
3295.261	115.1
3298.306	113.1
3301.348	115.1
3304.387	110.1
3307.425	105.1
3310.459	96.1
3313.492	109.1
3316.521	99.1
3319.549	98.1
3322.574	99.1
3325.597	103.1
3328.617	102.1
3331.635	102.1
3334.65	110.1
3337.663	96.1
3340.674	103.1
3343.682	105.1
3346.688	102.1
3349.691	112.1
3352.692	99.1
3355.691	107.1
3358.687	101.1
3361.681	97.1
3364.673	104.1
3367.662	104.1
3370.649	93.1
3373.633	88.1
3376.615	86.1
3379.595	85.1
3382.572	80.1
3385.547	92.1
3388.52	77.1
3391.49	76.1
3394.458	84.1
3397.424	82.1
3400.387	82.1
3403.348	75.1
3406.307	72.1
3409.263	72.1
3412.217	71.1
3415.168	78.1
3418.118	69.1
3421.065	66.1
3424.009	65.1
3426.951	62.1
3429.891	60.1
3432.829	56.1
3435.764	63.1
3438.697	58.1
3441.628	45.1
3444.557	52.1
3447.483	49.1
3450.407	42.1
3453.328	47.1
3456.247	41.1
3459.164	45.1
3462.079	27.1
3464.991	37.1
3467.902	34.1
3470.809	27.1
3473.715	23.1
3476.618	26.1
3479.519	15.1
3482.418	13.1
3485.315	14.1
3488.209	3.1
3491.101	8.1
3493.99	9.1
3496.878	7.1
3499.763	1.1
3502.646	3.1
3505.527	5.1
3508.405	-1.9
3511.281	-0.9
3514.155	-3.9
3517.027	-13.9
3519.897	-3.9
3522.764	-10.9
3525.629	-1.9
3528.492	-5.9
3531.352	-13.9
3534.211	-21.9
3537.067	-23.9
3539.921	-16.9
3542.773	-24.9
3545.622	-22.9
3548.469	-24.9
3551.315	-23.9
3554.157	-27.9
3556.998	-28.9
3559.837	-27.9
3562.673	-28.9
3565.507	-25.9
3568.339	-23.9
3571.169	-25.9
3573.996	-25.9
3576.822	-35.9
3579.645	-32.9
3582.466	-31.9
3585.285	-33.9
3588.101	-34.9
3590.916	-36.9
3593.728	-41.9
3596.538	-44.9
3599.346	-44.9
3602.152	-41.9
3604.956	-43.9
3607.757	-33.9
3610.556	-36.9
3613.354	-47.9
3616.149	-46.9
3618.942	-41.9
3621.732	-43.9
3624.521	-35.9
3627.307	-38.9
3630.092	-41.9
3632.874	-50.9
3635.654	-44.9
3638.432	-48.9
3641.208	-46.9
3643.982	-43.9
3646.753	-48.9
3649.523	-42.9
3652.29	-54.9
3655.055	-49.9
3657.818	-53.9
3660.579	-49.9
3663.338	-41.9
3666.095	-51.9
3668.849	-44.9
3671.602	-49.9
3674.352	-43.9
3677.101	-48.9
3679.847	-45.9
3682.591	-55.9
3685.333	-48.9
3688.073	-58.9
3690.811	-53.9
3693.547	-59.9
3696.281	-54.9
3699.013	-55.9
3701.742	-58.9
3704.47	-53.9
3707.195	-57.9
3709.919	-51.9
3712.64	-53.9
3715.359	-51.9
3718.076	-54.9
3720.792	-51.9
3723.505	-56.9
3726.216	-48.9
3728.925	-58.9
3731.632	-55.9
3734.336	-60.9
3737.039	-52.9
3739.74	-60.9
3742.439	-63.9
3745.136	-59.9
3747.83	-57.9
3750.523	-61.9
3753.213	-63.9
3755.902	-56.9
3758.589	-57.9
3761.273	-57.9
3763.956	-60.9
3766.636	-54.9
3769.315	-51.9
3771.991	-56.9
3774.665	-60.9
3777.338	-58.9
3780.008	-56.9
3782.677	-61.9
3785.343	-60.9
3788.007	-60.9
3790.67	-56.9
3793.33	-55.9
3795.989	-59.9
3798.645	-62.9
3801.299	-62.9
3803.952	-57.9
3806.602	-58.9
3809.251	-61.9
3811.897	-61.9
3814.542	-63.9
3817.184	-58.9
3819.825	-51.9
3822.463	-61.9
3825.1	-55.9
3827.735	-62.9
3830.367	-58.9
3832.998	-61.9
3835.627	-60.9
3838.253	-59.9
3840.878	-55.9
3843.501	-60.9
3846.122	-67.9
3848.741	-61.9
3851.358	-58.9
3853.973	-54.9
3856.586	-50.9
3859.197	-56.9
3861.806	-57.9
3864.414	-58.9
3867.019	-59.9
3869.622	-52.9
3872.224	-47.9
3874.823	-41.9
3877.421	-38.9
3880.016	-21.9
3882.61	-6.9
3885.202	-5.9
3887.792	-6.9
3890.38	-28.9
3892.966	-48.9
3895.55	-53.9
3898.132	-54.9
3900.713	-59.9
3903.291	-65.9
3905.868	-53.9
3908.442	-56.9
3911.015	-63.9
3913.586	-62.9
3916.155	-57.9
3918.722	-60.9
3921.287	-57.9
3923.85	-56.9
3926.411	-61.9
3928.971	-72.9
3931.528	-58.9
3934.084	-60.9
3936.638	-57.9
3939.19	-63.9
3941.74	-57.9
3944.288	-63.9
3946.834	-58.9
3949.378	-61.9
3951.921	-67.9
3954.462	-62.9
3957	-52.9
3959.537	-55.9
3962.072	-53.9
3964.606	-59.9
3967.137	-56.9
3969.667	-59.9
3972.194	-57.9
3974.72	-55.9
3977.244	-58.9
3979.766	-61.9
3982.286	-59.9
3984.805	-64.9
3987.321	-59.9
3989.836	-54.9
3992.349	-55.9
3994.86	-59.9
3997.369	-63.9
3999.877	-61.9
4002.382	-62.9
4004.886	-61.9
4007.388	-64.9
4009.888	-59.9
4012.386	-64.9
4014.883	-61.9
4017.377	-51.9
4019.87	-57.9
4022.361	-58.9
4024.85	-51.9
4027.338	-58.9
4029.823	-56.9
4032.307	-59.9
4034.789	-55.9
4037.269	-64.9
4039.747	-56.9
4042.224	-57.9
4044.699	-65.9
4047.172	-64.9
4049.643	-64.9
4052.112	-54.9
4054.58	-65.9
4057.046	-61.9
4059.51	-58.9
4061.972	-58.9
4064.432	-55.9
4066.891	-55.9
4069.348	-54.9
4071.803	-55.9
4074.256	-59.9
4076.708	-57.9
4079.158	-65.9
4081.606	-60.9
4084.052	-63.9
4086.497	-56.9
4088.939	-63.9
4091.38	-64.9
4093.819	-63.9
4096.257	-57.9
4098.693	-60.9
4101.127	-56.9
4103.559	-67.9
4105.989	18.1
4108.418	14.1
4110.845	11.1
4113.27	5.1
4115.694	14.1
4118.115	16.1
4120.535	-61.9
4122.954	-54.9
4125.37	-57.9
4127.785	-57.9
4130.198	-59.9
4132.609	-62.9
4135.019	-60.9
4137.427	-63.9
4139.833	-60.9
4142.237	-60.9
