Data from 2018-3-7_conc=2_n=3_RamanShift_02.txt Node
Date: Wed Mar 07 10:45:52 IST 2018
User: aro
Spectrometer: QEPB0276
Trigger mode: 0
Integration Time (sec): 3.000000E1
Scans to average: 1
Electric dark correction enabled: true
Nonlinearity correction enabled: false
Boxcar width: 0
XAxis mode: Raman Shifts
Number of Pixels in Spectrum: 1044
>>>>>Begin Spectral Data<<<<<
160.701	14.2
166.742	29.2
172.777	64.2
178.805	169.2
184.826	442.2
190.841	927.2
196.849	1516.2
202.85	1993.2
208.845	2173.2
214.833	2168.2
220.815	2130.2
226.789	2172.2
232.758	2172.2
238.719	2164.2
244.674	2158.2
250.623	2153.2
256.565	2134.2
262.5	2103.2
268.429	2092.2
274.351	2075.2
280.267	2070.2
286.176	2075.2
292.079	2072.2
297.975	2075.2
303.865	2106.2
309.748	2077.2
315.625	2097.2
321.495	2083.2
327.359	2105.2
333.217	2100.2
339.068	2127.2
344.912	2122.2
350.751	2098.2
356.583	2137.2
362.408	2120.2
368.227	2129.2
374.04	2143.2
379.847	2152.2
385.647	2188.2
391.44	2172.2
397.228	2169.2
403.009	2202.2
408.784	2221.2
414.553	2235.2
420.315	2217.2
426.071	2253.2
431.821	2223.2
437.565	2216.2
443.302	2223.2
449.033	2235.2
454.758	2205.2
460.477	2169.2
466.189	2173.2
471.896	2142.2
477.596	2135.2
483.29	2129.2
488.978	2134.2
494.66	2108.2
500.335	2064.2
506.005	1978.2
511.668	1920.2
517.325	1820.2
522.977	1740.2
528.622	1695.2
534.261	1657.2
539.894	1612.2
545.521	1628.2
551.141	1595.2
556.756	1592.2
562.365	1556.2
567.968	1539.2
573.565	1529.2
579.155	1545.2
584.74	1523.2
590.319	1508.2
595.892	1506.2
601.459	1515.2
607.02	1510.2
612.575	1498.2
618.124	1473.2
623.667	1469.2
629.204	1438.2
634.735	1426.2
640.261	1424.2
645.781	1411.2
651.294	1402.2
656.802	1387.2
662.304	1385.2
667.8	1392.2
673.29	1398.2
678.775	1381.2
684.254	1373.2
689.726	1376.2
695.193	1348.2
700.655	1359.2
706.11	1343.2
711.56	1329.2
717.004	1323.2
722.442	1307.2
727.874	1296.2
733.301	1311.2
738.722	1308.2
744.137	1312.2
749.547	1300.2
754.951	1289.2
760.349	1310.2
765.741	1299.2
771.128	1325.2
776.509	1322.2
781.885	1329.2
787.254	1347.2
792.618	1357.2
797.977	1339.2
803.33	1343.2
808.677	1315.2
814.019	1316.2
819.355	1296.2
824.686	1281.2
830.011	1264.2
835.33	1289.2
840.644	1279.2
845.952	1263.2
851.255	1255.2
856.552	1256.2
861.844	1239.2
867.13	1225.2
872.41	1234.2
877.686	1224.2
882.955	1222.2
888.219	1208.2
893.478	1188.2
898.731	1157.2
903.979	1150.2
909.221	1126.2
914.458	1140.2
919.69	1121.2
924.916	1134.2
930.136	1133.2
935.351	1123.2
940.561	1139.2
945.766	1127.2
950.965	1125.2
956.158	1126.2
961.347	1100.2
966.529	1090.2
971.707	1075.2
976.879	1061.2
982.046	1049.2
987.208	1049.2
992.364	1032.2
997.515	1048.2
1002.66	1050.2
1007.801	1059.2
1012.936	1080.2
1018.066	1086.2
1023.19	1078.2
1028.309	1081.2
1033.423	1082.2
1038.532	1063.2
1043.636	1067.2
1048.734	1057.2
1053.827	1067.2
1058.915	1039.2
1063.998	1031.2
1069.075	1023.2
1074.147	1037.2
1079.214	1019.2
1084.276	1040.2
1089.333	1050.2
1094.385	1038.2
1099.431	1028.2
1104.472	1036.2
1109.509	1009.2
1114.54	990.2
1119.565	992.2
1124.586	965.2
1129.602	967.2
1134.613	958.2
1139.618	954.2
1144.619	948.2
1149.614	966.2
1154.604	956.2
1159.589	956.2
1164.57	963.2
1169.545	964.2
1174.515	971.2
1179.48	958.2
1184.44	952.2
1189.395	937.2
1194.345	924.2
1199.29	924.2
1204.23	936.2
1209.165	937.2
1214.095	932.2
1219.021	940.2
1223.941	940.2
1228.856	950.2
1233.766	953.2
1238.672	957.2
1243.572	953.2
1248.467	931.2
1253.358	936.2
1258.244	922.2
1263.124	895.2
1268	880.2
1272.871	866.2
1277.737	866.2
1282.599	862.2
1287.455	862.2
1292.306	857.2
1297.153	861.2
1301.995	872.2
1306.832	870.2
1311.664	879.2
1316.491	886.2
1321.314	881.2
1326.132	869.2
1330.945	854.2
1335.753	825.2
1340.556	806.2
1345.354	787.2
1350.148	785.2
1354.937	765.2
1359.722	756.2
1364.501	732.2
1369.276	731.2
1374.046	714.2
1378.811	706.2
1383.572	705.2
1388.327	711.2
1393.079	711.2
1397.825	713.2
1402.567	707.2
1407.304	722.2
1412.036	721.2
1416.764	729.2
1421.487	715.2
1426.205	727.2
1430.919	715.2
1435.628	739.2
1440.333	742.2
1445.032	723.2
1449.727	759.2
1454.418	746.2
1459.104	738.2
1463.785	720.2
1468.462	698.2
1473.134	698.2
1477.802	666.2
1482.465	657.2
1487.123	638.2
1491.777	624.2
1496.426	620.2
1501.071	612.2
1505.711	606.2
1510.347	594.2
1514.978	586.2
1519.604	595.2
1524.226	590.2
1528.844	586.2
1533.457	583.2
1538.065	585.2
1542.669	595.2
1547.269	575.2
1551.864	593.2
1556.454	610.2
1561.041	611.2
1565.622	624.2
1570.199	607.2
1574.772	612.2
1579.34	629.2
1583.904	633.2
1588.464	652.2
1593.019	641.2
1597.569	658.2
1602.115	641.2
1606.657	644.2
1611.195	640.2
1615.728	637.2
1620.256	622.2
1624.78	626.2
1629.3	628.2
1633.816	618.2
1638.327	632.2
1642.834	628.2
1647.336	622.2
1651.834	632.2
1656.328	631.2
1660.817	615.2
1665.302	618.2
1669.783	597.2
1674.259	588.2
1678.732	562.2
1683.199	554.2
1687.663	532.2
1692.122	495.2
1696.577	477.2
1701.028	457.2
1705.474	432.2
1709.917	426.2
1714.355	423.2
1718.788	411.2
1723.218	414.2
1727.643	412.2
1732.064	420.2
1736.481	424.2
1740.893	404.2
1745.301	402.2
1749.705	390.2
1754.105	386.2
1758.501	365.2
1762.893	372.2
1767.28	352.2
1771.663	344.2
1776.042	346.2
1780.417	341.2
1784.787	338.2
1789.154	332.2
1793.516	318.2
1797.874	312.2
1802.228	302.2
1806.578	303.2
1810.924	302.2
1815.266	296.2
1819.603	305.2
1823.937	308.2
1828.266	314.2
1832.591	315.2
1836.913	323.2
1841.23	317.2
1845.543	310.2
1849.852	317.2
1854.156	321.2
1858.457	319.2
1862.754	315.2
1867.047	311.2
1871.335	318.2
1875.62	308.2
1879.9	319.2
1884.177	309.2
1888.449	305.2
1892.718	299.2
1896.982	291.2
1901.243	276.2
1905.499	274.2
1909.752	264.2
1914	257.2
1918.245	265.2
1922.485	259.2
1926.722	244.2
1930.954	245.2
1935.183	254.2
1939.408	235.2
1943.628	238.2
1947.845	241.2
1952.058	238.2
1956.267	239.2
1960.472	240.2
1964.673	228.2
1968.87	233.2
1973.063	235.2
1977.252	240.2
1981.438	230.2
1985.619	238.2
1989.797	240.2
1993.971	239.2
1998.14	238.2
2002.306	241.2
2006.469	250.2
2010.627	241.2
2014.781	237.2
2018.932	236.2
2023.078	241.2
2027.221	239.2
2031.36	236.2
2035.495	232.2
2039.627	219.2
2043.754	221.2
2047.878	225.2
2051.998	218.2
2056.114	212.2
2060.226	214.2
2064.334	203.2
2068.439	210.2
2072.54	203.2
2076.637	205.2
2080.73	203.2
2084.82	203.2
2088.906	193.2
2092.988	195.2
2097.066	192.2
2101.14	191.2
2105.211	191.2
2109.278	182.2
2113.342	181.2
2117.401	185.2
2121.457	179.2
2125.509	173.2
2129.558	183.2
2133.602	186.2
2137.643	182.2
2141.681	173.2
2145.714	185.2
2149.744	178.2
2153.77	184.2
2157.793	181.2
2161.812	187.2
2165.827	178.2
2169.838	178.2
2173.846	178.2
2177.851	173.2
2181.851	175.2
2185.848	171.2
2189.841	169.2
2193.831	164.2
2197.817	167.2
2201.799	162.2
2205.778	166.2
2209.753	162.2
2213.725	155.2
2217.693	172.2
2221.657	168.2
2225.618	157.2
2229.575	155.2
2233.529	157.2
2237.479	155.2
2241.425	152.2
2245.368	150.2
2249.307	158.2
2253.243	145.2
2257.175	146.2
2261.104	145.2
2265.029	138.2
2268.95	143.2
2272.868	142.2
2276.783	135.2
2280.694	139.2
2284.601	125.2
2288.505	132.2
2292.405	132.2
2296.302	139.2
2300.195	129.2
2304.085	127.2
2307.971	120.2
2311.854	121.2
2315.734	121.2
2319.609	132.2
2323.482	125.2
2327.351	129.2
2331.216	138.2
2335.078	152.2
2338.937	144.2
2342.792	126.2
2346.643	125.2
2350.492	122.2
2354.336	121.2
2358.178	117.2
2362.015	122.2
2365.85	121.2
2369.681	120.2
2373.508	134.2
2377.333	133.2
2381.153	135.2
2384.971	122.2
2388.785	117.2
2392.595	125.2
2396.402	130.2
2400.206	121.2
2404.007	118.2
2407.804	124.2
2411.597	117.2
2415.388	119.2
2419.174	125.2
2422.958	113.2
2426.738	122.2
2430.515	113.2
2434.289	118.2
2438.059	109.2
2441.825	106.2
2445.589	104.2
2449.349	110.2
2453.106	113.2
2456.859	105.2
2460.61	99.2
2464.356	100.2
2468.1	102.2
2471.84	97.2
2475.577	91.2
2479.311	90.2
2483.041	91.2
2486.768	92.2
2490.492	95.2
2494.213	95.2
2497.93	95.2
2501.644	95.2
2505.355	84.2
2509.062	88.2
2512.766	90.2
2516.467	86.2
2520.165	81.2
2523.859	86.2
2527.551	81.2
2531.239	79.2
2534.923	73.2
2538.605	82.2
2542.283	73.2
2545.958	73.2
2549.63	72.2
2553.299	71.2
2556.964	65.2
2560.626	64.2
2564.285	68.2
2567.941	60.2
2571.594	60.2
2575.243	63.2
2578.89	62.2
2582.533	60.2
2586.173	55.2
2589.809	60.2
2593.443	68.2
2597.073	62.2
2600.701	61.2
2604.325	53.2
2607.946	47.2
2611.564	59.2
2615.178	57.2
2618.79	56.2
2622.398	56.2
2626.004	56.2
2629.606	57.2
2633.205	56.2
2636.801	57.2
2640.394	58.2
2643.983	55.2
2647.57	49.2
2651.153	49.2
2654.734	46.2
2658.311	46.2
2661.885	48.2
2665.456	53.2
2669.025	47.2
2672.589	48.2
2676.151	49.2
2679.71	41.2
2683.266	42.2
2686.819	44.2
2690.368	42.2
2693.915	45.2
2697.458	39.2
2700.999	40.2
2704.536	41.2
2708.071	36.2
2711.602	40.2
2715.13	34.2
2718.656	32.2
2722.178	30.2
2725.697	29.2
2729.214	34.2
2732.727	36.2
2736.237	34.2
2739.744	25.2
2743.249	20.2
2746.75	20.2
2750.248	29.2
2753.743	24.2
2757.236	24.2
2760.725	20.2
2764.211	20.2
2767.695	22.2
2771.175	18.2
2774.652	20.2
2778.127	12.2
2781.598	14.2
2785.067	12.2
2788.532	15.2
2791.995	23.2
2795.455	17.2
2798.911	18.2
2802.365	19.2
2805.816	17.2
2809.264	20.2
2812.709	18.2
2816.151	24.2
2819.59	26.2
2823.026	16.2
2826.46	21.2
2829.89	19.2
2833.318	17.2
2836.742	26.2
2840.164	23.2
2843.583	19.2
2846.999	23.2
2850.412	23.2
2853.822	18.2
2857.229	24.2
2860.634	23.2
2864.035	26.2
2867.434	22.2
2870.83	32.2
2874.223	35.2
2877.613	36.2
2881	32.2
2884.385	38.2
2887.766	41.2
2891.145	40.2
2894.521	39.2
2897.894	41.2
2901.264	37.2
2904.631	38.2
2907.996	36.2
2911.358	42.2
2914.717	41.2
2918.073	43.2
2921.426	38.2
2924.777	49.2
2928.124	46.2
2931.469	45.2
2934.811	51.2
2938.15	50.2
2941.487	54.2
2944.821	58.2
2948.152	56.2
2951.48	52.2
2954.805	59.2
2958.128	51.2
2961.447	50.2
2964.765	46.2
2968.079	42.2
2971.39	47.2
2974.699	42.2
2978.005	44.2
2981.308	39.2
2984.609	45.2
2987.907	46.2
2991.202	44.2
2994.494	44.2
2997.784	40.2
3001.07	44.2
3004.355	41.2
3007.636	51.2
3010.915	50.2
3014.191	46.2
3017.464	43.2
3020.734	47.2
3024.002	48.2
3027.267	49.2
3030.53	55.2
3033.789	62.2
3037.046	52.2
3040.301	57.2
3043.552	65.2
3046.801	62.2
3050.048	61.2
3053.291	72.2
3056.532	72.2
3059.771	74.2
3063.006	78.2
3066.239	79.2
3069.469	88.2
3072.697	84.2
3075.922	101.2
3079.144	94.2
3082.364	98.2
3085.581	104.2
3088.795	104.2
3092.007	103.2
3095.216	109.2
3098.423	104.2
3101.627	113.2
3104.828	122.2
3108.026	121.2
3111.222	124.2
3114.416	122.2
3117.607	119.2
3120.795	126.2
3123.98	125.2
3127.163	135.2
3130.344	142.2
3133.521	135.2
3136.696	144.2
3139.869	148.2
3143.039	144.2
3146.206	152.2
3149.371	157.2
3152.533	158.2
3155.693	161.2
3158.85	161.2
3162.005	158.2
3165.157	167.2
3168.306	156.2
3171.453	161.2
3174.597	169.2
3177.739	166.2
3180.878	172.2
3184.014	162.2
3187.149	165.2
3190.28	168.2
3193.409	166.2
3196.536	161.2
3199.659	164.2
3202.781	169.2
3205.9	161.2
3209.016	154.2
3212.13	169.2
3215.241	165.2
3218.35	163.2
3221.456	160.2
3224.56	157.2
3227.661	153.2
3230.76	149.2
3233.856	147.2
3236.95	143.2
3240.041	137.2
3243.13	146.2
3246.216	132.2
3249.3	129.2
3252.382	132.2
3255.46	125.2
3258.537	129.2
3261.611	121.2
3264.682	117.2
3267.751	132.2
3270.818	120.2
3273.882	122.2
3276.943	119.2
3280.002	121.2
3283.059	118.2
3286.113	114.2
3289.165	117.2
3292.214	111.2
3295.261	107.2
3298.306	117.2
3301.348	113.2
3304.387	110.2
3307.425	110.2
3310.459	106.2
3313.492	104.2
3316.521	108.2
3319.549	118.2
3322.574	100.2
3325.597	104.2
3328.617	109.2
3331.635	109.2
3334.65	112.2
3337.663	102.2
3340.674	108.2
3343.682	107.2
3346.688	103.2
3349.691	108.2
3352.692	110.2
3355.691	111.2
3358.687	105.2
3361.681	97.2
3364.673	99.2
3367.662	96.2
3370.649	102.2
3373.633	95.2
3376.615	100.2
3379.595	95.2
3382.572	88.2
3385.547	85.2
3388.52	89.2
3391.49	77.2
3394.458	76.2
3397.424	81.2
3400.387	83.2
3403.348	69.2
3406.307	74.2
3409.263	78.2
3412.217	78.2
3415.168	75.2
3418.118	74.2
3421.065	65.2
3424.009	68.2
3426.951	63.2
3429.891	61.2
3432.829	61.2
3435.764	56.2
3438.697	50.2
3441.628	48.2
3444.557	45.2
3447.483	50.2
3450.407	38.2
3453.328	44.2
3456.247	45.2
3459.164	34.2
3462.079	29.2
3464.991	25.2
3467.902	23.2
3470.809	29.2
3473.715	20.2
3476.618	18.2
3479.519	16.2
3482.418	8.2
3485.315	9.2
3488.209	5.2
3491.101	5.2
3493.99	10.2
3496.878	2.2
3499.763	-4.8
3502.646	1.2
3505.527	1.2
3508.405	-2.8
3511.281	2.2
3514.155	-15.8
3517.027	-10.8
3519.897	-7.8
3522.764	-11.8
3525.629	-14.8
3528.492	-19.8
3531.352	-22.8
3534.211	-25.8
3537.067	-27.8
3539.921	-25.8
3542.773	-32.8
3545.622	-28.8
3548.469	-27.8
3551.315	-27.8
3554.157	-25.8
3556.998	-28.8
3559.837	-30.8
3562.673	-35.8
3565.507	-35.8
3568.339	-34.8
3571.169	-35.8
3573.996	-33.8
3576.822	-41.8
3579.645	-41.8
3582.466	-29.8
3585.285	-41.8
3588.101	-35.8
3590.916	-37.8
3593.728	-41.8
3596.538	-47.8
3599.346	-46.8
3602.152	-36.8
3604.956	-45.8
3607.757	-40.8
3610.556	-46.8
3613.354	-52.8
3616.149	-50.8
3618.942	-47.8
3621.732	-46.8
3624.521	-45.8
3627.307	-45.8
3630.092	-47.8
3632.874	-52.8
3635.654	-55.8
3638.432	-53.8
3641.208	-52.8
3643.982	-54.8
3646.753	-53.8
3649.523	-52.8
3652.29	-57.8
3655.055	-48.8
3657.818	-55.8
3660.579	-54.8
3663.338	-58.8
3666.095	-55.8
3668.849	-57.8
3671.602	-58.8
3674.352	-54.8
3677.101	-53.8
3679.847	-55.8
3682.591	-57.8
3685.333	-53.8
3688.073	-56.8
3690.811	-59.8
3693.547	-63.8
3696.281	-49.8
3699.013	-62.8
3701.742	-58.8
3704.47	-56.8
3707.195	-63.8
3709.919	-59.8
3712.64	-57.8
3715.359	-59.8
3718.076	-64.8
3720.792	-59.8
3723.505	-63.8
3726.216	-58.8
3728.925	-69.8
3731.632	-61.8
3734.336	-62.8
3737.039	-57.8
3739.74	-62.8
3742.439	-62.8
3745.136	-62.8
3747.83	-59.8
3750.523	-61.8
3753.213	-62.8
3755.902	-64.8
3758.589	-65.8
3761.273	-61.8
3763.956	-63.8
3766.636	-60.8
3769.315	-59.8
3771.991	-68.8
3774.665	-62.8
3777.338	-63.8
3780.008	-64.8
3782.677	-69.8
3785.343	-62.8
3788.007	-66.8
3790.67	-61.8
3793.33	-59.8
3795.989	-66.8
3798.645	-68.8
3801.299	-68.8
3803.952	-68.8
3806.602	-72.8
3809.251	-65.8
3811.897	-69.8
3814.542	-73.8
3817.184	-65.8
3819.825	-59.8
3822.463	-67.8
3825.1	-65.8
3827.735	-70.8
3830.367	-64.8
3832.998	-65.8
3835.627	-66.8
3838.253	-61.8
3840.878	-63.8
3843.501	-61.8
3846.122	-64.8
3848.741	-64.8
3851.358	-67.8
3853.973	-61.8
3856.586	-68.8
3859.197	-64.8
3861.806	-68.8
3864.414	-60.8
3867.019	-68.8
3869.622	-61.8
3872.224	-54.8
3874.823	-44.8
3877.421	-36.8
3880.016	-22.8
3882.61	-3.8
3885.202	3.2
3887.792	-13.8
3890.38	-33.8
3892.966	-49.8
3895.55	-60.8
3898.132	-61.8
3900.713	-66.8
3903.291	-69.8
3905.868	-60.8
3908.442	-62.8
3911.015	-62.8
3913.586	-66.8
3916.155	-65.8
3918.722	-66.8
3921.287	-69.8
3923.85	-62.8
3926.411	-71.8
3928.971	-73.8
3931.528	-64.8
3934.084	-61.8
3936.638	-63.8
3939.19	-70.8
3941.74	-63.8
3944.288	-68.8
3946.834	-64.8
3949.378	-66.8
3951.921	-70.8
3954.462	-67.8
3957	-60.8
3959.537	-60.8
3962.072	-59.8
3964.606	-63.8
3967.137	-61.8
3969.667	-64.8
3972.194	-60.8
3974.72	-59.8
3977.244	-64.8
3979.766	-66.8
3982.286	-65.8
3984.805	-75.8
3987.321	-64.8
3989.836	-63.8
3992.349	-65.8
3994.86	-66.8
3997.369	-68.8
3999.877	-67.8
4002.382	-66.8
4004.886	-63.8
4007.388	-68.8
4009.888	-68.8
4012.386	-66.8
4014.883	-60.8
4017.377	-61.8
4019.87	-63.8
4022.361	-69.8
4024.85	-60.8
4027.338	-70.8
4029.823	-67.8
4032.307	-63.8
4034.789	-63.8
4037.269	-69.8
4039.747	-67.8
4042.224	-69.8
4044.699	-66.8
4047.172	-73.8
4049.643	-65.8
4052.112	-66.8
4054.58	-64.8
4057.046	-63.8
4059.51	-64.8
4061.972	-69.8
4064.432	-68.8
4066.891	-63.8
4069.348	-63.8
4071.803	-62.8
4074.256	-67.8
4076.708	-59.8
4079.158	-73.8
4081.606	-65.8
4084.052	-63.8
4086.497	-61.8
4088.939	-60.8
4091.38	-66.8
4093.819	-69.8
4096.257	-65.8
4098.693	-72.8
4101.127	-61.8
4103.559	-70.8
4105.989	28.2
4108.418	17.2
4110.845	13.2
4113.27	11.2
4115.694	18.2
4118.115	22.2
4120.535	-71.8
4122.954	-67.8
4125.37	-66.8
4127.785	-62.8
4130.198	-57.8
4132.609	-64.8
4135.019	-69.8
4137.427	-68.8
4139.833	-71.8
4142.237	-66.8
