Data from 2018-3-7_conc=4_n=3_RamanShift_05.txt Node
Date: Wed Mar 07 11:56:52 IST 2018
User: aro
Spectrometer: QEPB0276
Trigger mode: 0
Integration Time (sec): 3.000000E1
Scans to average: 1
Electric dark correction enabled: true
Nonlinearity correction enabled: false
Boxcar width: 0
XAxis mode: Raman Shifts
Number of Pixels in Spectrum: 1044
>>>>>Begin Spectral Data<<<<<
160.701	12.2
166.742	22.2
172.777	45.2
178.805	134.2
184.826	342.2
190.841	723.2
196.849	1215.2
202.85	1570.2
208.845	1721.2
214.833	1721.2
220.815	1694.2
226.789	1694.2
232.758	1702.2
238.719	1690.2
244.674	1681.2
250.623	1690.2
256.565	1677.2
262.5	1636.2
268.429	1624.2
274.351	1621.2
280.267	1615.2
286.176	1607.2
292.079	1595.2
297.975	1601.2
303.865	1610.2
309.748	1598.2
315.625	1603.2
321.495	1605.2
327.359	1616.2
333.217	1606.2
339.068	1622.2
344.912	1626.2
350.751	1613.2
356.583	1629.2
362.408	1622.2
368.227	1641.2
374.04	1634.2
379.847	1643.2
385.647	1644.2
391.44	1654.2
397.228	1663.2
403.009	1665.2
408.784	1689.2
414.553	1696.2
420.315	1702.2
426.071	1694.2
431.821	1686.2
437.565	1693.2
443.302	1674.2
449.033	1680.2
454.758	1695.2
460.477	1652.2
466.189	1636.2
471.896	1632.2
477.596	1616.2
483.29	1608.2
488.978	1617.2
494.66	1588.2
500.335	1566.2
506.005	1513.2
511.668	1458.2
517.325	1408.2
522.977	1357.2
528.622	1325.2
534.261	1286.2
539.894	1277.2
545.521	1259.2
551.141	1256.2
556.756	1225.2
562.365	1244.2
567.968	1227.2
573.565	1214.2
579.155	1205.2
584.74	1204.2
590.319	1177.2
595.892	1206.2
601.459	1191.2
607.02	1182.2
612.575	1173.2
618.124	1167.2
623.667	1157.2
629.204	1157.2
634.735	1120.2
640.261	1128.2
645.781	1116.2
651.294	1117.2
656.802	1107.2
662.304	1098.2
667.8	1087.2
673.29	1109.2
678.775	1087.2
684.254	1090.2
689.726	1082.2
695.193	1083.2
700.655	1082.2
706.11	1069.2
711.56	1059.2
717.004	1053.2
722.442	1051.2
727.874	1034.2
733.301	1038.2
738.722	1027.2
744.137	1037.2
749.547	1046.2
754.951	1034.2
760.349	1015.2
765.741	1024.2
771.128	1040.2
776.509	1043.2
781.885	1078.2
787.254	1061.2
792.618	1076.2
797.977	1050.2
803.33	1055.2
808.677	1047.2
814.019	1038.2
819.355	1025.2
824.686	1011.2
830.011	1012.2
835.33	1008.2
840.644	1000.2
845.952	994.2
851.255	996.2
856.552	1006.2
861.844	983.2
867.13	971.2
872.41	973.2
877.686	973.2
882.955	958.2
888.219	964.2
893.478	937.2
898.731	932.2
903.979	908.2
909.221	897.2
914.458	912.2
919.69	901.2
924.916	912.2
930.136	902.2
935.351	902.2
940.561	909.2
945.766	899.2
950.965	905.2
956.158	889.2
961.347	886.2
966.529	865.2
971.707	841.2
976.879	846.2
982.046	841.2
987.208	828.2
992.364	836.2
997.515	838.2
1002.66	834.2
1007.801	855.2
1012.936	864.2
1018.066	870.2
1023.19	875.2
1028.309	857.2
1033.423	868.2
1038.532	862.2
1043.636	850.2
1048.734	847.2
1053.827	831.2
1058.915	829.2
1063.998	827.2
1069.075	807.2
1074.147	833.2
1079.214	824.2
1084.276	828.2
1089.333	827.2
1094.385	839.2
1099.431	816.2
1104.472	819.2
1109.509	816.2
1114.54	807.2
1119.565	782.2
1124.586	780.2
1129.602	765.2
1134.613	779.2
1139.618	763.2
1144.619	760.2
1149.614	761.2
1154.604	767.2
1159.589	769.2
1164.57	759.2
1169.545	782.2
1174.515	759.2
1179.48	747.2
1184.44	759.2
1189.395	754.2
1194.345	748.2
1199.29	736.2
1204.23	738.2
1209.165	742.2
1214.095	739.2
1219.021	756.2
1223.941	759.2
1228.856	769.2
1233.766	760.2
1238.672	768.2
1243.572	755.2
1248.467	758.2
1253.358	749.2
1258.244	732.2
1263.124	720.2
1268	704.2
1272.871	696.2
1277.737	689.2
1282.599	690.2
1287.455	686.2
1292.306	689.2
1297.153	679.2
1301.995	694.2
1306.832	701.2
1311.664	692.2
1316.491	703.2
1321.314	701.2
1326.132	703.2
1330.945	693.2
1335.753	679.2
1340.556	655.2
1345.354	648.2
1350.148	633.2
1354.937	631.2
1359.722	599.2
1364.501	601.2
1369.276	585.2
1374.046	601.2
1378.811	577.2
1383.572	565.2
1388.327	573.2
1393.079	575.2
1397.825	570.2
1402.567	572.2
1407.304	584.2
1412.036	573.2
1416.764	579.2
1421.487	596.2
1426.205	582.2
1430.919	587.2
1435.628	585.2
1440.333	606.2
1445.032	590.2
1449.727	608.2
1454.418	600.2
1459.104	603.2
1463.785	590.2
1468.462	570.2
1473.134	564.2
1477.802	537.2
1482.465	530.2
1487.123	530.2
1491.777	512.2
1496.426	517.2
1501.071	498.2
1505.711	501.2
1510.347	489.2
1514.978	494.2
1519.604	487.2
1524.226	488.2
1528.844	487.2
1533.457	479.2
1538.065	479.2
1542.669	480.2
1547.269	481.2
1551.864	476.2
1556.454	496.2
1561.041	497.2
1565.622	506.2
1570.199	497.2
1574.772	494.2
1579.34	517.2
1583.904	524.2
1588.464	527.2
1593.019	526.2
1597.569	539.2
1602.115	527.2
1606.657	517.2
1611.195	523.2
1615.728	523.2
1620.256	510.2
1624.78	523.2
1629.3	527.2
1633.816	515.2
1638.327	525.2
1642.834	514.2
1647.336	519.2
1651.834	513.2
1656.328	510.2
1660.817	509.2
1665.302	504.2
1669.783	500.2
1674.259	473.2
1678.732	472.2
1683.199	456.2
1687.663	445.2
1692.122	418.2
1696.577	404.2
1701.028	395.2
1705.474	366.2
1709.917	359.2
1714.355	355.2
1718.788	347.2
1723.218	346.2
1727.643	347.2
1732.064	352.2
1736.481	349.2
1740.893	335.2
1745.301	329.2
1749.705	321.2
1754.105	313.2
1758.501	307.2
1762.893	311.2
1767.28	299.2
1771.663	302.2
1776.042	288.2
1780.417	282.2
1784.787	277.2
1789.154	275.2
1793.516	267.2
1797.874	266.2
1802.228	268.2
1806.578	259.2
1810.924	262.2
1815.266	255.2
1819.603	254.2
1823.937	262.2
1828.266	255.2
1832.591	264.2
1836.913	262.2
1841.23	262.2
1845.543	260.2
1849.852	267.2
1854.156	259.2
1858.457	262.2
1862.754	270.2
1867.047	265.2
1871.335	266.2
1875.62	262.2
1879.9	264.2
1884.177	250.2
1888.449	257.2
1892.718	254.2
1896.982	243.2
1901.243	241.2
1905.499	236.2
1909.752	226.2
1914	232.2
1918.245	221.2
1922.485	216.2
1926.722	212.2
1930.954	211.2
1935.183	231.2
1939.408	213.2
1943.628	220.2
1947.845	217.2
1952.058	209.2
1956.267	205.2
1960.472	209.2
1964.673	202.2
1968.87	205.2
1973.063	203.2
1977.252	205.2
1981.438	206.2
1985.619	197.2
1989.797	202.2
1993.971	204.2
1998.14	198.2
2002.306	208.2
2006.469	200.2
2010.627	205.2
2014.781	204.2
2018.932	199.2
2023.078	203.2
2027.221	201.2
2031.36	203.2
2035.495	192.2
2039.627	186.2
2043.754	193.2
2047.878	184.2
2051.998	189.2
2056.114	183.2
2060.226	181.2
2064.334	180.2
2068.439	180.2
2072.54	180.2
2076.637	180.2
2080.73	180.2
2084.82	184.2
2088.906	173.2
2092.988	170.2
2097.066	167.2
2101.14	166.2
2105.211	165.2
2109.278	161.2
2113.342	154.2
2117.401	157.2
2121.457	160.2
2125.509	155.2
2129.558	154.2
2133.602	152.2
2137.643	152.2
2141.681	150.2
2145.714	161.2
2149.744	159.2
2153.77	155.2
2157.793	159.2
2161.812	164.2
2165.827	150.2
2169.838	152.2
2173.846	152.2
2177.851	143.2
2181.851	150.2
2185.848	145.2
2189.841	140.2
2193.831	142.2
2197.817	143.2
2201.799	141.2
2205.778	145.2
2209.753	147.2
2213.725	135.2
2217.693	144.2
2221.657	146.2
2225.618	139.2
2229.575	136.2
2233.529	136.2
2237.479	134.2
2241.425	126.2
2245.368	136.2
2249.307	132.2
2253.243	124.2
2257.175	117.2
2261.104	117.2
2265.029	123.2
2268.95	125.2
2272.868	120.2
2276.783	114.2
2280.694	111.2
2284.601	113.2
2288.505	119.2
2292.405	122.2
2296.302	121.2
2300.195	112.2
2304.085	102.2
2307.971	107.2
2311.854	103.2
2315.734	98.2
2319.609	115.2
2323.482	98.2
2327.351	110.2
2331.216	117.2
2335.078	127.2
2338.937	119.2
2342.792	113.2
2346.643	111.2
2350.492	108.2
2354.336	102.2
2358.178	95.2
2362.015	109.2
2365.85	100.2
2369.681	110.2
2373.508	113.2
2377.333	109.2
2381.153	103.2
2384.971	97.2
2388.785	94.2
2392.595	104.2
2396.402	107.2
2400.206	101.2
2404.007	103.2
2407.804	102.2
2411.597	101.2
2415.388	104.2
2419.174	111.2
2422.958	95.2
2426.738	98.2
2430.515	96.2
2434.289	97.2
2438.059	92.2
2441.825	94.2
2445.589	97.2
2449.349	85.2
2453.106	86.2
2456.859	94.2
2460.61	92.2
2464.356	86.2
2468.1	82.2
2471.84	81.2
2475.577	80.2
2479.311	75.2
2483.041	83.2
2486.768	79.2
2490.492	82.2
2494.213	78.2
2497.93	82.2
2501.644	82.2
2505.355	79.2
2509.062	74.2
2512.766	73.2
2516.467	73.2
2520.165	71.2
2523.859	82.2
2527.551	73.2
2531.239	68.2
2534.923	70.2
2538.605	65.2
2542.283	65.2
2545.958	70.2
2549.63	70.2
2553.299	70.2
2556.964	61.2
2560.626	65.2
2564.285	62.2
2567.941	57.2
2571.594	56.2
2575.243	66.2
2578.89	56.2
2582.533	52.2
2586.173	53.2
2589.809	55.2
2593.443	61.2
2597.073	56.2
2600.701	53.2
2604.325	53.2
2607.946	43.2
2611.564	61.2
2615.178	58.2
2618.79	54.2
2622.398	53.2
2626.004	47.2
2629.606	51.2
2633.205	47.2
2636.801	39.2
2640.394	45.2
2643.983	44.2
2647.57	48.2
2651.153	39.2
2654.734	40.2
2658.311	47.2
2661.885	49.2
2665.456	43.2
2669.025	45.2
2672.589	42.2
2676.151	38.2
2679.71	42.2
2683.266	38.2
2686.819	40.2
2690.368	42.2
2693.915	46.2
2697.458	34.2
2700.999	35.2
2704.536	35.2
2708.071	38.2
2711.602	27.2
2715.13	25.2
2718.656	28.2
2722.178	33.2
2725.697	27.2
2729.214	24.2
2732.727	34.2
2736.237	35.2
2739.744	24.2
2743.249	29.2
2746.75	23.2
2750.248	21.2
2753.743	18.2
2757.236	13.2
2760.725	18.2
2764.211	17.2
2767.695	14.2
2771.175	17.2
2774.652	17.2
2778.127	23.2
2781.598	18.2
2785.067	22.2
2788.532	14.2
2791.995	24.2
2795.455	15.2
2798.911	15.2
2802.365	22.2
2805.816	19.2
2809.264	19.2
2812.709	18.2
2816.151	26.2
2819.59	31.2
2823.026	20.2
2826.46	23.2
2829.89	21.2
2833.318	17.2
2836.742	25.2
2840.164	24.2
2843.583	19.2
2846.999	26.2
2850.412	24.2
2853.822	18.2
2857.229	26.2
2860.634	18.2
2864.035	20.2
2867.434	21.2
2870.83	27.2
2874.223	17.2
2877.613	24.2
2881	28.2
2884.385	32.2
2887.766	32.2
2891.145	25.2
2894.521	32.2
2897.894	26.2
2901.264	33.2
2904.631	32.2
2907.996	29.2
2911.358	38.2
2914.717	34.2
2918.073	31.2
2921.426	36.2
2924.777	39.2
2928.124	39.2
2931.469	39.2
2934.811	46.2
2938.15	42.2
2941.487	50.2
2944.821	44.2
2948.152	39.2
2951.48	45.2
2954.805	42.2
2958.128	40.2
2961.447	47.2
2964.765	34.2
2968.079	44.2
2971.39	40.2
2974.699	36.2
2978.005	42.2
2981.308	42.2
2984.609	38.2
2987.907	37.2
2991.202	42.2
2994.494	42.2
2997.784	39.2
3001.07	39.2
3004.355	47.2
3007.636	42.2
3010.915	41.2
3014.191	41.2
3017.464	44.2
3020.734	44.2
3024.002	44.2
3027.267	45.2
3030.53	48.2
3033.789	48.2
3037.046	53.2
3040.301	49.2
3043.552	51.2
3046.801	58.2
3050.048	61.2
3053.291	66.2
3056.532	70.2
3059.771	60.2
3063.006	67.2
3066.239	72.2
3069.469	74.2
3072.697	72.2
3075.922	82.2
3079.144	76.2
3082.364	84.2
3085.581	84.2
3088.795	92.2
3092.007	97.2
3095.216	94.2
3098.423	96.2
3101.627	93.2
3104.828	101.2
3108.026	101.2
3111.222	107.2
3114.416	104.2
3117.607	111.2
3120.795	114.2
3123.98	114.2
3127.163	128.2
3130.344	117.2
3133.521	115.2
3136.696	119.2
3139.869	135.2
3143.039	132.2
3146.206	134.2
3149.371	130.2
3152.533	144.2
3155.693	143.2
3158.85	141.2
3162.005	145.2
3165.157	137.2
3168.306	148.2
3171.453	141.2
3174.597	142.2
3177.739	143.2
3180.878	145.2
3184.014	139.2
3187.149	140.2
3190.28	145.2
3193.409	147.2
3196.536	143.2
3199.659	148.2
3202.781	148.2
3205.9	146.2
3209.016	141.2
3212.13	144.2
3215.241	145.2
3218.35	142.2
3221.456	145.2
3224.56	142.2
3227.661	133.2
3230.76	133.2
3233.856	136.2
3236.95	128.2
3240.041	122.2
3243.13	130.2
3246.216	119.2
3249.3	111.2
3252.382	110.2
3255.46	121.2
3258.537	116.2
3261.611	114.2
3264.682	113.2
3267.751	119.2
3270.818	105.2
3273.882	112.2
3276.943	113.2
3280.002	107.2
3283.059	107.2
3286.113	102.2
3289.165	105.2
3292.214	105.2
3295.261	100.2
3298.306	97.2
3301.348	98.2
3304.387	94.2
3307.425	95.2
3310.459	96.2
3313.492	96.2
3316.521	94.2
3319.549	105.2
3322.574	97.2
3325.597	95.2
3328.617	95.2
3331.635	98.2
3334.65	105.2
3337.663	87.2
3340.674	90.2
3343.682	104.2
3346.688	96.2
3349.691	99.2
3352.692	94.2
3355.691	99.2
3358.687	90.2
3361.681	91.2
3364.673	91.2
3367.662	88.2
3370.649	84.2
3373.633	93.2
3376.615	86.2
3379.595	80.2
3382.572	77.2
3385.547	89.2
3388.52	81.2
3391.49	77.2
3394.458	74.2
3397.424	79.2
3400.387	73.2
3403.348	68.2
3406.307	71.2
3409.263	67.2
3412.217	71.2
3415.168	68.2
3418.118	63.2
3421.065	63.2
3424.009	60.2
3426.951	66.2
3429.891	58.2
3432.829	59.2
3435.764	58.2
3438.697	55.2
3441.628	45.2
3444.557	51.2
3447.483	45.2
3450.407	37.2
3453.328	50.2
3456.247	44.2
3459.164	38.2
3462.079	29.2
3464.991	32.2
3467.902	25.2
3470.809	23.2
3473.715	22.2
3476.618	19.2
3479.519	16.2
3482.418	24.2
3485.315	15.2
3488.209	14.2
3491.101	20.2
3493.99	22.2
3496.878	10.2
3499.763	1.2
3502.646	4.2
3505.527	8.2
3508.405	1.2
3511.281	-1.8
3514.155	-1.8
3517.027	-7.8
3519.897	4.2
3522.764	-9.8
3525.629	-5.8
3528.492	-13.8
3531.352	-10.8
3534.211	-13.8
3537.067	-11.8
3539.921	-10.8
3542.773	-18.8
3545.622	-13.8
3548.469	-15.8
3551.315	-16.8
3554.157	-20.8
3556.998	-13.8
3559.837	-23.8
3562.673	-21.8
3565.507	-21.8
3568.339	-21.8
3571.169	-23.8
3573.996	-20.8
3576.822	-32.8
3579.645	-28.8
3582.466	-23.8
3585.285	-24.8
3588.101	-31.8
3590.916	-25.8
3593.728	-30.8
3596.538	-35.8
3599.346	-31.8
3602.152	-30.8
3604.956	-32.8
3607.757	-20.8
3610.556	-32.8
3613.354	-40.8
3616.149	-40.8
3618.942	-34.8
3621.732	-35.8
3624.521	-33.8
3627.307	-30.8
3630.092	-35.8
3632.874	-35.8
3635.654	-34.8
3638.432	-34.8
3641.208	-37.8
3643.982	-33.8
3646.753	-41.8
3649.523	-41.8
3652.29	-38.8
3655.055	-38.8
3657.818	-42.8
3660.579	-43.8
3663.338	-39.8
3666.095	-42.8
3668.849	-45.8
3671.602	-40.8
3674.352	-43.8
3677.101	-45.8
3679.847	-44.8
3682.591	-45.8
3685.333	-43.8
3688.073	-46.8
3690.811	-39.8
3693.547	-44.8
3696.281	-41.8
3699.013	-41.8
3701.742	-48.8
3704.47	-44.8
3707.195	-44.8
3709.919	-45.8
3712.64	-47.8
3715.359	-47.8
3718.076	-50.8
3720.792	-46.8
3723.505	-46.8
3726.216	-42.8
3728.925	-52.8
3731.632	-47.8
3734.336	-47.8
3737.039	-40.8
3739.74	-50.8
3742.439	-51.8
3745.136	-50.8
3747.83	-46.8
3750.523	-53.8
3753.213	-51.8
3755.902	-51.8
3758.589	-52.8
3761.273	-48.8
3763.956	-53.8
3766.636	-48.8
3769.315	-44.8
3771.991	-46.8
3774.665	-44.8
3777.338	-51.8
3780.008	-50.8
3782.677	-51.8
3785.343	-52.8
3788.007	-49.8
3790.67	-50.8
3793.33	-47.8
3795.989	-55.8
3798.645	-57.8
3801.299	-49.8
3803.952	-49.8
3806.602	-54.8
3809.251	-53.8
3811.897	-51.8
3814.542	-52.8
3817.184	-53.8
3819.825	-44.8
3822.463	-50.8
3825.1	-43.8
3827.735	-54.8
3830.367	-55.8
3832.998	-53.8
3835.627	-52.8
3838.253	-50.8
3840.878	-46.8
3843.501	-46.8
3846.122	-52.8
3848.741	-49.8
3851.358	-50.8
3853.973	-47.8
3856.586	-46.8
3859.197	-51.8
3861.806	-48.8
3864.414	-52.8
3867.019	-49.8
3869.622	-41.8
3872.224	-41.8
3874.823	-31.8
3877.421	-28.8
3880.016	-15.8
3882.61	-4.8
3885.202	-2.8
3887.792	-11.8
3890.38	-32.8
3892.966	-39.8
3895.55	-44.8
3898.132	-46.8
3900.713	-48.8
3903.291	-50.8
3905.868	-44.8
3908.442	-48.8
3911.015	-48.8
3913.586	-52.8
3916.155	-53.8
3918.722	-54.8
3921.287	-54.8
3923.85	-44.8
3926.411	-47.8
3928.971	-58.8
3931.528	-55.8
3934.084	-53.8
3936.638	-48.8
3939.19	-57.8
3941.74	-46.8
3944.288	-45.8
3946.834	-48.8
3949.378	-48.8
3951.921	-55.8
3954.462	-53.8
3957	-44.8
3959.537	-41.8
3962.072	-51.8
3964.606	-48.8
3967.137	-52.8
3969.667	-57.8
3972.194	-48.8
3974.72	-52.8
3977.244	-46.8
3979.766	-47.8
3982.286	-48.8
3984.805	-57.8
3987.321	-46.8
3989.836	-43.8
3992.349	-44.8
3994.86	-47.8
3997.369	-49.8
3999.877	-49.8
4002.382	-49.8
4004.886	-46.8
4007.388	-52.8
4009.888	-56.8
4012.386	-54.8
4014.883	-53.8
4017.377	-51.8
4019.87	-50.8
4022.361	-54.8
4024.85	-49.8
4027.338	-52.8
4029.823	-49.8
4032.307	-57.8
4034.789	-46.8
4037.269	-53.8
4039.747	-50.8
4042.224	-50.8
4044.699	-54.8
4047.172	-53.8
4049.643	-48.8
4052.112	-50.8
4054.58	-53.8
4057.046	-51.8
4059.51	-52.8
4061.972	-55.8
4064.432	-50.8
4066.891	-48.8
4069.348	-51.8
4071.803	-45.8
4074.256	-48.8
4076.708	-46.8
4079.158	-53.8
4081.606	-50.8
4084.052	-53.8
4086.497	-45.8
4088.939	-46.8
4091.38	-54.8
4093.819	-55.8
4096.257	-54.8
4098.693	-57.8
4101.127	-50.8
4103.559	-58.8
4105.989	11.2
4108.418	12.2
4110.845	11.2
4113.27	8.2
4115.694	12.2
4118.115	14.2
4120.535	-51.8
4122.954	-45.8
4125.37	-50.8
4127.785	-52.8
4130.198	-49.8
4132.609	-54.8
4135.019	-51.8
4137.427	-55.8
4139.833	-54.8
4142.237	-51.8
