Data from 2018-3-7_conc=4_n=5_RamanShift_05.txt Node
Date: Wed Mar 07 12:03:22 IST 2018
User: aro
Spectrometer: QEPB0276
Trigger mode: 0
Integration Time (sec): 3.000000E1
Scans to average: 1
Electric dark correction enabled: true
Nonlinearity correction enabled: false
Boxcar width: 0
XAxis mode: Raman Shifts
Number of Pixels in Spectrum: 1044
>>>>>Begin Spectral Data<<<<<
160.701	9
166.742	24
172.777	47
178.805	123
184.826	321
190.841	665
196.849	1085
202.85	1413
208.845	1539
214.833	1556
220.815	1525
226.789	1531
232.758	1551
238.719	1541
244.674	1530
250.623	1528
256.565	1520
262.5	1496
268.429	1489
274.351	1479
280.267	1461
286.176	1460
292.079	1472
297.975	1470
303.865	1464
309.748	1456
315.625	1463
321.495	1450
327.359	1459
333.217	1466
339.068	1489
344.912	1477
350.751	1472
356.583	1471
362.408	1480
368.227	1502
374.04	1490
379.847	1480
385.647	1487
391.44	1512
397.228	1518
403.009	1517
408.784	1524
414.553	1535
420.315	1529
426.071	1543
431.821	1543
437.565	1536
443.302	1534
449.033	1540
454.758	1529
460.477	1501
466.189	1495
471.896	1499
477.596	1479
483.29	1468
488.978	1463
494.66	1457
500.335	1404
506.005	1384
511.668	1320
517.325	1283
522.977	1222
528.622	1201
534.261	1177
539.894	1144
545.521	1132
551.141	1139
556.756	1120
562.365	1110
567.968	1094
573.565	1082
579.155	1080
584.74	1087
590.319	1077
595.892	1073
601.459	1076
607.02	1077
612.575	1060
618.124	1054
623.667	1045
629.204	1016
634.735	1025
640.261	1007
645.781	998
651.294	1001
656.802	987
662.304	987
667.8	993
673.29	999
678.775	989
684.254	981
689.726	969
695.193	977
700.655	956
706.11	952
711.56	949
717.004	933
722.442	942
727.874	924
733.301	935
738.722	941
744.137	918
749.547	926
754.951	930
760.349	932
765.741	921
771.128	924
776.509	939
781.885	948
787.254	949
792.618	955
797.977	952
803.33	931
808.677	930
814.019	932
819.355	909
824.686	902
830.011	922
835.33	913
840.644	906
845.952	907
851.255	902
856.552	910
861.844	896
867.13	865
872.41	871
877.686	878
882.955	871
888.219	854
893.478	843
898.731	827
903.979	818
909.221	812
914.458	808
919.69	810
924.916	805
930.136	810
935.351	802
940.561	810
945.766	831
950.965	813
956.158	800
961.347	799
966.529	784
971.707	751
976.879	753
982.046	750
987.208	758
992.364	746
997.515	756
1002.66	764
1007.801	772
1012.936	768
1018.066	770
1023.19	780
1028.309	783
1033.423	774
1038.532	759
1043.636	764
1048.734	752
1053.827	749
1058.915	740
1063.998	733
1069.075	716
1074.147	725
1079.214	726
1084.276	741
1089.333	745
1094.385	741
1099.431	735
1104.472	731
1109.509	726
1114.54	710
1119.565	702
1124.586	694
1129.602	703
1134.613	688
1139.618	673
1144.619	669
1149.614	684
1154.604	681
1159.589	685
1164.57	683
1169.545	685
1174.515	684
1179.48	688
1184.44	684
1189.395	674
1194.345	671
1199.29	666
1204.23	668
1209.165	674
1214.095	672
1219.021	664
1223.941	684
1228.856	690
1233.766	677
1238.672	688
1243.572	681
1248.467	684
1253.358	671
1258.244	650
1263.124	636
1268	628
1272.871	622
1277.737	612
1282.599	625
1287.455	615
1292.306	614
1297.153	617
1301.995	627
1306.832	619
1311.664	622
1316.491	636
1321.314	625
1326.132	625
1330.945	603
1335.753	603
1340.556	591
1345.354	566
1350.148	559
1354.937	566
1359.722	543
1364.501	530
1369.276	530
1374.046	518
1378.811	521
1383.572	513
1388.327	515
1393.079	523
1397.825	515
1402.567	507
1407.304	519
1412.036	516
1416.764	513
1421.487	500
1426.205	511
1430.919	515
1435.628	528
1440.333	530
1445.032	525
1449.727	546
1454.418	536
1459.104	545
1463.785	525
1468.462	511
1473.134	510
1477.802	484
1482.465	488
1487.123	473
1491.777	465
1496.426	463
1501.071	457
1505.711	455
1510.347	455
1514.978	446
1519.604	436
1524.226	449
1528.844	444
1533.457	439
1538.065	448
1542.669	438
1547.269	441
1551.864	434
1556.454	442
1561.041	452
1565.622	453
1570.199	445
1574.772	454
1579.34	460
1583.904	460
1588.464	474
1593.019	481
1597.569	474
1602.115	484
1606.657	461
1611.195	482
1615.728	460
1620.256	454
1624.78	466
1629.3	466
1633.816	465
1638.327	466
1642.834	463
1647.336	467
1651.834	451
1656.328	453
1660.817	461
1665.302	456
1669.783	441
1674.259	435
1678.732	431
1683.199	412
1687.663	401
1692.122	384
1696.577	371
1701.028	355
1705.474	340
1709.917	332
1714.355	320
1718.788	320
1723.218	322
1727.643	327
1732.064	325
1736.481	319
1740.893	307
1745.301	311
1749.705	303
1754.105	294
1758.501	279
1762.893	286
1767.28	275
1771.663	276
1776.042	264
1780.417	268
1784.787	260
1789.154	260
1793.516	250
1797.874	243
1802.228	247
1806.578	250
1810.924	233
1815.266	233
1819.603	244
1823.937	247
1828.266	240
1832.591	243
1836.913	241
1841.23	247
1845.543	234
1849.852	244
1854.156	247
1858.457	249
1862.754	255
1867.047	234
1871.335	239
1875.62	244
1879.9	240
1884.177	235
1888.449	233
1892.718	237
1896.982	225
1901.243	223
1905.499	224
1909.752	208
1914	209
1918.245	214
1922.485	197
1926.722	203
1930.954	203
1935.183	204
1939.408	203
1943.628	204
1947.845	202
1952.058	193
1956.267	193
1960.472	197
1964.673	193
1968.87	183
1973.063	186
1977.252	193
1981.438	182
1985.619	183
1989.797	180
1993.971	191
1998.14	188
2002.306	189
2006.469	197
2010.627	189
2014.781	192
2018.932	186
2023.078	192
2027.221	191
2031.36	185
2035.495	176
2039.627	172
2043.754	177
2047.878	163
2051.998	180
2056.114	164
2060.226	171
2064.334	173
2068.439	158
2072.54	159
2076.637	170
2080.73	165
2084.82	165
2088.906	159
2092.988	162
2097.066	155
2101.14	158
2105.211	154
2109.278	157
2113.342	150
2117.401	156
2121.457	143
2125.509	143
2129.558	140
2133.602	142
2137.643	146
2141.681	143
2145.714	143
2149.744	147
2153.77	150
2157.793	147
2161.812	150
2165.827	146
2169.838	143
2173.846	139
2177.851	133
2181.851	139
2185.848	143
2189.841	127
2193.831	128
2197.817	130
2201.799	124
2205.778	126
2209.753	134
2213.725	133
2217.693	128
2221.657	129
2225.618	120
2229.575	123
2233.529	122
2237.479	124
2241.425	118
2245.368	125
2249.307	128
2253.243	113
2257.175	117
2261.104	100
2265.029	108
2268.95	117
2272.868	110
2276.783	104
2280.694	101
2284.601	94
2288.505	102
2292.405	106
2296.302	106
2300.195	104
2304.085	96
2307.971	104
2311.854	92
2315.734	94
2319.609	98
2323.482	98
2327.351	98
2331.216	101
2335.078	112
2338.937	103
2342.792	98
2346.643	95
2350.492	91
2354.336	89
2358.178	82
2362.015	97
2365.85	87
2369.681	96
2373.508	99
2377.333	94
2381.153	94
2384.971	91
2388.785	95
2392.595	94
2396.402	91
2400.206	86
2404.007	81
2407.804	93
2411.597	91
2415.388	90
2419.174	90
2422.958	84
2426.738	89
2430.515	79
2434.289	87
2438.059	88
2441.825	80
2445.589	81
2449.349	82
2453.106	86
2456.859	74
2460.61	84
2464.356	85
2468.1	81
2471.84	76
2475.577	69
2479.311	71
2483.041	70
2486.768	66
2490.492	69
2494.213	68
2497.93	73
2501.644	72
2505.355	68
2509.062	70
2512.766	69
2516.467	64
2520.165	63
2523.859	64
2527.551	63
2531.239	68
2534.923	56
2538.605	60
2542.283	57
2545.958	63
2549.63	57
2553.299	55
2556.964	50
2560.626	46
2564.285	52
2567.941	46
2571.594	52
2575.243	54
2578.89	52
2582.533	46
2586.173	45
2589.809	49
2593.443	63
2597.073	50
2600.701	49
2604.325	44
2607.946	40
2611.564	46
2615.178	45
2618.79	46
2622.398	46
2626.004	39
2629.606	37
2633.205	39
2636.801	39
2640.394	50
2643.983	42
2647.57	40
2651.153	40
2654.734	35
2658.311	41
2661.885	44
2665.456	43
2669.025	38
2672.589	37
2676.151	33
2679.71	25
2683.266	27
2686.819	37
2690.368	28
2693.915	34
2697.458	19
2700.999	33
2704.536	36
2708.071	29
2711.602	25
2715.13	26
2718.656	27
2722.178	28
2725.697	22
2729.214	28
2732.727	27
2736.237	28
2739.744	15
2743.249	22
2746.75	24
2750.248	16
2753.743	21
2757.236	16
2760.725	18
2764.211	18
2767.695	12
2771.175	16
2774.652	14
2778.127	22
2781.598	15
2785.067	16
2788.532	14
2791.995	17
2795.455	14
2798.911	13
2802.365	16
2805.816	19
2809.264	20
2812.709	8
2816.151	22
2819.59	26
2823.026	23
2826.46	21
2829.89	16
2833.318	21
2836.742	17
2840.164	17
2843.583	15
2846.999	21
2850.412	19
2853.822	20
2857.229	26
2860.634	12
2864.035	17
2867.434	17
2870.83	25
2874.223	19
2877.613	22
2881	27
2884.385	26
2887.766	36
2891.145	28
2894.521	21
2897.894	27
2901.264	28
2904.631	24
2907.996	27
2911.358	31
2914.717	25
2918.073	24
2921.426	24
2924.777	23
2928.124	28
2931.469	30
2934.811	33
2938.15	40
2941.487	43
2944.821	35
2948.152	41
2951.48	30
2954.805	38
2958.128	30
2961.447	37
2964.765	25
2968.079	29
2971.39	35
2974.699	26
2978.005	34
2981.308	28
2984.609	33
2987.907	34
2991.202	34
2994.494	34
2997.784	29
3001.07	37
3004.355	38
3007.636	37
3010.915	35
3014.191	37
3017.464	37
3020.734	38
3024.002	40
3027.267	38
3030.53	43
3033.789	43
3037.046	39
3040.301	42
3043.552	43
3046.801	52
3050.048	46
3053.291	55
3056.532	50
3059.771	54
3063.006	63
3066.239	57
3069.469	61
3072.697	71
3075.922	69
3079.144	65
3082.364	71
3085.581	68
3088.795	70
3092.007	75
3095.216	81
3098.423	72
3101.627	73
3104.828	84
3108.026	89
3111.222	85
3114.416	95
3117.607	95
3120.795	97
3123.98	97
3127.163	108
3130.344	103
3133.521	106
3136.696	112
3139.869	104
3143.039	116
3146.206	112
3149.371	115
3152.533	133
3155.693	121
3158.85	123
3162.005	126
3165.157	123
3168.306	125
3171.453	127
3174.597	117
3177.739	124
3180.878	127
3184.014	128
3187.149	122
3190.28	115
3193.409	124
3196.536	123
3199.659	130
3202.781	121
3205.9	119
3209.016	119
3212.13	120
3215.241	123
3218.35	120
3221.456	114
3224.56	118
3227.661	119
3230.76	110
3233.856	112
3236.95	115
3240.041	107
3243.13	113
3246.216	103
3249.3	99
3252.382	102
3255.46	105
3258.537	99
3261.611	93
3264.682	93
3267.751	107
3270.818	92
3273.882	98
3276.943	100
3280.002	93
3283.059	95
3286.113	89
3289.165	89
3292.214	89
3295.261	84
3298.306	80
3301.348	86
3304.387	86
3307.425	82
3310.459	79
3313.492	84
3316.521	78
3319.549	86
3322.574	75
3325.597	77
3328.617	77
3331.635	86
3334.65	89
3337.663	71
3340.674	86
3343.682	84
3346.688	80
3349.691	83
3352.692	75
3355.691	91
3358.687	84
3361.681	76
3364.673	76
3367.662	72
3370.649	74
3373.633	66
3376.615	69
3379.595	68
3382.572	66
3385.547	72
3388.52	59
3391.49	59
3394.458	62
3397.424	65
3400.387	63
3403.348	58
3406.307	49
3409.263	59
3412.217	60
3415.168	55
3418.118	52
3421.065	47
3424.009	49
3426.951	45
3429.891	45
3432.829	48
3435.764	47
3438.697	48
3441.628	33
3444.557	39
3447.483	38
3450.407	27
3453.328	45
3456.247	34
3459.164	29
3462.079	24
3464.991	26
3467.902	23
3470.809	23
3473.715	20
3476.618	16
3479.519	13
3482.418	12
3485.315	11
3488.209	7
3491.101	4
3493.99	12
3496.878	-3
3499.763	5
3502.646	2
3505.527	4
3508.405	-2
3511.281	-1
3514.155	2
3517.027	-10
3519.897	-8
3522.764	-9
3525.629	-13
3528.492	-11
3531.352	-16
3534.211	-16
3537.067	-22
3539.921	-21
3542.773	-20
3545.622	-16
3548.469	-19
3551.315	-16
3554.157	-23
3556.998	-15
3559.837	-23
3562.673	-20
3565.507	-19
3568.339	-18
3571.169	-28
3573.996	-22
3576.822	-33
3579.645	-26
3582.466	-28
3585.285	-28
3588.101	-31
3590.916	-28
3593.728	-36
3596.538	-34
3599.346	-35
3602.152	-31
3604.956	-26
3607.757	-29
3610.556	-30
3613.354	-34
3616.149	-35
3618.942	-32
3621.732	-34
3624.521	-35
3627.307	-36
3630.092	-35
3632.874	-40
3635.654	-38
3638.432	-35
3641.208	-44
3643.982	-38
3646.753	-41
3649.523	-41
3652.29	-41
3655.055	-41
3657.818	-43
3660.579	-46
3663.338	-37
3666.095	-42
3668.849	-43
3671.602	-40
3674.352	-36
3677.101	-44
3679.847	-45
3682.591	-50
3685.333	-39
3688.073	-49
3690.811	-45
3693.547	-49
3696.281	-42
3699.013	-44
3701.742	-44
3704.47	-41
3707.195	-42
3709.919	-47
3712.64	-41
3715.359	-45
3718.076	-48
3720.792	-48
3723.505	-44
3726.216	-44
3728.925	-49
3731.632	-43
3734.336	-48
3737.039	-46
3739.74	-46
3742.439	-60
3745.136	-58
3747.83	-50
3750.523	-51
3753.213	-58
3755.902	-50
3758.589	-50
3761.273	-41
3763.956	-45
3766.636	-43
3769.315	-41
3771.991	-45
3774.665	-50
3777.338	-52
3780.008	-43
3782.677	-54
3785.343	-48
3788.007	-46
3790.67	-50
3793.33	-47
3795.989	-51
3798.645	-49
3801.299	-50
3803.952	-45
3806.602	-46
3809.251	-51
3811.897	-54
3814.542	-53
3817.184	-50
3819.825	-44
3822.463	-49
3825.1	-50
3827.735	-57
3830.367	-52
3832.998	-53
3835.627	-50
3838.253	-48
3840.878	-45
3843.501	-45
3846.122	-52
3848.741	-48
3851.358	-50
3853.973	-45
3856.586	-45
3859.197	-45
3861.806	-49
3864.414	-51
3867.019	-51
3869.622	-40
3872.224	-37
3874.823	-32
3877.421	-26
3880.016	-15
3882.61	3
3885.202	2
3887.792	-3
3890.38	-20
3892.966	-37
3895.55	-44
3898.132	-46
3900.713	-47
3903.291	-50
3905.868	-46
3908.442	-51
3911.015	-49
3913.586	-52
3916.155	-51
3918.722	-52
3921.287	-55
3923.85	-48
3926.411	-54
3928.971	-62
3931.528	-52
3934.084	-49
3936.638	-51
3939.19	-48
3941.74	-50
3944.288	-52
3946.834	-52
3949.378	-50
3951.921	-48
3954.462	-48
3957	-46
3959.537	-42
3962.072	-45
3964.606	-41
3967.137	-48
3969.667	-50
3972.194	-47
3974.72	-48
3977.244	-50
3979.766	-47
3982.286	-50
3984.805	-56
3987.321	-48
3989.836	-45
3992.349	-49
3994.86	-51
3997.369	-50
3999.877	-51
4002.382	-46
4004.886	-51
4007.388	-54
4009.888	-52
4012.386	-50
4014.883	-46
4017.377	-51
4019.87	-50
4022.361	-54
4024.85	-48
4027.338	-47
4029.823	-52
4032.307	-52
4034.789	-46
4037.269	-46
4039.747	-50
4042.224	-53
4044.699	-54
4047.172	-55
4049.643	-54
4052.112	-53
4054.58	-48
4057.046	-52
4059.51	-48
4061.972	-55
4064.432	-47
4066.891	-44
4069.348	-48
4071.803	-44
4074.256	-48
4076.708	-49
4079.158	-47
4081.606	-51
4084.052	-52
4086.497	-47
4088.939	-47
4091.38	-52
4093.819	-55
4096.257	-50
4098.693	-50
4101.127	-47
4103.559	-57
4105.989	30
4108.418	19
4110.845	21
4113.27	14
4115.694	23
4118.115	19
4120.535	-54
4122.954	-51
4125.37	-47
4127.785	-49
4130.198	-51
4132.609	-51
4135.019	-49
4137.427	-55
4139.833	-48
4142.237	-51
