Data from 2018-3-7_conc=3_n=3_RamanShift_03.txt Node
Date: Wed Mar 07 11:22:52 IST 2018
User: aro
Spectrometer: QEPB0276
Trigger mode: 0
Integration Time (sec): 3.000000E1
Scans to average: 1
Electric dark correction enabled: true
Nonlinearity correction enabled: false
Boxcar width: 0
XAxis mode: Raman Shifts
Number of Pixels in Spectrum: 1044
>>>>>Begin Spectral Data<<<<<
160.701	13.6
166.742	24.6
172.777	49.6
178.805	130.6
184.826	350.6
190.841	716.6
196.849	1175.6
202.85	1536.6
208.845	1681.6
214.833	1688.6
220.815	1669.6
226.789	1683.6
232.758	1685.6
238.719	1658.6
244.674	1656.6
250.623	1659.6
256.565	1650.6
262.5	1608.6
268.429	1600.6
274.351	1603.6
280.267	1613.6
286.176	1617.6
292.079	1602.6
297.975	1602.6
303.865	1597.6
309.748	1595.6
315.625	1606.6
321.495	1595.6
327.359	1600.6
333.217	1596.6
339.068	1608.6
344.912	1620.6
350.751	1616.6
356.583	1619.6
362.408	1616.6
368.227	1630.6
374.04	1630.6
379.847	1651.6
385.647	1655.6
391.44	1664.6
397.228	1662.6
403.009	1688.6
408.784	1686.6
414.553	1689.6
420.315	1688.6
426.071	1709.6
431.821	1694.6
437.565	1678.6
443.302	1683.6
449.033	1669.6
454.758	1673.6
460.477	1667.6
466.189	1660.6
471.896	1639.6
477.596	1620.6
483.29	1636.6
488.978	1623.6
494.66	1610.6
500.335	1566.6
506.005	1520.6
511.668	1450.6
517.325	1403.6
522.977	1356.6
528.622	1304.6
534.261	1279.6
539.894	1257.6
545.521	1245.6
551.141	1257.6
556.756	1247.6
562.365	1212.6
567.968	1213.6
573.565	1193.6
579.155	1199.6
584.74	1188.6
590.319	1167.6
595.892	1174.6
601.459	1165.6
607.02	1161.6
612.575	1153.6
618.124	1139.6
623.667	1134.6
629.204	1120.6
634.735	1105.6
640.261	1092.6
645.781	1101.6
651.294	1088.6
656.802	1078.6
662.304	1088.6
667.8	1077.6
673.29	1081.6
678.775	1061.6
684.254	1066.6
689.726	1067.6
695.193	1063.6
700.655	1034.6
706.11	1048.6
711.56	1027.6
717.004	1028.6
722.442	1021.6
727.874	1011.6
733.301	1005.6
738.722	1016.6
744.137	1019.6
749.547	1016.6
754.951	1000.6
760.349	1011.6
765.741	1012.6
771.128	1011.6
776.509	1027.6
781.885	1042.6
787.254	1034.6
792.618	1037.6
797.977	1047.6
803.33	1029.6
808.677	1036.6
814.019	1035.6
819.355	1007.6
824.686	995.6
830.011	988.6
835.33	985.6
840.644	986.6
845.952	991.6
851.255	977.6
856.552	991.6
861.844	960.6
867.13	945.6
872.41	947.6
877.686	940.6
882.955	946.6
888.219	939.6
893.478	933.6
898.731	894.6
903.979	883.6
909.221	897.6
914.458	878.6
919.69	886.6
924.916	878.6
930.136	888.6
935.351	878.6
940.561	883.6
945.766	876.6
950.965	871.6
956.158	866.6
961.347	859.6
966.529	849.6
971.707	844.6
976.879	821.6
982.046	819.6
987.208	824.6
992.364	819.6
997.515	818.6
1002.66	820.6
1007.801	839.6
1012.936	842.6
1018.066	837.6
1023.19	851.6
1028.309	844.6
1033.423	833.6
1038.532	845.6
1043.636	832.6
1048.734	828.6
1053.827	813.6
1058.915	805.6
1063.998	790.6
1069.075	784.6
1074.147	794.6
1079.214	802.6
1084.276	825.6
1089.333	821.6
1094.385	818.6
1099.431	791.6
1104.472	804.6
1109.509	791.6
1114.54	779.6
1119.565	758.6
1124.586	753.6
1129.602	751.6
1134.613	745.6
1139.618	738.6
1144.619	734.6
1149.614	753.6
1154.604	745.6
1159.589	749.6
1164.57	748.6
1169.545	750.6
1174.515	754.6
1179.48	743.6
1184.44	761.6
1189.395	736.6
1194.345	723.6
1199.29	716.6
1204.23	723.6
1209.165	715.6
1214.095	726.6
1219.021	726.6
1223.941	747.6
1228.856	741.6
1233.766	736.6
1238.672	750.6
1243.572	734.6
1248.467	730.6
1253.358	709.6
1258.244	703.6
1263.124	690.6
1268	681.6
1272.871	676.6
1277.737	663.6
1282.599	672.6
1287.455	669.6
1292.306	668.6
1297.153	669.6
1301.995	681.6
1306.832	689.6
1311.664	677.6
1316.491	686.6
1321.314	676.6
1326.132	677.6
1330.945	660.6
1335.753	653.6
1340.556	644.6
1345.354	621.6
1350.148	609.6
1354.937	612.6
1359.722	588.6
1364.501	590.6
1369.276	572.6
1374.046	561.6
1378.811	553.6
1383.572	557.6
1388.327	558.6
1393.079	549.6
1397.825	565.6
1402.567	558.6
1407.304	567.6
1412.036	562.6
1416.764	558.6
1421.487	567.6
1426.205	557.6
1430.919	559.6
1435.628	563.6
1440.333	581.6
1445.032	565.6
1449.727	588.6
1454.418	584.6
1459.104	583.6
1463.785	564.6
1468.462	557.6
1473.134	546.6
1477.802	532.6
1482.465	504.6
1487.123	507.6
1491.777	495.6
1496.426	485.6
1501.071	499.6
1505.711	476.6
1510.347	484.6
1514.978	475.6
1519.604	473.6
1524.226	467.6
1528.844	468.6
1533.457	468.6
1538.065	474.6
1542.669	463.6
1547.269	462.6
1551.864	482.6
1556.454	480.6
1561.041	501.6
1565.622	497.6
1570.199	487.6
1574.772	481.6
1579.34	504.6
1583.904	499.6
1588.464	512.6
1593.019	502.6
1597.569	514.6
1602.115	506.6
1606.657	492.6
1611.195	505.6
1615.728	509.6
1620.256	498.6
1624.78	493.6
1629.3	500.6
1633.816	496.6
1638.327	501.6
1642.834	495.6
1647.336	501.6
1651.834	507.6
1656.328	503.6
1660.817	500.6
1665.302	493.6
1669.783	477.6
1674.259	462.6
1678.732	460.6
1683.199	428.6
1687.663	422.6
1692.122	405.6
1696.577	379.6
1701.028	383.6
1705.474	353.6
1709.917	349.6
1714.355	346.6
1718.788	343.6
1723.218	345.6
1727.643	331.6
1732.064	328.6
1736.481	343.6
1740.893	326.6
1745.301	328.6
1749.705	318.6
1754.105	313.6
1758.501	291.6
1762.893	289.6
1767.28	297.6
1771.663	284.6
1776.042	285.6
1780.417	274.6
1784.787	279.6
1789.154	273.6
1793.516	261.6
1797.874	261.6
1802.228	261.6
1806.578	257.6
1810.924	255.6
1815.266	259.6
1819.603	251.6
1823.937	257.6
1828.266	248.6
1832.591	261.6
1836.913	254.6
1841.23	258.6
1845.543	252.6
1849.852	267.6
1854.156	263.6
1858.457	265.6
1862.754	270.6
1867.047	258.6
1871.335	246.6
1875.62	247.6
1879.9	254.6
1884.177	248.6
1888.449	251.6
1892.718	250.6
1896.982	244.6
1901.243	227.6
1905.499	236.6
1909.752	228.6
1914	223.6
1918.245	219.6
1922.485	214.6
1926.722	208.6
1930.954	201.6
1935.183	204.6
1939.408	204.6
1943.628	203.6
1947.845	199.6
1952.058	200.6
1956.267	198.6
1960.472	206.6
1964.673	194.6
1968.87	198.6
1973.063	199.6
1977.252	193.6
1981.438	197.6
1985.619	195.6
1989.797	189.6
1993.971	199.6
1998.14	188.6
2002.306	193.6
2006.469	197.6
2010.627	195.6
2014.781	200.6
2018.932	200.6
2023.078	195.6
2027.221	196.6
2031.36	203.6
2035.495	194.6
2039.627	182.6
2043.754	185.6
2047.878	182.6
2051.998	177.6
2056.114	177.6
2060.226	173.6
2064.334	175.6
2068.439	165.6
2072.54	165.6
2076.637	173.6
2080.73	169.6
2084.82	177.6
2088.906	168.6
2092.988	163.6
2097.066	164.6
2101.14	166.6
2105.211	157.6
2109.278	161.6
2113.342	154.6
2117.401	143.6
2121.457	153.6
2125.509	154.6
2129.558	155.6
2133.602	146.6
2137.643	162.6
2141.681	152.6
2145.714	157.6
2149.744	155.6
2153.77	152.6
2157.793	151.6
2161.812	160.6
2165.827	153.6
2169.838	145.6
2173.846	143.6
2177.851	138.6
2181.851	142.6
2185.848	141.6
2189.841	135.6
2193.831	133.6
2197.817	133.6
2201.799	130.6
2205.778	134.6
2209.753	142.6
2213.725	132.6
2217.693	144.6
2221.657	130.6
2225.618	137.6
2229.575	129.6
2233.529	126.6
2237.479	134.6
2241.425	126.6
2245.368	118.6
2249.307	126.6
2253.243	122.6
2257.175	120.6
2261.104	117.6
2265.029	122.6
2268.95	117.6
2272.868	117.6
2276.783	110.6
2280.694	117.6
2284.601	103.6
2288.505	108.6
2292.405	115.6
2296.302	112.6
2300.195	108.6
2304.085	102.6
2307.971	102.6
2311.854	99.6
2315.734	95.6
2319.609	104.6
2323.482	107.6
2327.351	106.6
2331.216	114.6
2335.078	128.6
2338.937	111.6
2342.792	105.6
2346.643	99.6
2350.492	105.6
2354.336	110.6
2358.178	97.6
2362.015	96.6
2365.85	94.6
2369.681	99.6
2373.508	104.6
2377.333	101.6
2381.153	94.6
2384.971	97.6
2388.785	98.6
2392.595	94.6
2396.402	100.6
2400.206	102.6
2404.007	99.6
2407.804	99.6
2411.597	96.6
2415.388	95.6
2419.174	108.6
2422.958	88.6
2426.738	96.6
2430.515	92.6
2434.289	96.6
2438.059	87.6
2441.825	87.6
2445.589	82.6
2449.349	85.6
2453.106	88.6
2456.859	81.6
2460.61	86.6
2464.356	94.6
2468.1	87.6
2471.84	86.6
2475.577	82.6
2479.311	74.6
2483.041	81.6
2486.768	79.6
2490.492	81.6
2494.213	76.6
2497.93	71.6
2501.644	70.6
2505.355	68.6
2509.062	71.6
2512.766	65.6
2516.467	70.6
2520.165	70.6
2523.859	75.6
2527.551	72.6
2531.239	67.6
2534.923	59.6
2538.605	60.6
2542.283	56.6
2545.958	63.6
2549.63	61.6
2553.299	61.6
2556.964	58.6
2560.626	59.6
2564.285	55.6
2567.941	60.6
2571.594	53.6
2575.243	56.6
2578.89	47.6
2582.533	46.6
2586.173	47.6
2589.809	59.6
2593.443	55.6
2597.073	44.6
2600.701	49.6
2604.325	37.6
2607.946	39.6
2611.564	46.6
2615.178	44.6
2618.79	55.6
2622.398	49.6
2626.004	44.6
2629.606	44.6
2633.205	46.6
2636.801	45.6
2640.394	47.6
2643.983	46.6
2647.57	47.6
2651.153	35.6
2654.734	42.6
2658.311	40.6
2661.885	45.6
2665.456	35.6
2669.025	39.6
2672.589	33.6
2676.151	35.6
2679.71	40.6
2683.266	34.6
2686.819	44.6
2690.368	31.6
2693.915	37.6
2697.458	31.6
2700.999	40.6
2704.536	37.6
2708.071	33.6
2711.602	31.6
2715.13	23.6
2718.656	24.6
2722.178	26.6
2725.697	25.6
2729.214	28.6
2732.727	26.6
2736.237	27.6
2739.744	27.6
2743.249	24.6
2746.75	19.6
2750.248	23.6
2753.743	21.6
2757.236	25.6
2760.725	26.6
2764.211	11.6
2767.695	14.6
2771.175	15.6
2774.652	10.6
2778.127	19.6
2781.598	13.6
2785.067	15.6
2788.532	16.6
2791.995	17.6
2795.455	19.6
2798.911	19.6
2802.365	14.6
2805.816	19.6
2809.264	20.6
2812.709	17.6
2816.151	25.6
2819.59	27.6
2823.026	18.6
2826.46	22.6
2829.89	10.6
2833.318	13.6
2836.742	18.6
2840.164	16.6
2843.583	18.6
2846.999	26.6
2850.412	24.6
2853.822	17.6
2857.229	26.6
2860.634	20.6
2864.035	22.6
2867.434	22.6
2870.83	25.6
2874.223	22.6
2877.613	27.6
2881	25.6
2884.385	32.6
2887.766	32.6
2891.145	24.6
2894.521	28.6
2897.894	33.6
2901.264	36.6
2904.631	27.6
2907.996	28.6
2911.358	42.6
2914.717	34.6
2918.073	31.6
2921.426	31.6
2924.777	26.6
2928.124	31.6
2931.469	28.6
2934.811	37.6
2938.15	43.6
2941.487	49.6
2944.821	32.6
2948.152	46.6
2951.48	39.6
2954.805	43.6
2958.128	35.6
2961.447	42.6
2964.765	37.6
2968.079	33.6
2971.39	38.6
2974.699	36.6
2978.005	43.6
2981.308	34.6
2984.609	29.6
2987.907	31.6
2991.202	35.6
2994.494	35.6
2997.784	34.6
3001.07	37.6
3004.355	41.6
3007.636	42.6
3010.915	46.6
3014.191	38.6
3017.464	38.6
3020.734	47.6
3024.002	46.6
3027.267	43.6
3030.53	40.6
3033.789	51.6
3037.046	45.6
3040.301	52.6
3043.552	51.6
3046.801	56.6
3050.048	56.6
3053.291	58.6
3056.532	60.6
3059.771	57.6
3063.006	62.6
3066.239	71.6
3069.469	72.6
3072.697	72.6
3075.922	82.6
3079.144	75.6
3082.364	84.6
3085.581	83.6
3088.795	87.6
3092.007	89.6
3095.216	90.6
3098.423	90.6
3101.627	88.6
3104.828	97.6
3108.026	98.6
3111.222	103.6
3114.416	100.6
3117.607	100.6
3120.795	103.6
3123.98	107.6
3127.163	117.6
3130.344	115.6
3133.521	109.6
3136.696	120.6
3139.869	122.6
3143.039	121.6
3146.206	129.6
3149.371	124.6
3152.533	132.6
3155.693	137.6
3158.85	141.6
3162.005	133.6
3165.157	133.6
3168.306	132.6
3171.453	129.6
3174.597	133.6
3177.739	139.6
3180.878	132.6
3184.014	128.6
3187.149	138.6
3190.28	127.6
3193.409	139.6
3196.536	141.6
3199.659	149.6
3202.781	141.6
3205.9	136.6
3209.016	133.6
3212.13	132.6
3215.241	138.6
3218.35	141.6
3221.456	126.6
3224.56	123.6
3227.661	122.6
3230.76	122.6
3233.856	126.6
3236.95	121.6
3240.041	117.6
3243.13	116.6
3246.216	110.6
3249.3	108.6
3252.382	114.6
3255.46	115.6
3258.537	104.6
3261.611	100.6
3264.682	102.6
3267.751	104.6
3270.818	95.6
3273.882	104.6
3276.943	100.6
3280.002	98.6
3283.059	105.6
3286.113	92.6
3289.165	99.6
3292.214	98.6
3295.261	102.6
3298.306	96.6
3301.348	98.6
3304.387	90.6
3307.425	89.6
3310.459	87.6
3313.492	83.6
3316.521	85.6
3319.549	95.6
3322.574	92.6
3325.597	86.6
3328.617	90.6
3331.635	96.6
3334.65	94.6
3337.663	75.6
3340.674	90.6
3343.682	88.6
3346.688	86.6
3349.691	83.6
3352.692	79.6
3355.691	90.6
3358.687	85.6
3361.681	84.6
3364.673	87.6
3367.662	93.6
3370.649	88.6
3373.633	83.6
3376.615	85.6
3379.595	74.6
3382.572	76.6
3385.547	76.6
3388.52	69.6
3391.49	65.6
3394.458	62.6
3397.424	72.6
3400.387	72.6
3403.348	61.6
3406.307	58.6
3409.263	69.6
3412.217	72.6
3415.168	73.6
3418.118	59.6
3421.065	59.6
3424.009	54.6
3426.951	54.6
3429.891	52.6
3432.829	54.6
3435.764	51.6
3438.697	57.6
3441.628	41.6
3444.557	49.6
3447.483	48.6
3450.407	35.6
3453.328	35.6
3456.247	36.6
3459.164	38.6
3462.079	30.6
3464.991	28.6
3467.902	21.6
3470.809	26.6
3473.715	22.6
3476.618	18.6
3479.519	16.6
3482.418	13.6
3485.315	7.6
3488.209	2.6
3491.101	7.6
3493.99	12.6
3496.878	13.6
3499.763	5.6
3502.646	7.6
3505.527	4.6
3508.405	7.6
3511.281	-0.4
3514.155	-3.4
3517.027	-9.4
3519.897	-6.4
3522.764	-4.4
3525.629	-8.4
3528.492	-9.4
3531.352	-16.4
3534.211	-14.4
3537.067	-15.4
3539.921	-5.4
3542.773	-21.4
3545.622	-19.4
3548.469	-17.4
3551.315	-12.4
3554.157	-16.4
3556.998	-20.4
3559.837	-21.4
3562.673	-20.4
3565.507	-25.4
3568.339	-25.4
3571.169	-28.4
3573.996	-19.4
3576.822	-33.4
3579.645	-26.4
3582.466	-26.4
3585.285	-30.4
3588.101	-31.4
3590.916	-26.4
3593.728	-38.4
3596.538	-35.4
3599.346	-36.4
3602.152	-34.4
3604.956	-33.4
3607.757	-32.4
3610.556	-33.4
3613.354	-41.4
3616.149	-42.4
3618.942	-32.4
3621.732	-39.4
3624.521	-31.4
3627.307	-32.4
3630.092	-39.4
3632.874	-38.4
3635.654	-36.4
3638.432	-32.4
3641.208	-40.4
3643.982	-35.4
3646.753	-42.4
3649.523	-33.4
3652.29	-38.4
3655.055	-41.4
3657.818	-46.4
3660.579	-44.4
3663.338	-42.4
3666.095	-40.4
3668.849	-47.4
3671.602	-45.4
3674.352	-37.4
3677.101	-42.4
3679.847	-37.4
3682.591	-43.4
3685.333	-44.4
3688.073	-51.4
3690.811	-43.4
3693.547	-45.4
3696.281	-42.4
3699.013	-40.4
3701.742	-49.4
3704.47	-42.4
3707.195	-46.4
3709.919	-45.4
3712.64	-48.4
3715.359	-43.4
3718.076	-48.4
3720.792	-46.4
3723.505	-44.4
3726.216	-49.4
3728.925	-47.4
3731.632	-47.4
3734.336	-48.4
3737.039	-44.4
3739.74	-49.4
3742.439	-50.4
3745.136	-51.4
3747.83	-48.4
3750.523	-53.4
3753.213	-49.4
3755.902	-50.4
3758.589	-46.4
3761.273	-48.4
3763.956	-48.4
3766.636	-37.4
3769.315	-42.4
3771.991	-52.4
3774.665	-52.4
3777.338	-52.4
3780.008	-49.4
3782.677	-51.4
3785.343	-54.4
3788.007	-56.4
3790.67	-49.4
3793.33	-47.4
3795.989	-53.4
3798.645	-51.4
3801.299	-47.4
3803.952	-50.4
3806.602	-47.4
3809.251	-50.4
3811.897	-54.4
3814.542	-58.4
3817.184	-50.4
3819.825	-48.4
3822.463	-49.4
3825.1	-50.4
3827.735	-51.4
3830.367	-54.4
3832.998	-51.4
3835.627	-49.4
3838.253	-45.4
3840.878	-48.4
3843.501	-44.4
3846.122	-49.4
3848.741	-47.4
3851.358	-48.4
3853.973	-45.4
3856.586	-49.4
3859.197	-55.4
3861.806	-51.4
3864.414	-48.4
3867.019	-51.4
3869.622	-46.4
3872.224	-38.4
3874.823	-28.4
3877.421	-22.4
3880.016	-9.4
3882.61	4.6
3885.202	8.6
3887.792	6.6
3890.38	-15.4
3892.966	-34.4
3895.55	-34.4
3898.132	-47.4
3900.713	-50.4
3903.291	-55.4
3905.868	-48.4
3908.442	-48.4
3911.015	-54.4
3913.586	-54.4
3916.155	-55.4
3918.722	-55.4
3921.287	-54.4
3923.85	-45.4
3926.411	-51.4
3928.971	-54.4
3931.528	-50.4
3934.084	-48.4
3936.638	-46.4
3939.19	-53.4
3941.74	-50.4
3944.288	-53.4
3946.834	-48.4
3949.378	-49.4
3951.921	-50.4
3954.462	-53.4
3957	-49.4
3959.537	-46.4
3962.072	-46.4
3964.606	-51.4
3967.137	-50.4
3969.667	-49.4
3972.194	-48.4
3974.72	-49.4
3977.244	-46.4
3979.766	-48.4
3982.286	-54.4
3984.805	-60.4
3987.321	-49.4
3989.836	-48.4
3992.349	-53.4
3994.86	-53.4
3997.369	-52.4
3999.877	-48.4
4002.382	-48.4
4004.886	-47.4
4007.388	-55.4
4009.888	-50.4
4012.386	-52.4
4014.883	-47.4
4017.377	-48.4
4019.87	-50.4
4022.361	-53.4
4024.85	-45.4
4027.338	-55.4
4029.823	-54.4
4032.307	-53.4
4034.789	-53.4
4037.269	-50.4
4039.747	-50.4
4042.224	-52.4
4044.699	-50.4
4047.172	-52.4
4049.643	-46.4
4052.112	-47.4
4054.58	-49.4
4057.046	-51.4
4059.51	-57.4
4061.972	-53.4
4064.432	-51.4
4066.891	-49.4
4069.348	-48.4
4071.803	-45.4
4074.256	-53.4
4076.708	-52.4
4079.158	-50.4
4081.606	-47.4
4084.052	-48.4
4086.497	-46.4
4088.939	-49.4
4091.38	-55.4
4093.819	-54.4
4096.257	-54.4
4098.693	-48.4
4101.127	-47.4
4103.559	-57.4
4105.989	15.6
4108.418	11.6
4110.845	11.6
4113.27	12.6
4115.694	18.6
4118.115	17.6
4120.535	-49.4
4122.954	-43.4
4125.37	-50.4
4127.785	-46.4
4130.198	-50.4
4132.609	-55.4
4135.019	-54.4
4137.427	-60.4
4139.833	-50.4
4142.237	-53.4
