Data from 2018-3-7_conc=5_n=7_RamanShift_02.txt Node
Date: Wed Mar 07 12:43:52 IST 2018
User: aro
Spectrometer: QEPB0276
Trigger mode: 0
Integration Time (sec): 3.000000E1
Scans to average: 1
Electric dark correction enabled: true
Nonlinearity correction enabled: false
Boxcar width: 0
XAxis mode: Raman Shifts
Number of Pixels in Spectrum: 1044
>>>>>Begin Spectral Data<<<<<
160.701	2.1
166.742	24.1
172.777	68.1
178.805	197.1
184.826	528.1
190.841	1149.1
196.849	1918.1
202.85	2517.1
208.845	2807.1
214.833	2803.1
220.815	2754.1
226.789	2731.1
232.758	2741.1
238.719	2745.1
244.674	2722.1
250.623	2690.1
256.565	2659.1
262.5	2602.1
268.429	2582.1
274.351	2540.1
280.267	2525.1
286.176	2492.1
292.079	2524.1
297.975	2472.1
303.865	2479.1
309.748	2471.1
315.625	2439.1
321.495	2477.1
327.359	2468.1
333.217	2438.1
339.068	2474.1
344.912	2460.1
350.751	2484.1
356.583	2462.1
362.408	2461.1
368.227	2447.1
374.04	2472.1
379.847	2486.1
385.647	2477.1
391.44	2485.1
397.228	2494.1
403.009	2532.1
408.784	2531.1
414.553	2528.1
420.315	2539.1
426.071	2542.1
431.821	2550.1
437.565	2533.1
443.302	2539.1
449.033	2518.1
454.758	2519.1
460.477	2493.1
466.189	2493.1
471.896	2488.1
477.596	2467.1
483.29	2474.1
488.978	2463.1
494.66	2462.1
500.335	2409.1
506.005	2370.1
511.668	2291.1
517.325	2250.1
522.977	2204.1
528.622	2156.1
534.261	2149.1
539.894	2127.1
545.521	2105.1
551.141	2091.1
556.756	2079.1
562.365	2084.1
567.968	2052.1
573.565	2049.1
579.155	2016.1
584.74	2012.1
590.319	2019.1
595.892	2006.1
601.459	1998.1
607.02	1982.1
612.575	1982.1
618.124	1960.1
623.667	1938.1
629.204	1933.1
634.735	1915.1
640.261	1904.1
645.781	1907.1
651.294	1894.1
656.802	1904.1
662.304	1883.1
667.8	1878.1
673.29	1879.1
678.775	1868.1
684.254	1860.1
689.726	1852.1
695.193	1838.1
700.655	1815.1
706.11	1828.1
711.56	1827.1
717.004	1813.1
722.442	1798.1
727.874	1777.1
733.301	1792.1
738.722	1783.1
744.137	1773.1
749.547	1778.1
754.951	1764.1
760.349	1788.1
765.741	1763.1
771.128	1769.1
776.509	1787.1
781.885	1795.1
787.254	1794.1
792.618	1757.1
797.977	1778.1
803.33	1758.1
808.677	1753.1
814.019	1749.1
819.355	1722.1
824.686	1689.1
830.011	1711.1
835.33	1710.1
840.644	1711.1
845.952	1696.1
851.255	1707.1
856.552	1704.1
861.844	1696.1
867.13	1681.1
872.41	1679.1
877.686	1670.1
882.955	1661.1
888.219	1636.1
893.478	1635.1
898.731	1585.1
903.979	1570.1
909.221	1565.1
914.458	1558.1
919.69	1559.1
924.916	1564.1
930.136	1572.1
935.351	1577.1
940.561	1585.1
945.766	1577.1
950.965	1558.1
956.158	1544.1
961.347	1546.1
966.529	1512.1
971.707	1488.1
976.879	1469.1
982.046	1468.1
987.208	1453.1
992.364	1446.1
997.515	1450.1
1002.66	1471.1
1007.801	1486.1
1012.936	1515.1
1018.066	1491.1
1023.19	1502.1
1028.309	1504.1
1033.423	1500.1
1038.532	1488.1
1043.636	1471.1
1048.734	1446.1
1053.827	1422.1
1058.915	1410.1
1063.998	1407.1
1069.075	1397.1
1074.147	1393.1
1079.214	1408.1
1084.276	1428.1
1089.333	1431.1
1094.385	1432.1
1099.431	1440.1
1104.472	1430.1
1109.509	1402.1
1114.54	1384.1
1119.565	1375.1
1124.586	1350.1
1129.602	1342.1
1134.613	1339.1
1139.618	1319.1
1144.619	1320.1
1149.614	1338.1
1154.604	1311.1
1159.589	1338.1
1164.57	1318.1
1169.545	1324.1
1174.515	1341.1
1179.48	1311.1
1184.44	1311.1
1189.395	1298.1
1194.345	1295.1
1199.29	1282.1
1204.23	1285.1
1209.165	1309.1
1214.095	1317.1
1219.021	1305.1
1223.941	1312.1
1228.856	1320.1
1233.766	1329.1
1238.672	1329.1
1243.572	1332.1
1248.467	1323.1
1253.358	1308.1
1258.244	1270.1
1263.124	1251.1
1268	1239.1
1272.871	1225.1
1277.737	1217.1
1282.599	1208.1
1287.455	1202.1
1292.306	1199.1
1297.153	1209.1
1301.995	1230.1
1306.832	1222.1
1311.664	1220.1
1316.491	1228.1
1321.314	1252.1
1326.132	1249.1
1330.945	1204.1
1335.753	1201.1
1340.556	1163.1
1345.354	1154.1
1350.148	1132.1
1354.937	1089.1
1359.722	1068.1
1364.501	1026.1
1369.276	1034.1
1374.046	993.1
1378.811	977.1
1383.572	987.1
1388.327	971.1
1393.079	982.1
1397.825	987.1
1402.567	997.1
1407.304	1012.1
1412.036	1008.1
1416.764	993.1
1421.487	1007.1
1426.205	1003.1
1430.919	1012.1
1435.628	1019.1
1440.333	1039.1
1445.032	1051.1
1449.727	1054.1
1454.418	1053.1
1459.104	1037.1
1463.785	1010.1
1468.462	999.1
1473.134	988.1
1477.802	958.1
1482.465	933.1
1487.123	911.1
1491.777	883.1
1496.426	890.1
1501.071	873.1
1505.711	864.1
1510.347	857.1
1514.978	838.1
1519.604	843.1
1524.226	818.1
1528.844	822.1
1533.457	817.1
1538.065	826.1
1542.669	820.1
1547.269	806.1
1551.864	836.1
1556.454	838.1
1561.041	853.1
1565.622	868.1
1570.199	871.1
1574.772	859.1
1579.34	892.1
1583.904	898.1
1588.464	914.1
1593.019	925.1
1597.569	928.1
1602.115	913.1
1606.657	906.1
1611.195	900.1
1615.728	908.1
1620.256	894.1
1624.78	912.1
1629.3	903.1
1633.816	911.1
1638.327	920.1
1642.834	914.1
1647.336	902.1
1651.834	904.1
1656.328	926.1
1660.817	922.1
1665.302	896.1
1669.783	874.1
1674.259	849.1
1678.732	831.1
1683.199	804.1
1687.663	775.1
1692.122	731.1
1696.577	698.1
1701.028	653.1
1705.474	618.1
1709.917	601.1
1714.355	581.1
1718.788	568.1
1723.218	593.1
1727.643	586.1
1732.064	592.1
1736.481	588.1
1740.893	568.1
1745.301	562.1
1749.705	557.1
1754.105	543.1
1758.501	533.1
1762.893	521.1
1767.28	516.1
1771.663	508.1
1776.042	506.1
1780.417	481.1
1784.787	479.1
1789.154	470.1
1793.516	453.1
1797.874	445.1
1802.228	441.1
1806.578	422.1
1810.924	428.1
1815.266	421.1
1819.603	427.1
1823.937	430.1
1828.266	425.1
1832.591	439.1
1836.913	446.1
1841.23	450.1
1845.543	430.1
1849.852	456.1
1854.156	468.1
1858.457	453.1
1862.754	458.1
1867.047	452.1
1871.335	451.1
1875.62	460.1
1879.9	458.1
1884.177	441.1
1888.449	441.1
1892.718	438.1
1896.982	417.1
1901.243	401.1
1905.499	399.1
1909.752	395.1
1914	395.1
1918.245	374.1
1922.485	374.1
1926.722	360.1
1930.954	359.1
1935.183	356.1
1939.408	361.1
1943.628	344.1
1947.845	347.1
1952.058	341.1
1956.267	340.1
1960.472	344.1
1964.673	324.1
1968.87	333.1
1973.063	332.1
1977.252	339.1
1981.438	333.1
1985.619	329.1
1989.797	339.1
1993.971	344.1
1998.14	348.1
2002.306	353.1
2006.469	348.1
2010.627	351.1
2014.781	347.1
2018.932	348.1
2023.078	347.1
2027.221	342.1
2031.36	346.1
2035.495	339.1
2039.627	320.1
2043.754	331.1
2047.878	325.1
2051.998	329.1
2056.114	314.1
2060.226	315.1
2064.334	312.1
2068.439	308.1
2072.54	314.1
2076.637	315.1
2080.73	302.1
2084.82	298.1
2088.906	293.1
2092.988	298.1
2097.066	287.1
2101.14	289.1
2105.211	281.1
2109.278	279.1
2113.342	266.1
2117.401	263.1
2121.457	261.1
2125.509	271.1
2129.558	261.1
2133.602	264.1
2137.643	265.1
2141.681	261.1
2145.714	264.1
2149.744	261.1
2153.77	282.1
2157.793	269.1
2161.812	272.1
2165.827	272.1
2169.838	262.1
2173.846	264.1
2177.851	257.1
2181.851	264.1
2185.848	257.1
2189.841	254.1
2193.831	259.1
2197.817	248.1
2201.799	260.1
2205.778	251.1
2209.753	258.1
2213.725	247.1
2217.693	251.1
2221.657	248.1
2225.618	245.1
2229.575	237.1
2233.529	238.1
2237.479	236.1
2241.425	234.1
2245.368	237.1
2249.307	226.1
2253.243	224.1
2257.175	228.1
2261.104	215.1
2265.029	217.1
2268.95	219.1
2272.868	213.1
2276.783	216.1
2280.694	212.1
2284.601	198.1
2288.505	216.1
2292.405	217.1
2296.302	216.1
2300.195	204.1
2304.085	197.1
2307.971	195.1
2311.854	193.1
2315.734	182.1
2319.609	196.1
2323.482	195.1
2327.351	189.1
2331.216	195.1
2335.078	205.1
2338.937	201.1
2342.792	185.1
2346.643	187.1
2350.492	193.1
2354.336	196.1
2358.178	188.1
2362.015	190.1
2365.85	185.1
2369.681	198.1
2373.508	195.1
2377.333	200.1
2381.153	198.1
2384.971	192.1
2388.785	187.1
2392.595	187.1
2396.402	191.1
2400.206	192.1
2404.007	185.1
2407.804	180.1
2411.597	194.1
2415.388	189.1
2419.174	190.1
2422.958	184.1
2426.738	186.1
2430.515	189.1
2434.289	183.1
2438.059	182.1
2441.825	177.1
2445.589	179.1
2449.349	175.1
2453.106	179.1
2456.859	169.1
2460.61	175.1
2464.356	159.1
2468.1	164.1
2471.84	154.1
2475.577	156.1
2479.311	156.1
2483.041	158.1
2486.768	150.1
2490.492	151.1
2494.213	153.1
2497.93	155.1
2501.644	159.1
2505.355	149.1
2509.062	153.1
2512.766	152.1
2516.467	145.1
2520.165	144.1
2523.859	147.1
2527.551	133.1
2531.239	132.1
2534.923	138.1
2538.605	131.1
2542.283	122.1
2545.958	130.1
2549.63	122.1
2553.299	119.1
2556.964	111.1
2560.626	119.1
2564.285	115.1
2567.941	110.1
2571.594	111.1
2575.243	114.1
2578.89	107.1
2582.533	113.1
2586.173	114.1
2589.809	114.1
2593.443	113.1
2597.073	104.1
2600.701	107.1
2604.325	99.1
2607.946	92.1
2611.564	99.1
2615.178	106.1
2618.79	105.1
2622.398	104.1
2626.004	101.1
2629.606	92.1
2633.205	100.1
2636.801	98.1
2640.394	98.1
2643.983	88.1
2647.57	100.1
2651.153	84.1
2654.734	95.1
2658.311	91.1
2661.885	95.1
2665.456	99.1
2669.025	95.1
2672.589	86.1
2676.151	91.1
2679.71	83.1
2683.266	85.1
2686.819	89.1
2690.368	81.1
2693.915	80.1
2697.458	76.1
2700.999	82.1
2704.536	77.1
2708.071	79.1
2711.602	68.1
2715.13	71.1
2718.656	62.1
2722.178	62.1
2725.697	69.1
2729.214	66.1
2732.727	68.1
2736.237	64.1
2739.744	62.1
2743.249	64.1
2746.75	63.1
2750.248	52.1
2753.743	51.1
2757.236	49.1
2760.725	53.1
2764.211	46.1
2767.695	45.1
2771.175	41.1
2774.652	42.1
2778.127	41.1
2781.598	39.1
2785.067	43.1
2788.532	45.1
2791.995	50.1
2795.455	39.1
2798.911	50.1
2802.365	51.1
2805.816	50.1
2809.264	45.1
2812.709	44.1
2816.151	49.1
2819.59	54.1
2823.026	53.1
2826.46	50.1
2829.89	49.1
2833.318	53.1
2836.742	52.1
2840.164	55.1
2843.583	50.1
2846.999	53.1
2850.412	49.1
2853.822	54.1
2857.229	60.1
2860.634	55.1
2864.035	54.1
2867.434	58.1
2870.83	63.1
2874.223	66.1
2877.613	64.1
2881	73.1
2884.385	71.1
2887.766	71.1
2891.145	67.1
2894.521	68.1
2897.894	69.1
2901.264	64.1
2904.631	64.1
2907.996	71.1
2911.358	81.1
2914.717	77.1
2918.073	76.1
2921.426	83.1
2924.777	91.1
2928.124	82.1
2931.469	83.1
2934.811	95.1
2938.15	90.1
2941.487	99.1
2944.821	101.1
2948.152	96.1
2951.48	92.1
2954.805	93.1
2958.128	87.1
2961.447	98.1
2964.765	91.1
2968.079	86.1
2971.39	88.1
2974.699	86.1
2978.005	98.1
2981.308	88.1
2984.609	90.1
2987.907	93.1
2991.202	93.1
2994.494	85.1
2997.784	85.1
3001.07	89.1
3004.355	90.1
3007.636	93.1
3010.915	99.1
3014.191	86.1
3017.464	97.1
3020.734	96.1
3024.002	94.1
3027.267	99.1
3030.53	108.1
3033.789	104.1
3037.046	112.1
3040.301	113.1
3043.552	120.1
3046.801	124.1
3050.048	130.1
3053.291	127.1
3056.532	144.1
3059.771	141.1
3063.006	147.1
3066.239	146.1
3069.469	169.1
3072.697	165.1
3075.922	167.1
3079.144	168.1
3082.364	166.1
3085.581	176.1
3088.795	190.1
3092.007	189.1
3095.216	193.1
3098.423	187.1
3101.627	191.1
3104.828	197.1
3108.026	208.1
3111.222	212.1
3114.416	217.1
3117.607	219.1
3120.795	221.1
3123.98	228.1
3127.163	242.1
3130.344	243.1
3133.521	248.1
3136.696	253.1
3139.869	258.1
3143.039	260.1
3146.206	274.1
3149.371	266.1
3152.533	275.1
3155.693	273.1
3158.85	267.1
3162.005	278.1
3165.157	278.1
3168.306	273.1
3171.453	277.1
3174.597	279.1
3177.739	280.1
3180.878	280.1
3184.014	276.1
3187.149	273.1
3190.28	292.1
3193.409	282.1
3196.536	292.1
3199.659	299.1
3202.781	292.1
3205.9	294.1
3209.016	288.1
3212.13	293.1
3215.241	289.1
3218.35	288.1
3221.456	286.1
3224.56	275.1
3227.661	267.1
3230.76	274.1
3233.856	256.1
3236.95	247.1
3240.041	250.1
3243.13	255.1
3246.216	243.1
3249.3	232.1
3252.382	243.1
3255.46	237.1
3258.537	229.1
3261.611	229.1
3264.682	221.1
3267.751	230.1
3270.818	224.1
3273.882	221.1
3276.943	229.1
3280.002	225.1
3283.059	217.1
3286.113	214.1
3289.165	212.1
3292.214	212.1
3295.261	213.1
3298.306	207.1
3301.348	209.1
3304.387	202.1
3307.425	201.1
3310.459	198.1
3313.492	203.1
3316.521	204.1
3319.549	211.1
3322.574	204.1
3325.597	207.1
3328.617	205.1
3331.635	206.1
3334.65	205.1
3337.663	197.1
3340.674	203.1
3343.682	201.1
3346.688	198.1
3349.691	196.1
3352.692	198.1
3355.691	207.1
3358.687	201.1
3361.681	195.1
3364.673	194.1
3367.662	194.1
3370.649	185.1
3373.633	185.1
3376.615	187.1
3379.595	178.1
3382.572	167.1
3385.547	175.1
3388.52	173.1
3391.49	164.1
3394.458	165.1
3397.424	162.1
3400.387	164.1
3403.348	153.1
3406.307	157.1
3409.263	150.1
3412.217	151.1
3415.168	153.1
3418.118	145.1
3421.065	141.1
3424.009	141.1
3426.951	135.1
3429.891	130.1
3432.829	133.1
3435.764	138.1
3438.697	127.1
3441.628	113.1
3444.557	119.1
3447.483	118.1
3450.407	100.1
3453.328	108.1
3456.247	93.1
3459.164	93.1
3462.079	94.1
3464.991	86.1
3467.902	77.1
3470.809	78.1
3473.715	69.1
3476.618	60.1
3479.519	59.1
3482.418	56.1
3485.315	60.1
3488.209	52.1
3491.101	45.1
3493.99	48.1
3496.878	38.1
3499.763	34.1
3502.646	33.1
3505.527	31.1
3508.405	32.1
3511.281	29.1
3514.155	31.1
3517.027	16.1
3519.897	20.1
3522.764	15.1
3525.629	19.1
3528.492	6.1
3531.352	12.1
3534.211	0.1
3537.067	1.1
3539.921	4.1
3542.773	-7.9
3545.622	0.1
3548.469	-6.9
3551.315	-9.9
3554.157	-10.9
3556.998	-13.9
3559.837	-19.9
3562.673	-16.9
3565.507	-9.9
3568.339	-14.9
3571.169	-18.9
3573.996	-15.9
3576.822	-27.9
3579.645	-26.9
3582.466	-22.9
3585.285	-24.9
3588.101	-29.9
3590.916	-25.9
3593.728	-32.9
3596.538	-31.9
3599.346	-33.9
3602.152	-35.9
3604.956	-38.9
3607.757	-30.9
3610.556	-35.9
3613.354	-41.9
3616.149	-42.9
3618.942	-40.9
3621.732	-38.9
3624.521	-38.9
3627.307	-42.9
3630.092	-41.9
3632.874	-48.9
3635.654	-45.9
3638.432	-40.9
3641.208	-45.9
3643.982	-44.9
3646.753	-50.9
3649.523	-42.9
3652.29	-44.9
3655.055	-47.9
3657.818	-55.9
3660.579	-50.9
3663.338	-49.9
3666.095	-53.9
3668.849	-54.9
3671.602	-54.9
3674.352	-52.9
3677.101	-55.9
3679.847	-54.9
3682.591	-56.9
3685.333	-50.9
3688.073	-56.9
3690.811	-56.9
3693.547	-57.9
3696.281	-49.9
3699.013	-54.9
3701.742	-57.9
3704.47	-50.9
3707.195	-57.9
3709.919	-56.9
3712.64	-57.9
3715.359	-58.9
3718.076	-61.9
3720.792	-64.9
3723.505	-63.9
3726.216	-57.9
3728.925	-68.9
3731.632	-59.9
3734.336	-61.9
3737.039	-53.9
3739.74	-58.9
3742.439	-64.9
3745.136	-61.9
3747.83	-58.9
3750.523	-61.9
3753.213	-61.9
3755.902	-61.9
3758.589	-63.9
3761.273	-61.9
3763.956	-65.9
3766.636	-57.9
3769.315	-58.9
3771.991	-64.9
3774.665	-63.9
3777.338	-64.9
3780.008	-64.9
3782.677	-71.9
3785.343	-63.9
3788.007	-67.9
3790.67	-65.9
3793.33	-62.9
3795.989	-65.9
3798.645	-63.9
3801.299	-68.9
3803.952	-63.9
3806.602	-63.9
3809.251	-67.9
3811.897	-65.9
3814.542	-68.9
3817.184	-65.9
3819.825	-63.9
3822.463	-62.9
3825.1	-63.9
3827.735	-71.9
3830.367	-66.9
3832.998	-70.9
3835.627	-66.9
3838.253	-62.9
3840.878	-65.9
3843.501	-61.9
3846.122	-70.9
3848.741	-68.9
3851.358	-66.9
3853.973	-60.9
3856.586	-64.9
3859.197	-58.9
3861.806	-67.9
3864.414	-62.9
3867.019	-64.9
3869.622	-59.9
3872.224	-55.9
3874.823	-43.9
3877.421	-41.9
3880.016	-27.9
3882.61	-10.9
3885.202	-21.9
3887.792	-17.9
3890.38	-38.9
3892.966	-52.9
3895.55	-71.9
3898.132	-64.9
3900.713	-70.9
3903.291	-72.9
3905.868	-64.9
3908.442	-64.9
3911.015	-64.9
3913.586	-68.9
3916.155	-62.9
3918.722	-68.9
3921.287	-66.9
3923.85	-57.9
3926.411	-71.9
3928.971	-75.9
3931.528	-65.9
3934.084	-65.9
3936.638	-64.9
3939.19	-72.9
3941.74	-67.9
3944.288	-67.9
3946.834	-65.9
3949.378	-74.9
3951.921	-64.9
3954.462	-71.9
3957	-65.9
3959.537	-60.9
3962.072	-64.9
3964.606	-63.9
3967.137	-62.9
3969.667	-66.9
3972.194	-64.9
3974.72	-64.9
3977.244	-58.9
3979.766	-65.9
3982.286	-62.9
3984.805	-70.9
3987.321	-62.9
3989.836	-60.9
3992.349	-66.9
3994.86	-66.9
3997.369	-69.9
3999.877	-64.9
4002.382	-62.9
4004.886	-65.9
4007.388	-69.9
4009.888	-66.9
4012.386	-71.9
4014.883	-63.9
4017.377	-62.9
4019.87	-66.9
4022.361	-72.9
4024.85	-66.9
4027.338	-66.9
4029.823	-69.9
4032.307	-65.9
4034.789	-61.9
4037.269	-64.9
4039.747	-63.9
4042.224	-69.9
4044.699	-65.9
4047.172	-68.9
4049.643	-66.9
4052.112	-67.9
4054.58	-67.9
4057.046	-60.9
4059.51	-67.9
4061.972	-70.9
4064.432	-67.9
4066.891	-63.9
4069.348	-62.9
4071.803	-59.9
4074.256	-61.9
4076.708	-67.9
4079.158	-72.9
4081.606	-67.9
4084.052	-65.9
4086.497	-61.9
4088.939	-58.9
4091.38	-67.9
4093.819	-70.9
4096.257	-68.9
4098.693	-69.9
4101.127	-65.9
4103.559	-71.9
4105.989	3.1
4108.418	-6.9
4110.845	-8.9
4113.27	-7.9
4115.694	3.1
4118.115	0.1
4120.535	-65.9
4122.954	-62.9
4125.37	-62.9
4127.785	-62.9
4130.198	-66.9
4132.609	-66.9
4135.019	-72.9
4137.427	-75.9
4139.833	-69.9
4142.237	-72.9
