Data from 2018-3-7_conc=4_n=8_RamanShift_04.txt Node
Date: Wed Mar 07 12:13:52 IST 2018
User: aro
Spectrometer: QEPB0276
Trigger mode: 0
Integration Time (sec): 3.000000E1
Scans to average: 1
Electric dark correction enabled: true
Nonlinearity correction enabled: false
Boxcar width: 0
XAxis mode: Raman Shifts
Number of Pixels in Spectrum: 1044
>>>>>Begin Spectral Data<<<<<
160.701	7.2
166.742	17.2
172.777	49.2
178.805	154.2
184.826	390.2
190.841	826.2
196.849	1357.2
202.85	1806.2
208.845	1984.2
214.833	1964.2
220.815	1962.2
226.789	1933.2
232.758	1959.2
238.719	1963.2
244.674	1945.2
250.623	1918.2
256.565	1908.2
262.5	1851.2
268.429	1856.2
274.351	1829.2
280.267	1829.2
286.176	1830.2
292.079	1832.2
297.975	1838.2
303.865	1831.2
309.748	1818.2
315.625	1823.2
321.495	1809.2
327.359	1815.2
333.217	1819.2
339.068	1827.2
344.912	1809.2
350.751	1828.2
356.583	1838.2
362.408	1830.2
368.227	1845.2
374.04	1834.2
379.847	1845.2
385.647	1852.2
391.44	1848.2
397.228	1853.2
403.009	1872.2
408.784	1900.2
414.553	1894.2
420.315	1879.2
426.071	1897.2
431.821	1895.2
437.565	1896.2
443.302	1893.2
449.033	1883.2
454.758	1879.2
460.477	1883.2
466.189	1872.2
471.896	1838.2
477.596	1819.2
483.29	1816.2
488.978	1811.2
494.66	1819.2
500.335	1759.2
506.005	1713.2
511.668	1650.2
517.325	1590.2
522.977	1554.2
528.622	1532.2
534.261	1507.2
539.894	1483.2
545.521	1463.2
551.141	1445.2
556.756	1454.2
562.365	1435.2
567.968	1425.2
573.565	1416.2
579.155	1417.2
584.74	1395.2
590.319	1397.2
595.892	1403.2
601.459	1391.2
607.02	1382.2
612.575	1387.2
618.124	1372.2
623.667	1356.2
629.204	1317.2
634.735	1310.2
640.261	1313.2
645.781	1309.2
651.294	1303.2
656.802	1287.2
662.304	1289.2
667.8	1285.2
673.29	1289.2
678.775	1273.2
684.254	1296.2
689.726	1272.2
695.193	1254.2
700.655	1264.2
706.11	1242.2
711.56	1241.2
717.004	1241.2
722.442	1222.2
727.874	1210.2
733.301	1227.2
738.722	1212.2
744.137	1212.2
749.547	1210.2
754.951	1201.2
760.349	1203.2
765.741	1208.2
771.128	1212.2
776.509	1223.2
781.885	1247.2
787.254	1235.2
792.618	1239.2
797.977	1223.2
803.33	1239.2
808.677	1215.2
814.019	1209.2
819.355	1201.2
824.686	1188.2
830.011	1183.2
835.33	1187.2
840.644	1171.2
845.952	1161.2
851.255	1190.2
856.552	1163.2
861.844	1148.2
867.13	1151.2
872.41	1161.2
877.686	1138.2
882.955	1132.2
888.219	1110.2
893.478	1114.2
898.731	1088.2
903.979	1081.2
909.221	1069.2
914.458	1050.2
919.69	1059.2
924.916	1066.2
930.136	1049.2
935.351	1059.2
940.561	1076.2
945.766	1076.2
950.965	1052.2
956.158	1055.2
961.347	1046.2
966.529	1042.2
971.707	1002.2
976.879	993.2
982.046	983.2
987.208	991.2
992.364	980.2
997.515	991.2
1002.66	996.2
1007.801	997.2
1012.936	1008.2
1018.066	1026.2
1023.19	1014.2
1028.309	1020.2
1033.423	1032.2
1038.532	1002.2
1043.636	986.2
1048.734	992.2
1053.827	980.2
1058.915	969.2
1063.998	956.2
1069.075	955.2
1074.147	972.2
1079.214	957.2
1084.276	968.2
1089.333	972.2
1094.385	972.2
1099.431	963.2
1104.472	966.2
1109.509	965.2
1114.54	937.2
1119.565	927.2
1124.586	923.2
1129.602	915.2
1134.613	900.2
1139.618	897.2
1144.619	886.2
1149.614	906.2
1154.604	885.2
1159.589	905.2
1164.57	899.2
1169.545	900.2
1174.515	917.2
1179.48	893.2
1184.44	895.2
1189.395	887.2
1194.345	891.2
1199.29	866.2
1204.23	886.2
1209.165	877.2
1214.095	889.2
1219.021	884.2
1223.941	893.2
1228.856	883.2
1233.766	899.2
1238.672	898.2
1243.572	902.2
1248.467	890.2
1253.358	890.2
1258.244	876.2
1263.124	845.2
1268	844.2
1272.871	821.2
1277.737	824.2
1282.599	814.2
1287.455	812.2
1292.306	817.2
1297.153	818.2
1301.995	832.2
1306.832	825.2
1311.664	827.2
1316.491	834.2
1321.314	827.2
1326.132	812.2
1330.945	820.2
1335.753	796.2
1340.556	796.2
1345.354	766.2
1350.148	756.2
1354.937	729.2
1359.722	711.2
1364.501	716.2
1369.276	701.2
1374.046	690.2
1378.811	665.2
1383.572	675.2
1388.327	670.2
1393.079	664.2
1397.825	674.2
1402.567	686.2
1407.304	691.2
1412.036	691.2
1416.764	687.2
1421.487	687.2
1426.205	695.2
1430.919	695.2
1435.628	693.2
1440.333	696.2
1445.032	696.2
1449.727	709.2
1454.418	707.2
1459.104	699.2
1463.785	685.2
1468.462	683.2
1473.134	669.2
1477.802	643.2
1482.465	624.2
1487.123	620.2
1491.777	598.2
1496.426	592.2
1501.071	590.2
1505.711	592.2
1510.347	585.2
1514.978	576.2
1519.604	565.2
1524.226	577.2
1528.844	567.2
1533.457	562.2
1538.065	558.2
1542.669	554.2
1547.269	555.2
1551.864	568.2
1556.454	575.2
1561.041	583.2
1565.622	589.2
1570.199	577.2
1574.772	586.2
1579.34	607.2
1583.904	609.2
1588.464	618.2
1593.019	617.2
1597.569	618.2
1602.115	621.2
1606.657	628.2
1611.195	613.2
1615.728	622.2
1620.256	602.2
1624.78	607.2
1629.3	611.2
1633.816	603.2
1638.327	617.2
1642.834	610.2
1647.336	606.2
1651.834	607.2
1656.328	613.2
1660.817	596.2
1665.302	599.2
1669.783	585.2
1674.259	584.2
1678.732	565.2
1683.199	530.2
1687.663	518.2
1692.122	490.2
1696.577	479.2
1701.028	456.2
1705.474	421.2
1709.917	418.2
1714.355	408.2
1718.788	404.2
1723.218	405.2
1727.643	404.2
1732.064	399.2
1736.481	405.2
1740.893	395.2
1745.301	383.2
1749.705	386.2
1754.105	375.2
1758.501	362.2
1762.893	365.2
1767.28	357.2
1771.663	350.2
1776.042	349.2
1780.417	327.2
1784.787	334.2
1789.154	318.2
1793.516	305.2
1797.874	304.2
1802.228	308.2
1806.578	299.2
1810.924	296.2
1815.266	295.2
1819.603	302.2
1823.937	300.2
1828.266	302.2
1832.591	303.2
1836.913	298.2
1841.23	310.2
1845.543	309.2
1849.852	314.2
1854.156	317.2
1858.457	309.2
1862.754	311.2
1867.047	313.2
1871.335	303.2
1875.62	303.2
1879.9	312.2
1884.177	293.2
1888.449	299.2
1892.718	298.2
1896.982	280.2
1901.243	283.2
1905.499	282.2
1909.752	264.2
1914	271.2
1918.245	260.2
1922.485	257.2
1926.722	260.2
1930.954	247.2
1935.183	251.2
1939.408	252.2
1943.628	242.2
1947.845	243.2
1952.058	242.2
1956.267	237.2
1960.472	238.2
1964.673	234.2
1968.87	223.2
1973.063	230.2
1977.252	228.2
1981.438	230.2
1985.619	233.2
1989.797	234.2
1993.971	241.2
1998.14	238.2
2002.306	231.2
2006.469	243.2
2010.627	238.2
2014.781	242.2
2018.932	237.2
2023.078	236.2
2027.221	224.2
2031.36	228.2
2035.495	226.2
2039.627	214.2
2043.754	217.2
2047.878	211.2
2051.998	227.2
2056.114	218.2
2060.226	216.2
2064.334	210.2
2068.439	211.2
2072.54	209.2
2076.637	205.2
2080.73	210.2
2084.82	203.2
2088.906	199.2
2092.988	203.2
2097.066	191.2
2101.14	193.2
2105.211	188.2
2109.278	186.2
2113.342	174.2
2117.401	176.2
2121.457	184.2
2125.509	176.2
2129.558	177.2
2133.602	187.2
2137.643	184.2
2141.681	176.2
2145.714	183.2
2149.744	182.2
2153.77	186.2
2157.793	190.2
2161.812	186.2
2165.827	182.2
2169.838	172.2
2173.846	174.2
2177.851	169.2
2181.851	167.2
2185.848	175.2
2189.841	172.2
2193.831	169.2
2197.817	170.2
2201.799	170.2
2205.778	169.2
2209.753	173.2
2213.725	165.2
2217.693	165.2
2221.657	167.2
2225.618	162.2
2229.575	159.2
2233.529	164.2
2237.479	158.2
2241.425	150.2
2245.368	160.2
2249.307	160.2
2253.243	143.2
2257.175	151.2
2261.104	140.2
2265.029	142.2
2268.95	146.2
2272.868	146.2
2276.783	133.2
2280.694	134.2
2284.601	130.2
2288.505	137.2
2292.405	141.2
2296.302	138.2
2300.195	127.2
2304.085	127.2
2307.971	134.2
2311.854	120.2
2315.734	122.2
2319.609	132.2
2323.482	125.2
2327.351	130.2
2331.216	138.2
2335.078	155.2
2338.937	134.2
2342.792	132.2
2346.643	132.2
2350.492	131.2
2354.336	122.2
2358.178	122.2
2362.015	129.2
2365.85	121.2
2369.681	126.2
2373.508	134.2
2377.333	132.2
2381.153	125.2
2384.971	123.2
2388.785	125.2
2392.595	131.2
2396.402	127.2
2400.206	129.2
2404.007	123.2
2407.804	125.2
2411.597	118.2
2415.388	123.2
2419.174	129.2
2422.958	114.2
2426.738	119.2
2430.515	108.2
2434.289	116.2
2438.059	109.2
2441.825	118.2
2445.589	114.2
2449.349	107.2
2453.106	119.2
2456.859	109.2
2460.61	113.2
2464.356	109.2
2468.1	104.2
2471.84	105.2
2475.577	99.2
2479.311	100.2
2483.041	103.2
2486.768	103.2
2490.492	106.2
2494.213	93.2
2497.93	99.2
2501.644	102.2
2505.355	90.2
2509.062	99.2
2512.766	98.2
2516.467	92.2
2520.165	93.2
2523.859	95.2
2527.551	84.2
2531.239	85.2
2534.923	84.2
2538.605	81.2
2542.283	88.2
2545.958	81.2
2549.63	90.2
2553.299	83.2
2556.964	78.2
2560.626	82.2
2564.285	74.2
2567.941	70.2
2571.594	70.2
2575.243	72.2
2578.89	70.2
2582.533	70.2
2586.173	68.2
2589.809	73.2
2593.443	71.2
2597.073	75.2
2600.701	74.2
2604.325	64.2
2607.946	63.2
2611.564	73.2
2615.178	62.2
2618.79	66.2
2622.398	64.2
2626.004	61.2
2629.606	55.2
2633.205	60.2
2636.801	57.2
2640.394	65.2
2643.983	57.2
2647.57	58.2
2651.153	47.2
2654.734	49.2
2658.311	57.2
2661.885	58.2
2665.456	54.2
2669.025	60.2
2672.589	53.2
2676.151	59.2
2679.71	49.2
2683.266	52.2
2686.819	53.2
2690.368	51.2
2693.915	49.2
2697.458	45.2
2700.999	49.2
2704.536	49.2
2708.071	41.2
2711.602	44.2
2715.13	41.2
2718.656	41.2
2722.178	38.2
2725.697	38.2
2729.214	39.2
2732.727	42.2
2736.237	44.2
2739.744	36.2
2743.249	39.2
2746.75	35.2
2750.248	26.2
2753.743	29.2
2757.236	23.2
2760.725	29.2
2764.211	25.2
2767.695	22.2
2771.175	26.2
2774.652	20.2
2778.127	28.2
2781.598	23.2
2785.067	23.2
2788.532	21.2
2791.995	29.2
2795.455	27.2
2798.911	26.2
2802.365	28.2
2805.816	27.2
2809.264	29.2
2812.709	30.2
2816.151	32.2
2819.59	38.2
2823.026	26.2
2826.46	31.2
2829.89	30.2
2833.318	23.2
2836.742	31.2
2840.164	25.2
2843.583	25.2
2846.999	25.2
2850.412	26.2
2853.822	28.2
2857.229	33.2
2860.634	24.2
2864.035	27.2
2867.434	34.2
2870.83	35.2
2874.223	40.2
2877.613	33.2
2881	40.2
2884.385	39.2
2887.766	48.2
2891.145	43.2
2894.521	38.2
2897.894	41.2
2901.264	41.2
2904.631	33.2
2907.996	34.2
2911.358	47.2
2914.717	41.2
2918.073	44.2
2921.426	43.2
2924.777	47.2
2928.124	49.2
2931.469	49.2
2934.811	55.2
2938.15	61.2
2941.487	68.2
2944.821	58.2
2948.152	67.2
2951.48	59.2
2954.805	58.2
2958.128	54.2
2961.447	60.2
2964.765	47.2
2968.079	47.2
2971.39	51.2
2974.699	48.2
2978.005	46.2
2981.308	53.2
2984.609	47.2
2987.907	46.2
2991.202	51.2
2994.494	51.2
2997.784	50.2
3001.07	56.2
3004.355	54.2
3007.636	58.2
3010.915	62.2
3014.191	51.2
3017.464	62.2
3020.734	56.2
3024.002	62.2
3027.267	57.2
3030.53	59.2
3033.789	68.2
3037.046	68.2
3040.301	60.2
3043.552	60.2
3046.801	74.2
3050.048	73.2
3053.291	71.2
3056.532	79.2
3059.771	80.2
3063.006	84.2
3066.239	95.2
3069.469	102.2
3072.697	92.2
3075.922	106.2
3079.144	99.2
3082.364	111.2
3085.581	109.2
3088.795	113.2
3092.007	114.2
3095.216	116.2
3098.423	113.2
3101.627	108.2
3104.828	128.2
3108.026	126.2
3111.222	130.2
3114.416	133.2
3117.607	140.2
3120.795	135.2
3123.98	140.2
3127.163	153.2
3130.344	147.2
3133.521	156.2
3136.696	152.2
3139.869	155.2
3143.039	152.2
3146.206	165.2
3149.371	160.2
3152.533	165.2
3155.693	168.2
3158.85	182.2
3162.005	170.2
3165.157	181.2
3168.306	180.2
3171.453	175.2
3174.597	176.2
3177.739	173.2
3180.878	173.2
3184.014	172.2
3187.149	173.2
3190.28	175.2
3193.409	179.2
3196.536	173.2
3199.659	180.2
3202.781	177.2
3205.9	179.2
3209.016	174.2
3212.13	180.2
3215.241	175.2
3218.35	177.2
3221.456	178.2
3224.56	177.2
3227.661	161.2
3230.76	165.2
3233.856	167.2
3236.95	159.2
3240.041	144.2
3243.13	154.2
3246.216	154.2
3249.3	140.2
3252.382	142.2
3255.46	146.2
3258.537	141.2
3261.611	133.2
3264.682	138.2
3267.751	143.2
3270.818	128.2
3273.882	136.2
3276.943	129.2
3280.002	132.2
3283.059	136.2
3286.113	126.2
3289.165	126.2
3292.214	126.2
3295.261	126.2
3298.306	125.2
3301.348	124.2
3304.387	122.2
3307.425	121.2
3310.459	117.2
3313.492	120.2
3316.521	116.2
3319.549	123.2
3322.574	120.2
3325.597	119.2
3328.617	114.2
3331.635	125.2
3334.65	125.2
3337.663	107.2
3340.674	122.2
3343.682	126.2
3346.688	115.2
3349.691	115.2
3352.692	119.2
3355.691	119.2
3358.687	122.2
3361.681	112.2
3364.673	112.2
3367.662	117.2
3370.649	109.2
3373.633	111.2
3376.615	107.2
3379.595	106.2
3382.572	105.2
3385.547	110.2
3388.52	104.2
3391.49	100.2
3394.458	89.2
3397.424	94.2
3400.387	91.2
3403.348	83.2
3406.307	84.2
3409.263	90.2
3412.217	89.2
3415.168	92.2
3418.118	80.2
3421.065	80.2
3424.009	82.2
3426.951	79.2
3429.891	78.2
3432.829	74.2
3435.764	80.2
3438.697	80.2
3441.628	64.2
3444.557	68.2
3447.483	60.2
3450.407	57.2
3453.328	61.2
3456.247	57.2
3459.164	49.2
3462.079	45.2
3464.991	40.2
3467.902	39.2
3470.809	32.2
3473.715	33.2
3476.618	32.2
3479.519	24.2
3482.418	26.2
3485.315	29.2
3488.209	18.2
3491.101	24.2
3493.99	24.2
3496.878	13.2
3499.763	11.2
3502.646	18.2
3505.527	12.2
3508.405	8.2
3511.281	9.2
3514.155	2.2
3517.027	-2.8
3519.897	7.2
3522.764	-2.8
3525.629	-2.8
3528.492	-8.8
3531.352	-9.8
3534.211	-8.8
3537.067	-8.8
3539.921	-9.8
3542.773	-13.8
3545.622	-7.8
3548.469	-13.8
3551.315	-7.8
3554.157	-17.8
3556.998	-18.8
3559.837	-23.8
3562.673	-18.8
3565.507	-18.8
3568.339	-20.8
3571.169	-30.8
3573.996	-20.8
3576.822	-29.8
3579.645	-32.8
3582.466	-26.8
3585.285	-29.8
3588.101	-27.8
3590.916	-23.8
3593.728	-30.8
3596.538	-29.8
3599.346	-30.8
3602.152	-26.8
3604.956	-34.8
3607.757	-27.8
3610.556	-27.8
3613.354	-40.8
3616.149	-37.8
3618.942	-31.8
3621.732	-35.8
3624.521	-31.8
3627.307	-39.8
3630.092	-33.8
3632.874	-45.8
3635.654	-44.8
3638.432	-39.8
3641.208	-38.8
3643.982	-42.8
3646.753	-49.8
3649.523	-37.8
3652.29	-46.8
3655.055	-38.8
3657.818	-42.8
3660.579	-43.8
3663.338	-35.8
3666.095	-43.8
3668.849	-42.8
3671.602	-45.8
3674.352	-46.8
3677.101	-38.8
3679.847	-43.8
3682.591	-43.8
3685.333	-47.8
3688.073	-50.8
3690.811	-46.8
3693.547	-52.8
3696.281	-48.8
3699.013	-50.8
3701.742	-53.8
3704.47	-41.8
3707.195	-50.8
3709.919	-51.8
3712.64	-49.8
3715.359	-48.8
3718.076	-50.8
3720.792	-50.8
3723.505	-49.8
3726.216	-43.8
3728.925	-54.8
3731.632	-52.8
3734.336	-50.8
3737.039	-51.8
3739.74	-53.8
3742.439	-59.8
3745.136	-53.8
3747.83	-55.8
3750.523	-56.8
3753.213	-53.8
3755.902	-47.8
3758.589	-54.8
3761.273	-51.8
3763.956	-53.8
3766.636	-46.8
3769.315	-47.8
3771.991	-48.8
3774.665	-54.8
3777.338	-54.8
3780.008	-49.8
3782.677	-58.8
3785.343	-52.8
3788.007	-54.8
3790.67	-54.8
3793.33	-53.8
3795.989	-55.8
3798.645	-60.8
3801.299	-53.8
3803.952	-55.8
3806.602	-53.8
3809.251	-55.8
3811.897	-55.8
3814.542	-59.8
3817.184	-55.8
3819.825	-41.8
3822.463	-49.8
3825.1	-49.8
3827.735	-58.8
3830.367	-51.8
3832.998	-57.8
3835.627	-61.8
3838.253	-55.8
3840.878	-53.8
3843.501	-55.8
3846.122	-59.8
3848.741	-55.8
3851.358	-58.8
3853.973	-52.8
3856.586	-55.8
3859.197	-55.8
3861.806	-50.8
3864.414	-55.8
3867.019	-54.8
3869.622	-45.8
3872.224	-45.8
3874.823	-33.8
3877.421	-27.8
3880.016	-16.8
3882.61	-8.8
3885.202	-8.8
3887.792	-4.8
3890.38	-26.8
3892.966	-42.8
3895.55	-54.8
3898.132	-55.8
3900.713	-51.8
3903.291	-58.8
3905.868	-50.8
3908.442	-52.8
3911.015	-54.8
3913.586	-60.8
3916.155	-50.8
3918.722	-51.8
3921.287	-53.8
3923.85	-48.8
3926.411	-57.8
3928.971	-60.8
3931.528	-56.8
3934.084	-46.8
3936.638	-49.8
3939.19	-58.8
3941.74	-53.8
3944.288	-57.8
3946.834	-58.8
3949.378	-54.8
3951.921	-59.8
3954.462	-57.8
3957	-53.8
3959.537	-47.8
3962.072	-48.8
3964.606	-51.8
3967.137	-47.8
3969.667	-55.8
3972.194	-52.8
3974.72	-51.8
3977.244	-50.8
3979.766	-56.8
3982.286	-56.8
3984.805	-61.8
3987.321	-52.8
3989.836	-49.8
3992.349	-51.8
3994.86	-53.8
3997.369	-58.8
3999.877	-61.8
4002.382	-50.8
4004.886	-54.8
4007.388	-59.8
4009.888	-60.8
4012.386	-55.8
4014.883	-51.8
4017.377	-46.8
4019.87	-51.8
4022.361	-56.8
4024.85	-50.8
4027.338	-54.8
4029.823	-57.8
4032.307	-53.8
4034.789	-50.8
4037.269	-57.8
4039.747	-54.8
4042.224	-53.8
4044.699	-56.8
4047.172	-61.8
4049.643	-61.8
4052.112	-55.8
4054.58	-54.8
4057.046	-49.8
4059.51	-55.8
4061.972	-58.8
4064.432	-52.8
4066.891	-48.8
4069.348	-50.8
4071.803	-51.8
4074.256	-52.8
4076.708	-51.8
4079.158	-56.8
4081.606	-54.8
4084.052	-56.8
4086.497	-52.8
4088.939	-51.8
4091.38	-58.8
4093.819	-58.8
4096.257	-53.8
4098.693	-54.8
4101.127	-50.8
4103.559	-59.8
4105.989	17.2
4108.418	8.2
4110.845	4.2
4113.27	0.2
4115.694	12.2
4118.115	15.2
4120.535	-51.8
4122.954	-50.8
4125.37	-56.8
4127.785	-53.8
4130.198	-51.8
4132.609	-52.8
4135.019	-55.8
4137.427	-58.8
4139.833	-57.8
4142.237	-55.8
