Data from 2018-3-7_conc=4_n=1_RamanShift_01.txt Node
Date: Wed Mar 07 11:48:52 IST 2018
User: aro
Spectrometer: QEPB0276
Trigger mode: 0
Integration Time (sec): 3.000000E1
Scans to average: 1
Electric dark correction enabled: true
Nonlinearity correction enabled: false
Boxcar width: 0
XAxis mode: Raman Shifts
Number of Pixels in Spectrum: 1044
>>>>>Begin Spectral Data<<<<<
160.701	8.6
166.742	25.6
172.777	57.6
178.805	131.6
184.826	340.6
190.841	728.6
196.849	1170.6
202.85	1556.6
208.845	1689.6
214.833	1671.6
220.815	1670.6
226.789	1654.6
232.758	1678.6
238.719	1674.6
244.674	1654.6
250.623	1666.6
256.565	1654.6
262.5	1616.6
268.429	1617.6
274.351	1594.6
280.267	1587.6
286.176	1578.6
292.079	1594.6
297.975	1570.6
303.865	1574.6
309.748	1566.6
315.625	1590.6
321.495	1570.6
327.359	1568.6
333.217	1577.6
339.068	1580.6
344.912	1592.6
350.751	1588.6
356.583	1588.6
362.408	1603.6
368.227	1596.6
374.04	1612.6
379.847	1623.6
385.647	1615.6
391.44	1619.6
397.228	1633.6
403.009	1647.6
408.784	1639.6
414.553	1659.6
420.315	1647.6
426.071	1658.6
431.821	1645.6
437.565	1659.6
443.302	1658.6
449.033	1642.6
454.758	1646.6
460.477	1643.6
466.189	1627.6
471.896	1599.6
477.596	1589.6
483.29	1582.6
488.978	1595.6
494.66	1598.6
500.335	1545.6
506.005	1503.6
511.668	1434.6
517.325	1367.6
522.977	1330.6
528.622	1301.6
534.261	1262.6
539.894	1247.6
545.521	1243.6
551.141	1239.6
556.756	1222.6
562.365	1210.6
567.968	1189.6
573.565	1185.6
579.155	1169.6
584.74	1164.6
590.319	1177.6
595.892	1165.6
601.459	1176.6
607.02	1163.6
612.575	1158.6
618.124	1130.6
623.667	1125.6
629.204	1124.6
634.735	1095.6
640.261	1094.6
645.781	1090.6
651.294	1089.6
656.802	1078.6
662.304	1082.6
667.8	1074.6
673.29	1065.6
678.775	1073.6
684.254	1044.6
689.726	1057.6
695.193	1055.6
700.655	1050.6
706.11	1036.6
711.56	1031.6
717.004	1027.6
722.442	1021.6
727.874	1006.6
733.301	1023.6
738.722	1007.6
744.137	1006.6
749.547	1005.6
754.951	990.6
760.349	1001.6
765.741	999.6
771.128	1010.6
776.509	1014.6
781.885	1038.6
787.254	1024.6
792.618	1037.6
797.977	1024.6
803.33	1029.6
808.677	1019.6
814.019	1009.6
819.355	1014.6
824.686	992.6
830.011	988.6
835.33	990.6
840.644	978.6
845.952	980.6
851.255	962.6
856.552	975.6
861.844	961.6
867.13	945.6
872.41	932.6
877.686	951.6
882.955	942.6
888.219	934.6
893.478	919.6
898.731	899.6
903.979	888.6
909.221	889.6
914.458	888.6
919.69	878.6
924.916	878.6
930.136	876.6
935.351	881.6
940.561	865.6
945.766	886.6
950.965	875.6
956.158	853.6
961.347	850.6
966.529	847.6
971.707	824.6
976.879	813.6
982.046	812.6
987.208	807.6
992.364	815.6
997.515	810.6
1002.66	813.6
1007.801	829.6
1012.936	841.6
1018.066	843.6
1023.19	831.6
1028.309	843.6
1033.423	831.6
1038.532	844.6
1043.636	808.6
1048.734	821.6
1053.827	811.6
1058.915	806.6
1063.998	789.6
1069.075	790.6
1074.147	790.6
1079.214	788.6
1084.276	791.6
1089.333	814.6
1094.385	801.6
1099.431	793.6
1104.472	788.6
1109.509	785.6
1114.54	780.6
1119.565	764.6
1124.586	766.6
1129.602	748.6
1134.613	750.6
1139.618	738.6
1144.619	731.6
1149.614	736.6
1154.604	732.6
1159.589	757.6
1164.57	730.6
1169.545	735.6
1174.515	748.6
1179.48	747.6
1184.44	735.6
1189.395	730.6
1194.345	714.6
1199.29	721.6
1204.23	711.6
1209.165	719.6
1214.095	727.6
1219.021	711.6
1223.941	739.6
1228.856	733.6
1233.766	735.6
1238.672	742.6
1243.572	714.6
1248.467	733.6
1253.358	723.6
1258.244	704.6
1263.124	690.6
1268	686.6
1272.871	674.6
1277.737	670.6
1282.599	668.6
1287.455	670.6
1292.306	660.6
1297.153	661.6
1301.995	671.6
1306.832	685.6
1311.664	676.6
1316.491	684.6
1321.314	671.6
1326.132	674.6
1330.945	665.6
1335.753	655.6
1340.556	631.6
1345.354	623.6
1350.148	620.6
1354.937	608.6
1359.722	594.6
1364.501	567.6
1369.276	559.6
1374.046	557.6
1378.811	549.6
1383.572	554.6
1388.327	542.6
1393.079	545.6
1397.825	555.6
1402.567	560.6
1407.304	561.6
1412.036	567.6
1416.764	565.6
1421.487	559.6
1426.205	561.6
1430.919	566.6
1435.628	558.6
1440.333	575.6
1445.032	562.6
1449.727	587.6
1454.418	579.6
1459.104	569.6
1463.785	563.6
1468.462	554.6
1473.134	535.6
1477.802	520.6
1482.465	510.6
1487.123	504.6
1491.777	494.6
1496.426	482.6
1501.071	483.6
1505.711	492.6
1510.347	489.6
1514.978	475.6
1519.604	475.6
1524.226	465.6
1528.844	466.6
1533.457	469.6
1538.065	468.6
1542.669	461.6
1547.269	465.6
1551.864	465.6
1556.454	476.6
1561.041	487.6
1565.622	485.6
1570.199	485.6
1574.772	474.6
1579.34	486.6
1583.904	489.6
1588.464	510.6
1593.019	505.6
1597.569	506.6
1602.115	516.6
1606.657	508.6
1611.195	494.6
1615.728	503.6
1620.256	498.6
1624.78	501.6
1629.3	506.6
1633.816	505.6
1638.327	504.6
1642.834	503.6
1647.336	494.6
1651.834	492.6
1656.328	487.6
1660.817	503.6
1665.302	486.6
1669.783	475.6
1674.259	466.6
1678.732	459.6
1683.199	435.6
1687.663	435.6
1692.122	405.6
1696.577	397.6
1701.028	379.6
1705.474	342.6
1709.917	345.6
1714.355	348.6
1718.788	333.6
1723.218	338.6
1727.643	336.6
1732.064	336.6
1736.481	329.6
1740.893	323.6
1745.301	313.6
1749.705	312.6
1754.105	307.6
1758.501	291.6
1762.893	295.6
1767.28	289.6
1771.663	286.6
1776.042	281.6
1780.417	278.6
1784.787	270.6
1789.154	262.6
1793.516	254.6
1797.874	264.6
1802.228	257.6
1806.578	247.6
1810.924	242.6
1815.266	240.6
1819.603	248.6
1823.937	251.6
1828.266	248.6
1832.591	254.6
1836.913	256.6
1841.23	250.6
1845.543	250.6
1849.852	254.6
1854.156	266.6
1858.457	255.6
1862.754	254.6
1867.047	250.6
1871.335	253.6
1875.62	254.6
1879.9	255.6
1884.177	240.6
1888.449	246.6
1892.718	238.6
1896.982	233.6
1901.243	223.6
1905.499	228.6
1909.752	219.6
1914	216.6
1918.245	222.6
1922.485	217.6
1926.722	207.6
1930.954	204.6
1935.183	210.6
1939.408	213.6
1943.628	198.6
1947.845	199.6
1952.058	198.6
1956.267	195.6
1960.472	200.6
1964.673	195.6
1968.87	185.6
1973.063	194.6
1977.252	188.6
1981.438	194.6
1985.619	191.6
1989.797	185.6
1993.971	195.6
1998.14	189.6
2002.306	193.6
2006.469	205.6
2010.627	196.6
2014.781	192.6
2018.932	187.6
2023.078	193.6
2027.221	190.6
2031.36	193.6
2035.495	182.6
2039.627	176.6
2043.754	180.6
2047.878	177.6
2051.998	189.6
2056.114	171.6
2060.226	171.6
2064.334	178.6
2068.439	168.6
2072.54	169.6
2076.637	172.6
2080.73	164.6
2084.82	168.6
2088.906	166.6
2092.988	151.6
2097.066	154.6
2101.14	152.6
2105.211	162.6
2109.278	150.6
2113.342	154.6
2117.401	157.6
2121.457	146.6
2125.509	149.6
2129.558	152.6
2133.602	151.6
2137.643	151.6
2141.681	146.6
2145.714	148.6
2149.744	152.6
2153.77	150.6
2157.793	149.6
2161.812	148.6
2165.827	148.6
2169.838	137.6
2173.846	146.6
2177.851	138.6
2181.851	139.6
2185.848	136.6
2189.841	141.6
2193.831	136.6
2197.817	137.6
2201.799	140.6
2205.778	135.6
2209.753	137.6
2213.725	134.6
2217.693	133.6
2221.657	133.6
2225.618	125.6
2229.575	126.6
2233.529	126.6
2237.479	131.6
2241.425	125.6
2245.368	123.6
2249.307	129.6
2253.243	124.6
2257.175	120.6
2261.104	109.6
2265.029	112.6
2268.95	120.6
2272.868	118.6
2276.783	109.6
2280.694	112.6
2284.601	99.6
2288.505	101.6
2292.405	108.6
2296.302	104.6
2300.195	100.6
2304.085	108.6
2307.971	99.6
2311.854	102.6
2315.734	88.6
2319.609	107.6
2323.482	93.6
2327.351	104.6
2331.216	108.6
2335.078	122.6
2338.937	111.6
2342.792	100.6
2346.643	90.6
2350.492	94.6
2354.336	95.6
2358.178	92.6
2362.015	96.6
2365.85	90.6
2369.681	99.6
2373.508	96.6
2377.333	99.6
2381.153	101.6
2384.971	101.6
2388.785	87.6
2392.595	90.6
2396.402	84.6
2400.206	98.6
2404.007	87.6
2407.804	94.6
2411.597	87.6
2415.388	83.6
2419.174	91.6
2422.958	84.6
2426.738	93.6
2430.515	88.6
2434.289	83.6
2438.059	80.6
2441.825	88.6
2445.589	85.6
2449.349	83.6
2453.106	90.6
2456.859	79.6
2460.61	70.6
2464.356	82.6
2468.1	83.6
2471.84	74.6
2475.577	72.6
2479.311	69.6
2483.041	67.6
2486.768	73.6
2490.492	71.6
2494.213	70.6
2497.93	73.6
2501.644	73.6
2505.355	70.6
2509.062	66.6
2512.766	71.6
2516.467	71.6
2520.165	58.6
2523.859	73.6
2527.551	58.6
2531.239	61.6
2534.923	63.6
2538.605	53.6
2542.283	48.6
2545.958	59.6
2549.63	52.6
2553.299	54.6
2556.964	50.6
2560.626	56.6
2564.285	59.6
2567.941	56.6
2571.594	54.6
2575.243	57.6
2578.89	53.6
2582.533	44.6
2586.173	52.6
2589.809	55.6
2593.443	56.6
2597.073	40.6
2600.701	47.6
2604.325	37.6
2607.946	38.6
2611.564	44.6
2615.178	42.6
2618.79	49.6
2622.398	40.6
2626.004	40.6
2629.606	42.6
2633.205	43.6
2636.801	40.6
2640.394	49.6
2643.983	39.6
2647.57	40.6
2651.153	37.6
2654.734	32.6
2658.311	36.6
2661.885	32.6
2665.456	36.6
2669.025	40.6
2672.589	25.6
2676.151	35.6
2679.71	29.6
2683.266	36.6
2686.819	37.6
2690.368	35.6
2693.915	32.6
2697.458	26.6
2700.999	31.6
2704.536	34.6
2708.071	30.6
2711.602	31.6
2715.13	21.6
2718.656	29.6
2722.178	23.6
2725.697	16.6
2729.214	23.6
2732.727	33.6
2736.237	27.6
2739.744	25.6
2743.249	19.6
2746.75	23.6
2750.248	18.6
2753.743	13.6
2757.236	18.6
2760.725	15.6
2764.211	15.6
2767.695	9.6
2771.175	14.6
2774.652	12.6
2778.127	16.6
2781.598	9.6
2785.067	11.6
2788.532	7.6
2791.995	9.6
2795.455	8.6
2798.911	9.6
2802.365	21.6
2805.816	10.6
2809.264	14.6
2812.709	17.6
2816.151	18.6
2819.59	30.6
2823.026	22.6
2826.46	18.6
2829.89	16.6
2833.318	15.6
2836.742	19.6
2840.164	11.6
2843.583	11.6
2846.999	13.6
2850.412	16.6
2853.822	16.6
2857.229	16.6
2860.634	19.6
2864.035	17.6
2867.434	14.6
2870.83	18.6
2874.223	23.6
2877.613	24.6
2881	23.6
2884.385	25.6
2887.766	26.6
2891.145	19.6
2894.521	23.6
2897.894	32.6
2901.264	28.6
2904.631	20.6
2907.996	29.6
2911.358	34.6
2914.717	25.6
2918.073	28.6
2921.426	31.6
2924.777	32.6
2928.124	33.6
2931.469	37.6
2934.811	36.6
2938.15	40.6
2941.487	43.6
2944.821	37.6
2948.152	41.6
2951.48	40.6
2954.805	43.6
2958.128	36.6
2961.447	36.6
2964.765	33.6
2968.079	30.6
2971.39	36.6
2974.699	32.6
2978.005	43.6
2981.308	34.6
2984.609	35.6
2987.907	33.6
2991.202	34.6
2994.494	33.6
2997.784	36.6
3001.07	36.6
3004.355	37.6
3007.636	43.6
3010.915	35.6
3014.191	28.6
3017.464	37.6
3020.734	43.6
3024.002	41.6
3027.267	47.6
3030.53	49.6
3033.789	52.6
3037.046	45.6
3040.301	44.6
3043.552	48.6
3046.801	58.6
3050.048	57.6
3053.291	51.6
3056.532	59.6
3059.771	59.6
3063.006	67.6
3066.239	69.6
3069.469	73.6
3072.697	71.6
3075.922	73.6
3079.144	72.6
3082.364	82.6
3085.581	78.6
3088.795	86.6
3092.007	84.6
3095.216	87.6
3098.423	87.6
3101.627	89.6
3104.828	94.6
3108.026	99.6
3111.222	97.6
3114.416	104.6
3117.607	108.6
3120.795	106.6
3123.98	105.6
3127.163	122.6
3130.344	122.6
3133.521	115.6
3136.696	111.6
3139.869	129.6
3143.039	129.6
3146.206	134.6
3149.371	123.6
3152.533	134.6
3155.693	131.6
3158.85	131.6
3162.005	138.6
3165.157	132.6
3168.306	144.6
3171.453	134.6
3174.597	133.6
3177.739	137.6
3180.878	140.6
3184.014	129.6
3187.149	144.6
3190.28	139.6
3193.409	139.6
3196.536	133.6
3199.659	146.6
3202.781	142.6
3205.9	134.6
3209.016	132.6
3212.13	135.6
3215.241	136.6
3218.35	132.6
3221.456	139.6
3224.56	129.6
3227.661	133.6
3230.76	124.6
3233.856	128.6
3236.95	121.6
3240.041	120.6
3243.13	125.6
3246.216	110.6
3249.3	115.6
3252.382	107.6
3255.46	111.6
3258.537	110.6
3261.611	107.6
3264.682	107.6
3267.751	108.6
3270.818	102.6
3273.882	103.6
3276.943	98.6
3280.002	109.6
3283.059	105.6
3286.113	93.6
3289.165	103.6
3292.214	95.6
3295.261	96.6
3298.306	94.6
3301.348	104.6
3304.387	88.6
3307.425	86.6
3310.459	88.6
3313.492	92.6
3316.521	88.6
3319.549	96.6
3322.574	86.6
3325.597	94.6
3328.617	88.6
3331.635	90.6
3334.65	97.6
3337.663	85.6
3340.674	91.6
3343.682	85.6
3346.688	81.6
3349.691	89.6
3352.692	85.6
3355.691	85.6
3358.687	88.6
3361.681	85.6
3364.673	83.6
3367.662	87.6
3370.649	84.6
3373.633	79.6
3376.615	82.6
3379.595	78.6
3382.572	77.6
3385.547	80.6
3388.52	78.6
3391.49	74.6
3394.458	68.6
3397.424	67.6
3400.387	68.6
3403.348	60.6
3406.307	58.6
3409.263	68.6
3412.217	58.6
3415.168	67.6
3418.118	52.6
3421.065	57.6
3424.009	57.6
3426.951	48.6
3429.891	57.6
3432.829	54.6
3435.764	54.6
3438.697	54.6
3441.628	43.6
3444.557	46.6
3447.483	39.6
3450.407	34.6
3453.328	41.6
3456.247	36.6
3459.164	41.6
3462.079	21.6
3464.991	27.6
3467.902	21.6
3470.809	26.6
3473.715	18.6
3476.618	18.6
3479.519	17.6
3482.418	17.6
3485.315	23.6
3488.209	0.6
3491.101	6.6
3493.99	8.6
3496.878	8.6
3499.763	4.6
3502.646	0.6
3505.527	2.6
3508.405	-2.4
3511.281	-7.4
3514.155	-5.4
3517.027	-10.4
3519.897	-5.4
3522.764	-5.4
3525.629	-5.4
3528.492	-13.4
3531.352	-13.4
3534.211	-18.4
3537.067	-20.4
3539.921	-12.4
3542.773	-22.4
3545.622	-17.4
3548.469	-19.4
3551.315	-18.4
3554.157	-23.4
3556.998	-21.4
3559.837	-24.4
3562.673	-22.4
3565.507	-21.4
3568.339	-26.4
3571.169	-32.4
3573.996	-20.4
3576.822	-29.4
3579.645	-32.4
3582.466	-28.4
3585.285	-31.4
3588.101	-34.4
3590.916	-25.4
3593.728	-33.4
3596.538	-32.4
3599.346	-32.4
3602.152	-30.4
3604.956	-31.4
3607.757	-34.4
3610.556	-38.4
3613.354	-40.4
3616.149	-39.4
3618.942	-35.4
3621.732	-38.4
3624.521	-37.4
3627.307	-34.4
3630.092	-38.4
3632.874	-41.4
3635.654	-38.4
3638.432	-37.4
3641.208	-40.4
3643.982	-38.4
3646.753	-42.4
3649.523	-39.4
3652.29	-46.4
3655.055	-39.4
3657.818	-47.4
3660.579	-43.4
3663.338	-38.4
3666.095	-46.4
3668.849	-44.4
3671.602	-41.4
3674.352	-44.4
3677.101	-47.4
3679.847	-42.4
3682.591	-42.4
3685.333	-46.4
3688.073	-55.4
3690.811	-47.4
3693.547	-52.4
3696.281	-46.4
3699.013	-46.4
3701.742	-51.4
3704.47	-40.4
3707.195	-45.4
3709.919	-49.4
3712.64	-50.4
3715.359	-43.4
3718.076	-51.4
3720.792	-50.4
3723.505	-50.4
3726.216	-53.4
3728.925	-51.4
3731.632	-46.4
3734.336	-50.4
3737.039	-51.4
3739.74	-52.4
3742.439	-56.4
3745.136	-53.4
3747.83	-46.4
3750.523	-53.4
3753.213	-55.4
3755.902	-53.4
3758.589	-50.4
3761.273	-50.4
3763.956	-52.4
3766.636	-45.4
3769.315	-47.4
3771.991	-55.4
3774.665	-53.4
3777.338	-50.4
3780.008	-50.4
3782.677	-56.4
3785.343	-59.4
3788.007	-53.4
3790.67	-51.4
3793.33	-54.4
3795.989	-53.4
3798.645	-50.4
3801.299	-48.4
3803.952	-53.4
3806.602	-54.4
3809.251	-52.4
3811.897	-51.4
3814.542	-59.4
3817.184	-54.4
3819.825	-54.4
3822.463	-53.4
3825.1	-50.4
3827.735	-56.4
3830.367	-57.4
3832.998	-61.4
3835.627	-56.4
3838.253	-49.4
3840.878	-49.4
3843.501	-50.4
3846.122	-54.4
3848.741	-52.4
3851.358	-50.4
3853.973	-53.4
3856.586	-51.4
3859.197	-53.4
3861.806	-55.4
3864.414	-57.4
3867.019	-59.4
3869.622	-45.4
3872.224	-39.4
3874.823	-34.4
3877.421	-27.4
3880.016	-7.4
3882.61	7.6
3885.202	-3.4
3887.792	-2.4
3890.38	-18.4
3892.966	-35.4
3895.55	-43.4
3898.132	-49.4
3900.713	-53.4
3903.291	-57.4
3905.868	-48.4
3908.442	-55.4
3911.015	-56.4
3913.586	-58.4
3916.155	-54.4
3918.722	-58.4
3921.287	-51.4
3923.85	-49.4
3926.411	-54.4
3928.971	-64.4
3931.528	-53.4
3934.084	-51.4
3936.638	-46.4
3939.19	-60.4
3941.74	-52.4
3944.288	-54.4
3946.834	-49.4
3949.378	-55.4
3951.921	-53.4
3954.462	-55.4
3957	-51.4
3959.537	-49.4
3962.072	-48.4
3964.606	-51.4
3967.137	-56.4
3969.667	-53.4
3972.194	-51.4
3974.72	-45.4
3977.244	-48.4
3979.766	-51.4
3982.286	-53.4
3984.805	-64.4
3987.321	-53.4
3989.836	-53.4
3992.349	-52.4
3994.86	-56.4
3997.369	-55.4
3999.877	-57.4
4002.382	-58.4
4004.886	-53.4
4007.388	-58.4
4009.888	-54.4
4012.386	-58.4
4014.883	-52.4
4017.377	-50.4
4019.87	-50.4
4022.361	-53.4
4024.85	-50.4
4027.338	-51.4
4029.823	-55.4
4032.307	-53.4
4034.789	-49.4
4037.269	-50.4
4039.747	-53.4
4042.224	-59.4
4044.699	-56.4
4047.172	-55.4
4049.643	-59.4
4052.112	-56.4
4054.58	-53.4
4057.046	-52.4
4059.51	-58.4
4061.972	-55.4
4064.432	-48.4
4066.891	-51.4
4069.348	-49.4
4071.803	-50.4
4074.256	-49.4
4076.708	-57.4
4079.158	-57.4
4081.606	-55.4
4084.052	-57.4
4086.497	-49.4
4088.939	-49.4
4091.38	-60.4
4093.819	-59.4
4096.257	-54.4
4098.693	-52.4
4101.127	-50.4
4103.559	-55.4
4105.989	25.6
4108.418	19.6
4110.845	14.6
4113.27	15.6
4115.694	21.6
4118.115	10.6
4120.535	-55.4
4122.954	-55.4
4125.37	-52.4
4127.785	-52.4
4130.198	-48.4
4132.609	-52.4
4135.019	-57.4
4137.427	-58.4
4139.833	-53.4
4142.237	-54.4
