Data from 2018-3-7_conc=3_n=2_RamanShift_02.txt Node
Date: Wed Mar 07 11:19:22 IST 2018
User: aro
Spectrometer: QEPB0276
Trigger mode: 0
Integration Time (sec): 3.000000E1
Scans to average: 1
Electric dark correction enabled: true
Nonlinearity correction enabled: false
Boxcar width: 0
XAxis mode: Raman Shifts
Number of Pixels in Spectrum: 1044
>>>>>Begin Spectral Data<<<<<
160.701	11.1
166.742	25.1
172.777	51.1
178.805	145.1
184.826	365.1
190.841	769.1
196.849	1262.1
202.85	1640.1
208.845	1789.1
214.833	1800.1
220.815	1778.1
226.789	1786.1
232.758	1798.1
238.719	1780.1
244.674	1793.1
250.623	1764.1
256.565	1760.1
262.5	1714.1
268.429	1721.1
274.351	1719.1
280.267	1692.1
286.176	1688.1
292.079	1715.1
297.975	1708.1
303.865	1700.1
309.748	1691.1
315.625	1692.1
321.495	1714.1
327.359	1703.1
333.217	1700.1
339.068	1710.1
344.912	1705.1
350.751	1709.1
356.583	1724.1
362.408	1711.1
368.227	1750.1
374.04	1735.1
379.847	1742.1
385.647	1753.1
391.44	1770.1
397.228	1763.1
403.009	1798.1
408.784	1805.1
414.553	1796.1
420.315	1796.1
426.071	1799.1
431.821	1808.1
437.565	1804.1
443.302	1805.1
449.033	1786.1
454.758	1778.1
460.477	1773.1
466.189	1763.1
471.896	1731.1
477.596	1738.1
483.29	1709.1
488.978	1727.1
494.66	1698.1
500.335	1669.1
506.005	1610.1
511.668	1534.1
517.325	1486.1
522.977	1415.1
528.622	1393.1
534.261	1368.1
539.894	1317.1
545.521	1331.1
551.141	1311.1
556.756	1305.1
562.365	1287.1
567.968	1284.1
573.565	1267.1
579.155	1251.1
584.74	1255.1
590.319	1256.1
595.892	1264.1
601.459	1252.1
607.02	1234.1
612.575	1229.1
618.124	1217.1
623.667	1205.1
629.204	1189.1
634.735	1178.1
640.261	1162.1
645.781	1170.1
651.294	1152.1
656.802	1154.1
662.304	1146.1
667.8	1152.1
673.29	1153.1
678.775	1138.1
684.254	1136.1
689.726	1124.1
695.193	1126.1
700.655	1108.1
706.11	1101.1
711.56	1096.1
717.004	1103.1
722.442	1094.1
727.874	1078.1
733.301	1079.1
738.722	1079.1
744.137	1062.1
749.547	1066.1
754.951	1054.1
760.349	1082.1
765.741	1083.1
771.128	1074.1
776.509	1086.1
781.885	1109.1
787.254	1113.1
792.618	1100.1
797.977	1116.1
803.33	1091.1
808.677	1093.1
814.019	1079.1
819.355	1070.1
824.686	1073.1
830.011	1052.1
835.33	1063.1
840.644	1047.1
845.952	1053.1
851.255	1040.1
856.552	1031.1
861.844	1023.1
867.13	1023.1
872.41	1011.1
877.686	997.1
882.955	997.1
888.219	984.1
893.478	970.1
898.731	944.1
903.979	950.1
909.221	944.1
914.458	940.1
919.69	931.1
924.916	936.1
930.136	931.1
935.351	948.1
940.561	934.1
945.766	943.1
950.965	937.1
956.158	927.1
961.347	909.1
966.529	900.1
971.707	888.1
976.879	879.1
982.046	874.1
987.208	871.1
992.364	856.1
997.515	875.1
1002.66	866.1
1007.801	898.1
1012.936	893.1
1018.066	910.1
1023.19	894.1
1028.309	889.1
1033.423	887.1
1038.532	881.1
1043.636	872.1
1048.734	865.1
1053.827	863.1
1058.915	859.1
1063.998	858.1
1069.075	838.1
1074.147	845.1
1079.214	838.1
1084.276	857.1
1089.333	856.1
1094.385	850.1
1099.431	854.1
1104.472	857.1
1109.509	826.1
1114.54	827.1
1119.565	820.1
1124.586	816.1
1129.602	807.1
1134.613	796.1
1139.618	794.1
1144.619	781.1
1149.614	804.1
1154.604	784.1
1159.589	797.1
1164.57	791.1
1169.545	789.1
1174.515	792.1
1179.48	778.1
1184.44	780.1
1189.395	776.1
1194.345	781.1
1199.29	752.1
1204.23	753.1
1209.165	765.1
1214.095	772.1
1219.021	776.1
1223.941	785.1
1228.856	785.1
1233.766	792.1
1238.672	778.1
1243.572	788.1
1248.467	763.1
1253.358	761.1
1258.244	750.1
1263.124	732.1
1268	731.1
1272.871	711.1
1277.737	703.1
1282.599	717.1
1287.455	713.1
1292.306	714.1
1297.153	714.1
1301.995	725.1
1306.832	716.1
1311.664	726.1
1316.491	728.1
1321.314	724.1
1326.132	719.1
1330.945	699.1
1335.753	688.1
1340.556	675.1
1345.354	661.1
1350.148	656.1
1354.937	637.1
1359.722	625.1
1364.501	618.1
1369.276	602.1
1374.046	598.1
1378.811	596.1
1383.572	590.1
1388.327	585.1
1393.079	578.1
1397.825	600.1
1402.567	602.1
1407.304	593.1
1412.036	602.1
1416.764	600.1
1421.487	597.1
1426.205	594.1
1430.919	586.1
1435.628	611.1
1440.333	613.1
1445.032	597.1
1449.727	619.1
1454.418	616.1
1459.104	606.1
1463.785	592.1
1468.462	588.1
1473.134	590.1
1477.802	569.1
1482.465	534.1
1487.123	543.1
1491.777	525.1
1496.426	515.1
1501.071	504.1
1505.711	507.1
1510.347	500.1
1514.978	495.1
1519.604	515.1
1524.226	493.1
1528.844	505.1
1533.457	479.1
1538.065	487.1
1542.669	479.1
1547.269	482.1
1551.864	487.1
1556.454	504.1
1561.041	518.1
1565.622	518.1
1570.199	504.1
1574.772	509.1
1579.34	528.1
1583.904	535.1
1588.464	536.1
1593.019	540.1
1597.569	532.1
1602.115	533.1
1606.657	534.1
1611.195	531.1
1615.728	517.1
1620.256	524.1
1624.78	531.1
1629.3	523.1
1633.816	529.1
1638.327	541.1
1642.834	528.1
1647.336	531.1
1651.834	525.1
1656.328	524.1
1660.817	523.1
1665.302	513.1
1669.783	496.1
1674.259	482.1
1678.732	478.1
1683.199	452.1
1687.663	445.1
1692.122	425.1
1696.577	411.1
1701.028	385.1
1705.474	367.1
1709.917	365.1
1714.355	362.1
1718.788	353.1
1723.218	359.1
1727.643	354.1
1732.064	351.1
1736.481	350.1
1740.893	346.1
1745.301	343.1
1749.705	331.1
1754.105	328.1
1758.501	312.1
1762.893	314.1
1767.28	303.1
1771.663	297.1
1776.042	300.1
1780.417	287.1
1784.787	288.1
1789.154	276.1
1793.516	269.1
1797.874	269.1
1802.228	270.1
1806.578	265.1
1810.924	259.1
1815.266	264.1
1819.603	259.1
1823.937	263.1
1828.266	262.1
1832.591	266.1
1836.913	269.1
1841.23	269.1
1845.543	264.1
1849.852	266.1
1854.156	268.1
1858.457	274.1
1862.754	268.1
1867.047	258.1
1871.335	263.1
1875.62	254.1
1879.9	264.1
1884.177	268.1
1888.449	266.1
1892.718	247.1
1896.982	257.1
1901.243	244.1
1905.499	240.1
1909.752	229.1
1914	233.1
1918.245	215.1
1922.485	216.1
1926.722	217.1
1930.954	212.1
1935.183	216.1
1939.408	214.1
1943.628	217.1
1947.845	211.1
1952.058	216.1
1956.267	208.1
1960.472	214.1
1964.673	195.1
1968.87	205.1
1973.063	205.1
1977.252	206.1
1981.438	202.1
1985.619	197.1
1989.797	197.1
1993.971	200.1
1998.14	200.1
2002.306	200.1
2006.469	208.1
2010.627	206.1
2014.781	198.1
2018.932	204.1
2023.078	208.1
2027.221	201.1
2031.36	206.1
2035.495	195.1
2039.627	190.1
2043.754	187.1
2047.878	183.1
2051.998	190.1
2056.114	182.1
2060.226	187.1
2064.334	183.1
2068.439	182.1
2072.54	176.1
2076.637	183.1
2080.73	184.1
2084.82	179.1
2088.906	170.1
2092.988	176.1
2097.066	176.1
2101.14	167.1
2105.211	166.1
2109.278	157.1
2113.342	155.1
2117.401	157.1
2121.457	157.1
2125.509	160.1
2129.558	157.1
2133.602	158.1
2137.643	158.1
2141.681	159.1
2145.714	162.1
2149.744	159.1
2153.77	156.1
2157.793	154.1
2161.812	159.1
2165.827	161.1
2169.838	155.1
2173.846	152.1
2177.851	145.1
2181.851	145.1
2185.848	150.1
2189.841	143.1
2193.831	143.1
2197.817	149.1
2201.799	143.1
2205.778	152.1
2209.753	150.1
2213.725	145.1
2217.693	148.1
2221.657	137.1
2225.618	128.1
2229.575	134.1
2233.529	131.1
2237.479	140.1
2241.425	129.1
2245.368	138.1
2249.307	131.1
2253.243	129.1
2257.175	128.1
2261.104	128.1
2265.029	124.1
2268.95	132.1
2272.868	122.1
2276.783	116.1
2280.694	111.1
2284.601	108.1
2288.505	110.1
2292.405	119.1
2296.302	115.1
2300.195	104.1
2304.085	111.1
2307.971	106.1
2311.854	105.1
2315.734	100.1
2319.609	110.1
2323.482	108.1
2327.351	103.1
2331.216	109.1
2335.078	132.1
2338.937	117.1
2342.792	111.1
2346.643	102.1
2350.492	107.1
2354.336	101.1
2358.178	92.1
2362.015	108.1
2365.85	99.1
2369.681	104.1
2373.508	111.1
2377.333	105.1
2381.153	107.1
2384.971	105.1
2388.785	98.1
2392.595	103.1
2396.402	103.1
2400.206	99.1
2404.007	110.1
2407.804	98.1
2411.597	91.1
2415.388	96.1
2419.174	104.1
2422.958	93.1
2426.738	98.1
2430.515	99.1
2434.289	94.1
2438.059	90.1
2441.825	87.1
2445.589	92.1
2449.349	90.1
2453.106	92.1
2456.859	82.1
2460.61	84.1
2464.356	82.1
2468.1	81.1
2471.84	82.1
2475.577	78.1
2479.311	75.1
2483.041	72.1
2486.768	78.1
2490.492	75.1
2494.213	77.1
2497.93	74.1
2501.644	81.1
2505.355	79.1
2509.062	73.1
2512.766	74.1
2516.467	71.1
2520.165	71.1
2523.859	72.1
2527.551	61.1
2531.239	64.1
2534.923	60.1
2538.605	57.1
2542.283	57.1
2545.958	61.1
2549.63	56.1
2553.299	57.1
2556.964	58.1
2560.626	57.1
2564.285	52.1
2567.941	53.1
2571.594	53.1
2575.243	54.1
2578.89	55.1
2582.533	52.1
2586.173	54.1
2589.809	55.1
2593.443	52.1
2597.073	48.1
2600.701	54.1
2604.325	49.1
2607.946	41.1
2611.564	45.1
2615.178	49.1
2618.79	52.1
2622.398	41.1
2626.004	40.1
2629.606	42.1
2633.205	42.1
2636.801	43.1
2640.394	53.1
2643.983	39.1
2647.57	41.1
2651.153	41.1
2654.734	37.1
2658.311	47.1
2661.885	42.1
2665.456	45.1
2669.025	37.1
2672.589	37.1
2676.151	39.1
2679.71	30.1
2683.266	40.1
2686.819	38.1
2690.368	34.1
2693.915	35.1
2697.458	26.1
2700.999	39.1
2704.536	30.1
2708.071	32.1
2711.602	26.1
2715.13	27.1
2718.656	30.1
2722.178	32.1
2725.697	23.1
2729.214	20.1
2732.727	29.1
2736.237	29.1
2739.744	19.1
2743.249	23.1
2746.75	25.1
2750.248	20.1
2753.743	19.1
2757.236	18.1
2760.725	18.1
2764.211	19.1
2767.695	9.1
2771.175	8.1
2774.652	15.1
2778.127	12.1
2781.598	14.1
2785.067	13.1
2788.532	8.1
2791.995	15.1
2795.455	11.1
2798.911	13.1
2802.365	13.1
2805.816	17.1
2809.264	16.1
2812.709	13.1
2816.151	22.1
2819.59	26.1
2823.026	20.1
2826.46	18.1
2829.89	19.1
2833.318	17.1
2836.742	25.1
2840.164	18.1
2843.583	17.1
2846.999	18.1
2850.412	16.1
2853.822	14.1
2857.229	21.1
2860.634	20.1
2864.035	15.1
2867.434	17.1
2870.83	25.1
2874.223	24.1
2877.613	23.1
2881	24.1
2884.385	27.1
2887.766	32.1
2891.145	25.1
2894.521	32.1
2897.894	25.1
2901.264	33.1
2904.631	20.1
2907.996	25.1
2911.358	31.1
2914.717	23.1
2918.073	28.1
2921.426	28.1
2924.777	37.1
2928.124	38.1
2931.469	39.1
2934.811	41.1
2938.15	41.1
2941.487	45.1
2944.821	43.1
2948.152	49.1
2951.48	39.1
2954.805	44.1
2958.128	36.1
2961.447	42.1
2964.765	36.1
2968.079	39.1
2971.39	34.1
2974.699	33.1
2978.005	44.1
2981.308	36.1
2984.609	36.1
2987.907	39.1
2991.202	40.1
2994.494	39.1
2997.784	26.1
3001.07	41.1
3004.355	37.1
3007.636	41.1
3010.915	49.1
3014.191	39.1
3017.464	40.1
3020.734	42.1
3024.002	50.1
3027.267	46.1
3030.53	54.1
3033.789	51.1
3037.046	45.1
3040.301	58.1
3043.552	59.1
3046.801	53.1
3050.048	52.1
3053.291	53.1
3056.532	62.1
3059.771	61.1
3063.006	67.1
3066.239	69.1
3069.469	78.1
3072.697	77.1
3075.922	82.1
3079.144	77.1
3082.364	80.1
3085.581	81.1
3088.795	97.1
3092.007	90.1
3095.216	93.1
3098.423	92.1
3101.627	94.1
3104.828	99.1
3108.026	99.1
3111.222	107.1
3114.416	110.1
3117.607	111.1
3120.795	108.1
3123.98	114.1
3127.163	128.1
3130.344	124.1
3133.521	120.1
3136.696	122.1
3139.869	135.1
3143.039	125.1
3146.206	131.1
3149.371	127.1
3152.533	144.1
3155.693	139.1
3158.85	147.1
3162.005	149.1
3165.157	141.1
3168.306	138.1
3171.453	143.1
3174.597	144.1
3177.739	155.1
3180.878	141.1
3184.014	133.1
3187.149	134.1
3190.28	140.1
3193.409	147.1
3196.536	138.1
3199.659	150.1
3202.781	149.1
3205.9	143.1
3209.016	139.1
3212.13	153.1
3215.241	145.1
3218.35	143.1
3221.456	149.1
3224.56	133.1
3227.661	135.1
3230.76	130.1
3233.856	127.1
3236.95	124.1
3240.041	119.1
3243.13	138.1
3246.216	116.1
3249.3	110.1
3252.382	120.1
3255.46	117.1
3258.537	118.1
3261.611	112.1
3264.682	112.1
3267.751	112.1
3270.818	106.1
3273.882	111.1
3276.943	108.1
3280.002	109.1
3283.059	102.1
3286.113	103.1
3289.165	95.1
3292.214	100.1
3295.261	106.1
3298.306	96.1
3301.348	101.1
3304.387	98.1
3307.425	95.1
3310.459	93.1
3313.492	92.1
3316.521	95.1
3319.549	99.1
3322.574	92.1
3325.597	92.1
3328.617	92.1
3331.635	100.1
3334.65	101.1
3337.663	83.1
3340.674	94.1
3343.682	98.1
3346.688	90.1
3349.691	93.1
3352.692	91.1
3355.691	97.1
3358.687	88.1
3361.681	90.1
3364.673	91.1
3367.662	84.1
3370.649	85.1
3373.633	81.1
3376.615	80.1
3379.595	79.1
3382.572	77.1
3385.547	83.1
3388.52	80.1
3391.49	70.1
3394.458	67.1
3397.424	74.1
3400.387	68.1
3403.348	61.1
3406.307	66.1
3409.263	67.1
3412.217	64.1
3415.168	71.1
3418.118	65.1
3421.065	59.1
3424.009	54.1
3426.951	57.1
3429.891	57.1
3432.829	50.1
3435.764	53.1
3438.697	55.1
3441.628	48.1
3444.557	37.1
3447.483	37.1
3450.407	31.1
3453.328	41.1
3456.247	36.1
3459.164	37.1
3462.079	26.1
3464.991	30.1
3467.902	23.1
3470.809	32.1
3473.715	20.1
3476.618	16.1
3479.519	12.1
3482.418	15.1
3485.315	12.1
3488.209	-2.9
3491.101	-0.9
3493.99	8.1
3496.878	3.1
3499.763	0.1
3502.646	0.1
3505.527	1.1
3508.405	-0.9
3511.281	1.1
3514.155	-1.9
3517.027	-13.9
3519.897	-4.9
3522.764	-7.9
3525.629	-10.9
3528.492	-16.9
3531.352	-22.9
3534.211	-16.9
3537.067	-19.9
3539.921	-15.9
3542.773	-21.9
3545.622	-15.9
3548.469	-17.9
3551.315	-17.9
3554.157	-20.9
3556.998	-22.9
3559.837	-25.9
3562.673	-26.9
3565.507	-32.9
3568.339	-27.9
3571.169	-31.9
3573.996	-29.9
3576.822	-37.9
3579.645	-38.9
3582.466	-33.9
3585.285	-32.9
3588.101	-36.9
3590.916	-28.9
3593.728	-35.9
3596.538	-37.9
3599.346	-35.9
3602.152	-37.9
3604.956	-38.9
3607.757	-32.9
3610.556	-34.9
3613.354	-42.9
3616.149	-44.9
3618.942	-39.9
3621.732	-42.9
3624.521	-38.9
3627.307	-45.9
3630.092	-41.9
3632.874	-42.9
3635.654	-41.9
3638.432	-39.9
3641.208	-41.9
3643.982	-36.9
3646.753	-42.9
3649.523	-40.9
3652.29	-49.9
3655.055	-44.9
3657.818	-54.9
3660.579	-47.9
3663.338	-42.9
3666.095	-47.9
3668.849	-53.9
3671.602	-49.9
3674.352	-45.9
3677.101	-48.9
3679.847	-46.9
3682.591	-51.9
3685.333	-47.9
3688.073	-54.9
3690.811	-46.9
3693.547	-47.9
3696.281	-47.9
3699.013	-49.9
3701.742	-54.9
3704.47	-45.9
3707.195	-52.9
3709.919	-53.9
3712.64	-49.9
3715.359	-57.9
3718.076	-51.9
3720.792	-50.9
3723.505	-56.9
3726.216	-49.9
3728.925	-55.9
3731.632	-50.9
3734.336	-52.9
3737.039	-51.9
3739.74	-61.9
3742.439	-54.9
3745.136	-53.9
3747.83	-53.9
3750.523	-60.9
3753.213	-60.9
3755.902	-53.9
3758.589	-50.9
3761.273	-51.9
3763.956	-58.9
3766.636	-54.9
3769.315	-50.9
3771.991	-55.9
3774.665	-58.9
3777.338	-53.9
3780.008	-56.9
3782.677	-58.9
3785.343	-58.9
3788.007	-57.9
3790.67	-57.9
3793.33	-57.9
3795.989	-60.9
3798.645	-56.9
3801.299	-49.9
3803.952	-54.9
3806.602	-59.9
3809.251	-49.9
3811.897	-58.9
3814.542	-59.9
3817.184	-55.9
3819.825	-52.9
3822.463	-59.9
3825.1	-53.9
3827.735	-60.9
3830.367	-59.9
3832.998	-61.9
3835.627	-57.9
3838.253	-52.9
3840.878	-49.9
3843.501	-49.9
3846.122	-56.9
3848.741	-55.9
3851.358	-51.9
3853.973	-53.9
3856.586	-52.9
3859.197	-63.9
3861.806	-56.9
3864.414	-58.9
3867.019	-55.9
3869.622	-51.9
3872.224	-40.9
3874.823	-37.9
3877.421	-27.9
3880.016	-13.9
3882.61	8.1
3885.202	13.1
3887.792	1.1
3890.38	-12.9
3892.966	-35.9
3895.55	-48.9
3898.132	-51.9
3900.713	-56.9
3903.291	-58.9
3905.868	-54.9
3908.442	-52.9
3911.015	-57.9
3913.586	-63.9
3916.155	-59.9
3918.722	-58.9
3921.287	-58.9
3923.85	-49.9
3926.411	-56.9
3928.971	-61.9
3931.528	-56.9
3934.084	-57.9
3936.638	-54.9
3939.19	-63.9
3941.74	-53.9
3944.288	-58.9
3946.834	-54.9
3949.378	-60.9
3951.921	-62.9
3954.462	-59.9
3957	-52.9
3959.537	-46.9
3962.072	-50.9
3964.606	-52.9
3967.137	-51.9
3969.667	-55.9
3972.194	-48.9
3974.72	-55.9
3977.244	-53.9
3979.766	-61.9
3982.286	-62.9
3984.805	-62.9
3987.321	-54.9
3989.836	-50.9
3992.349	-61.9
3994.86	-62.9
3997.369	-60.9
3999.877	-54.9
4002.382	-56.9
4004.886	-51.9
4007.388	-58.9
4009.888	-55.9
4012.386	-57.9
4014.883	-52.9
4017.377	-51.9
4019.87	-56.9
4022.361	-59.9
4024.85	-56.9
4027.338	-58.9
4029.823	-60.9
4032.307	-59.9
4034.789	-57.9
4037.269	-59.9
4039.747	-55.9
4042.224	-54.9
4044.699	-56.9
4047.172	-55.9
4049.643	-56.9
4052.112	-56.9
4054.58	-54.9
4057.046	-52.9
4059.51	-62.9
4061.972	-59.9
4064.432	-58.9
4066.891	-53.9
4069.348	-53.9
4071.803	-53.9
4074.256	-56.9
4076.708	-55.9
4079.158	-58.9
4081.606	-54.9
4084.052	-54.9
4086.497	-48.9
4088.939	-54.9
4091.38	-58.9
4093.819	-60.9
4096.257	-57.9
4098.693	-61.9
4101.127	-53.9
4103.559	-65.9
4105.989	19.1
4108.418	12.1
4110.845	4.1
4113.27	4.1
4115.694	14.1
4118.115	16.1
4120.535	-55.9
4122.954	-55.9
4125.37	-57.9
4127.785	-48.9
4130.198	-54.9
4132.609	-58.9
4135.019	-55.9
4137.427	-58.9
4139.833	-56.9
4142.237	-60.9
