Data from 2018-3-7_conc=3_n=1_RamanShift_01.txt Node
Date: Wed Mar 07 11:15:22 IST 2018
User: aro
Spectrometer: QEPB0276
Trigger mode: 0
Integration Time (sec): 3.000000E1
Scans to average: 1
Electric dark correction enabled: true
Nonlinearity correction enabled: false
Boxcar width: 0
XAxis mode: Raman Shifts
Number of Pixels in Spectrum: 1044
>>>>>Begin Spectral Data<<<<<
160.701	17
166.742	24
172.777	54
178.805	145
184.826	373
190.841	781
196.849	1285
202.85	1674
208.845	1837
214.833	1836
220.815	1803
226.789	1817
232.758	1829
238.719	1828
244.674	1813
250.623	1827
256.565	1803
262.5	1774
268.429	1763
274.351	1750
280.267	1736
286.176	1741
292.079	1748
297.975	1732
303.865	1736
309.748	1743
315.625	1733
321.495	1737
327.359	1747
333.217	1739
339.068	1740
344.912	1749
350.751	1759
356.583	1760
362.408	1749
368.227	1778
374.04	1795
379.847	1790
385.647	1789
391.44	1801
397.228	1771
403.009	1825
408.784	1811
414.553	1848
420.315	1830
426.071	1846
431.821	1829
437.565	1833
443.302	1838
449.033	1830
454.758	1823
460.477	1811
466.189	1794
471.896	1782
477.596	1774
483.29	1770
488.978	1747
494.66	1757
500.335	1709
506.005	1657
511.668	1581
517.325	1543
522.977	1480
528.622	1437
534.261	1402
539.894	1369
545.521	1372
551.141	1361
556.756	1330
562.365	1335
567.968	1340
573.565	1316
579.155	1308
584.74	1297
590.319	1284
595.892	1304
601.459	1296
607.02	1296
612.575	1274
618.124	1257
623.667	1251
629.204	1225
634.735	1216
640.261	1204
645.781	1199
651.294	1207
656.802	1185
662.304	1187
667.8	1188
673.29	1190
678.775	1180
684.254	1178
689.726	1164
695.193	1174
700.655	1154
706.11	1153
711.56	1142
717.004	1137
722.442	1124
727.874	1114
733.301	1116
738.722	1102
744.137	1117
749.547	1110
754.951	1095
760.349	1109
765.741	1118
771.128	1121
776.509	1128
781.885	1139
787.254	1156
792.618	1158
797.977	1145
803.33	1139
808.677	1116
814.019	1125
819.355	1116
824.686	1109
830.011	1099
835.33	1107
840.644	1086
845.952	1083
851.255	1070
856.552	1079
861.844	1069
867.13	1043
872.41	1067
877.686	1045
882.955	1035
888.219	1036
893.478	1019
898.731	1013
903.979	1000
909.221	978
914.458	976
919.69	993
924.916	971
930.136	978
935.351	971
940.561	987
945.766	980
950.965	975
956.158	975
961.347	960
966.529	954
971.707	923
976.879	922
982.046	915
987.208	917
992.364	890
997.515	913
1002.66	912
1007.801	925
1012.936	933
1018.066	933
1023.19	925
1028.309	932
1033.423	927
1038.532	928
1043.636	927
1048.734	912
1053.827	902
1058.915	886
1063.998	878
1069.075	875
1074.147	885
1079.214	889
1084.276	872
1089.333	896
1094.385	885
1099.431	878
1104.472	885
1109.509	870
1114.54	866
1119.565	841
1124.586	846
1129.602	824
1134.613	840
1139.618	830
1144.619	809
1149.614	838
1154.604	817
1159.589	835
1164.57	837
1169.545	844
1174.515	833
1179.48	827
1184.44	833
1189.395	817
1194.345	798
1199.29	788
1204.23	808
1209.165	815
1214.095	805
1219.021	819
1223.941	826
1228.856	827
1233.766	828
1238.672	818
1243.572	826
1248.467	829
1253.358	799
1258.244	789
1263.124	776
1268	765
1272.871	759
1277.737	748
1282.599	747
1287.455	754
1292.306	746
1297.153	744
1301.995	754
1306.832	776
1311.664	768
1316.491	759
1321.314	763
1326.132	762
1330.945	747
1335.753	721
1340.556	711
1345.354	698
1350.148	697
1354.937	664
1359.722	661
1364.501	633
1369.276	631
1374.046	620
1378.811	625
1383.572	622
1388.327	614
1393.079	623
1397.825	624
1402.567	621
1407.304	638
1412.036	673
1416.764	626
1421.487	626
1426.205	628
1430.919	615
1435.628	637
1440.333	639
1445.032	642
1449.727	659
1454.418	645
1459.104	648
1463.785	644
1468.462	619
1473.134	608
1477.802	592
1482.465	578
1487.123	567
1491.777	543
1496.426	550
1501.071	529
1505.711	534
1510.347	529
1514.978	529
1519.604	519
1524.226	525
1528.844	519
1533.457	514
1538.065	514
1542.669	507
1547.269	518
1551.864	522
1556.454	532
1561.041	537
1565.622	537
1570.199	542
1574.772	543
1579.34	544
1583.904	557
1588.464	565
1593.019	567
1597.569	570
1602.115	566
1606.657	561
1611.195	563
1615.728	561
1620.256	559
1624.78	543
1629.3	562
1633.816	557
1638.327	564
1642.834	552
1647.336	554
1651.834	549
1656.328	543
1660.817	549
1665.302	539
1669.783	537
1674.259	523
1678.732	513
1683.199	487
1687.663	473
1692.122	437
1696.577	425
1701.028	410
1705.474	382
1709.917	378
1714.355	376
1718.788	371
1723.218	369
1727.643	381
1732.064	372
1736.481	374
1740.893	359
1745.301	350
1749.705	344
1754.105	338
1758.501	319
1762.893	327
1767.28	311
1771.663	316
1776.042	312
1780.417	308
1784.787	291
1789.154	296
1793.516	280
1797.874	275
1802.228	275
1806.578	272
1810.924	270
1815.266	266
1819.603	268
1823.937	271
1828.266	275
1832.591	276
1836.913	273
1841.23	281
1845.543	280
1849.852	284
1854.156	288
1858.457	289
1862.754	296
1867.047	282
1871.335	284
1875.62	285
1879.9	268
1884.177	271
1888.449	271
1892.718	271
1896.982	263
1901.243	251
1905.499	242
1909.752	238
1914	239
1918.245	239
1922.485	235
1926.722	218
1930.954	220
1935.183	230
1939.408	221
1943.628	220
1947.845	214
1952.058	229
1956.267	214
1960.472	218
1964.673	208
1968.87	211
1973.063	209
1977.252	214
1981.438	213
1985.619	214
1989.797	207
1993.971	215
1998.14	213
2002.306	215
2006.469	216
2010.627	215
2014.781	216
2018.932	211
2023.078	207
2027.221	216
2031.36	211
2035.495	212
2039.627	194
2043.754	199
2047.878	192
2051.998	201
2056.114	194
2060.226	186
2064.334	183
2068.439	180
2072.54	189
2076.637	193
2080.73	184
2084.82	184
2088.906	184
2092.988	177
2097.066	177
2101.14	177
2105.211	180
2109.278	166
2113.342	160
2117.401	162
2121.457	164
2125.509	169
2129.558	160
2133.602	166
2137.643	164
2141.681	161
2145.714	163
2149.744	161
2153.77	173
2157.793	170
2161.812	170
2165.827	166
2169.838	154
2173.846	152
2177.851	154
2181.851	162
2185.848	153
2189.841	148
2193.831	146
2197.817	152
2201.799	156
2205.778	151
2209.753	154
2213.725	152
2217.693	155
2221.657	150
2225.618	148
2229.575	142
2233.529	140
2237.479	149
2241.425	141
2245.368	142
2249.307	139
2253.243	134
2257.175	138
2261.104	131
2265.029	134
2268.95	133
2272.868	126
2276.783	128
2280.694	129
2284.601	119
2288.505	127
2292.405	120
2296.302	123
2300.195	126
2304.085	114
2307.971	123
2311.854	114
2315.734	107
2319.609	114
2323.482	113
2327.351	123
2331.216	125
2335.078	144
2338.937	122
2342.792	122
2346.643	114
2350.492	119
2354.336	118
2358.178	104
2362.015	112
2365.85	111
2369.681	113
2373.508	114
2377.333	122
2381.153	112
2384.971	110
2388.785	107
2392.595	113
2396.402	116
2400.206	110
2404.007	114
2407.804	116
2411.597	111
2415.388	111
2419.174	117
2422.958	112
2426.738	107
2430.515	112
2434.289	106
2438.059	104
2441.825	106
2445.589	97
2449.349	100
2453.106	106
2456.859	96
2460.61	97
2464.356	100
2468.1	94
2471.84	88
2475.577	92
2479.311	90
2483.041	92
2486.768	90
2490.492	89
2494.213	88
2497.93	91
2501.644	92
2505.355	80
2509.062	87
2512.766	87
2516.467	78
2520.165	82
2523.859	76
2527.551	76
2531.239	75
2534.923	68
2538.605	72
2542.283	68
2545.958	71
2549.63	71
2553.299	69
2556.964	61
2560.626	61
2564.285	65
2567.941	61
2571.594	63
2575.243	67
2578.89	61
2582.533	65
2586.173	56
2589.809	63
2593.443	60
2597.073	58
2600.701	61
2604.325	54
2607.946	43
2611.564	53
2615.178	55
2618.79	57
2622.398	54
2626.004	55
2629.606	57
2633.205	53
2636.801	50
2640.394	55
2643.983	55
2647.57	50
2651.153	43
2654.734	51
2658.311	53
2661.885	49
2665.456	53
2669.025	50
2672.589	44
2676.151	44
2679.71	45
2683.266	47
2686.819	54
2690.368	47
2693.915	41
2697.458	41
2700.999	44
2704.536	43
2708.071	40
2711.602	31
2715.13	28
2718.656	36
2722.178	36
2725.697	38
2729.214	35
2732.727	41
2736.237	37
2739.744	27
2743.249	36
2746.75	26
2750.248	31
2753.743	24
2757.236	26
2760.725	20
2764.211	18
2767.695	19
2771.175	19
2774.652	14
2778.127	17
2781.598	20
2785.067	16
2788.532	15
2791.995	21
2795.455	23
2798.911	18
2802.365	26
2805.816	25
2809.264	22
2812.709	24
2816.151	19
2819.59	35
2823.026	26
2826.46	24
2829.89	22
2833.318	22
2836.742	27
2840.164	19
2843.583	26
2846.999	25
2850.412	27
2853.822	23
2857.229	26
2860.634	20
2864.035	22
2867.434	23
2870.83	28
2874.223	31
2877.613	30
2881	36
2884.385	34
2887.766	41
2891.145	42
2894.521	40
2897.894	39
2901.264	35
2904.631	29
2907.996	29
2911.358	41
2914.717	34
2918.073	32
2921.426	28
2924.777	41
2928.124	43
2931.469	46
2934.811	51
2938.15	48
2941.487	54
2944.821	48
2948.152	53
2951.48	47
2954.805	48
2958.128	42
2961.447	44
2964.765	39
2968.079	39
2971.39	37
2974.699	38
2978.005	42
2981.308	45
2984.609	43
2987.907	44
2991.202	49
2994.494	47
2997.784	41
3001.07	40
3004.355	44
3007.636	50
3010.915	50
3014.191	40
3017.464	49
3020.734	48
3024.002	51
3027.267	58
3030.53	53
3033.789	55
3037.046	55
3040.301	52
3043.552	57
3046.801	66
3050.048	62
3053.291	63
3056.532	71
3059.771	68
3063.006	71
3066.239	82
3069.469	81
3072.697	81
3075.922	96
3079.144	87
3082.364	89
3085.581	92
3088.795	94
3092.007	103
3095.216	101
3098.423	101
3101.627	102
3104.828	112
3108.026	103
3111.222	113
3114.416	111
3117.607	121
3120.795	118
3123.98	123
3127.163	134
3130.344	126
3133.521	134
3136.696	140
3139.869	135
3143.039	139
3146.206	143
3149.371	144
3152.533	149
3155.693	151
3158.85	146
3162.005	153
3165.157	152
3168.306	149
3171.453	150
3174.597	147
3177.739	156
3180.878	157
3184.014	146
3187.149	151
3190.28	154
3193.409	149
3196.536	149
3199.659	157
3202.781	148
3205.9	149
3209.016	148
3212.13	149
3215.241	150
3218.35	145
3221.456	146
3224.56	148
3227.661	144
3230.76	138
3233.856	134
3236.95	129
3240.041	130
3243.13	133
3246.216	122
3249.3	128
3252.382	124
3255.46	123
3258.537	126
3261.611	113
3264.682	115
3267.751	122
3270.818	104
3273.882	112
3276.943	110
3280.002	111
3283.059	111
3286.113	108
3289.165	105
3292.214	104
3295.261	106
3298.306	105
3301.348	108
3304.387	103
3307.425	107
3310.459	92
3313.492	106
3316.521	101
3319.549	115
3322.574	100
3325.597	101
3328.617	94
3331.635	103
3334.65	104
3337.663	90
3340.674	108
3343.682	92
3346.688	89
3349.691	105
3352.692	97
3355.691	108
3358.687	100
3361.681	103
3364.673	95
3367.662	89
3370.649	101
3373.633	90
3376.615	85
3379.595	84
3382.572	79
3385.547	90
3388.52	83
3391.49	76
3394.458	72
3397.424	79
3400.387	76
3403.348	67
3406.307	64
3409.263	73
3412.217	79
3415.168	72
3418.118	59
3421.065	67
3424.009	63
3426.951	61
3429.891	59
3432.829	58
3435.764	61
3438.697	61
3441.628	46
3444.557	48
3447.483	50
3450.407	37
3453.328	42
3456.247	36
3459.164	36
3462.079	31
3464.991	30
3467.902	31
3470.809	27
3473.715	24
3476.618	21
3479.519	19
3482.418	19
3485.315	17
3488.209	8
3491.101	9
3493.99	17
3496.878	8
3499.763	0
3502.646	1
3505.527	7
3508.405	2
3511.281	1
3514.155	4
3517.027	-6
3519.897	4
3522.764	-3
3525.629	-9
3528.492	-14
3531.352	-17
3534.211	-16
3537.067	-15
3539.921	-12
3542.773	-28
3545.622	-22
3548.469	-16
3551.315	-14
3554.157	-16
3556.998	-21
3559.837	-23
3562.673	-26
3565.507	-20
3568.339	-24
3571.169	-23
3573.996	-24
3576.822	-37
3579.645	-26
3582.466	-32
3585.285	-32
3588.101	-33
3590.916	-27
3593.728	-34
3596.538	-32
3599.346	-38
3602.152	-32
3604.956	-35
3607.757	-30
3610.556	-36
3613.354	-46
3616.149	-42
3618.942	-35
3621.732	-39
3624.521	-36
3627.307	-37
3630.092	-41
3632.874	-38
3635.654	-42
3638.432	-35
3641.208	-41
3643.982	-40
3646.753	-45
3649.523	-42
3652.29	-43
3655.055	-41
3657.818	-52
3660.579	-42
3663.338	-40
3666.095	-43
3668.849	-47
3671.602	-48
3674.352	-37
3677.101	-43
3679.847	-47
3682.591	-49
3685.333	-44
3688.073	-53
3690.811	-45
3693.547	-50
3696.281	-49
3699.013	-49
3701.742	-50
3704.47	-46
3707.195	-50
3709.919	-50
3712.64	-47
3715.359	-44
3718.076	-50
3720.792	-50
3723.505	-54
3726.216	-50
3728.925	-56
3731.632	-49
3734.336	-54
3737.039	-47
3739.74	-54
3742.439	-47
3745.136	-54
3747.83	-50
3750.523	-53
3753.213	-61
3755.902	-50
3758.589	-53
3761.273	-54
3763.956	-56
3766.636	-50
3769.315	-51
3771.991	-54
3774.665	-57
3777.338	-52
3780.008	-52
3782.677	-55
3785.343	-55
3788.007	-54
3790.67	-50
3793.33	-53
3795.989	-53
3798.645	-57
3801.299	-53
3803.952	-52
3806.602	-59
3809.251	-53
3811.897	-55
3814.542	-64
3817.184	-51
3819.825	-53
3822.463	-51
3825.1	-47
3827.735	-56
3830.367	-48
3832.998	-61
3835.627	-50
3838.253	-54
3840.878	-50
3843.501	-50
3846.122	-58
3848.741	-59
3851.358	-53
3853.973	-48
3856.586	-45
3859.197	-55
3861.806	-53
3864.414	-56
3867.019	-54
3869.622	-51
3872.224	-43
3874.823	-33
3877.421	-31
3880.016	-10
3882.61	11
3885.202	5
3887.792	6
3890.38	-22
3892.966	-32
3895.55	-47
3898.132	-51
3900.713	-53
3903.291	-56
3905.868	-49
3908.442	-55
3911.015	-55
3913.586	-59
3916.155	-54
3918.722	-53
3921.287	-57
3923.85	-52
3926.411	-55
3928.971	-66
3931.528	-59
3934.084	-55
3936.638	-55
3939.19	-59
3941.74	-52
3944.288	-53
3946.834	-51
3949.378	-54
3951.921	-54
3954.462	-59
3957	-53
3959.537	-51
3962.072	-56
3964.606	-50
3967.137	-57
3969.667	-58
3972.194	-50
3974.72	-47
3977.244	-50
3979.766	-50
3982.286	-55
3984.805	-60
3987.321	-54
3989.836	-51
3992.349	-54
3994.86	-60
3997.369	-60
3999.877	-56
4002.382	-53
4004.886	-54
4007.388	-56
4009.888	-51
4012.386	-49
4014.883	-50
4017.377	-52
4019.87	-51
4022.361	-56
4024.85	-54
4027.338	-63
4029.823	-58
4032.307	-54
4034.789	-50
4037.269	-54
4039.747	-50
4042.224	-57
4044.699	-55
4047.172	-57
4049.643	-55
4052.112	-54
4054.58	-52
4057.046	-51
4059.51	-55
4061.972	-55
4064.432	-56
4066.891	-55
4069.348	-52
4071.803	-52
4074.256	-54
4076.708	-57
4079.158	-58
4081.606	-52
4084.052	-55
4086.497	-51
4088.939	-48
4091.38	-59
4093.819	-59
4096.257	-56
4098.693	-58
4101.127	-53
4103.559	-60
4105.989	25
4108.418	16
4110.845	10
4113.27	15
4115.694	15
4118.115	18
4120.535	-53
4122.954	-51
4125.37	-56
4127.785	-48
4130.198	-55
4132.609	-55
4135.019	-60
4137.427	-63
4139.833	-59
4142.237	-58
