Data from 2018-3-7_conc=6_n=1_RamanShift_04.txt Node
Date: Wed Mar 07 12:58:22 IST 2018
User: aro
Spectrometer: QEPB0276
Trigger mode: 0
Integration Time (sec): 3.000000E1
Scans to average: 1
Electric dark correction enabled: true
Nonlinearity correction enabled: false
Boxcar width: 0
XAxis mode: Raman Shifts
Number of Pixels in Spectrum: 1044
>>>>>Begin Spectral Data<<<<<
160.701	3.1
166.742	17.1
172.777	58.1
178.805	172.1
184.826	457.1
190.841	998.1
196.849	1677.1
202.85	2175.1
208.845	2375.1
214.833	2405.1
220.815	2350.1
226.789	2373.1
232.758	2351.1
238.719	2352.1
244.674	2328.1
250.623	2318.1
256.565	2267.1
262.5	2245.1
268.429	2220.1
274.351	2184.1
280.267	2187.1
286.176	2181.1
292.079	2173.1
297.975	2136.1
303.865	2158.1
309.748	2125.1
315.625	2126.1
321.495	2123.1
327.359	2128.1
333.217	2111.1
339.068	2133.1
344.912	2140.1
350.751	2124.1
356.583	2129.1
362.408	2140.1
368.227	2136.1
374.04	2122.1
379.847	2143.1
385.647	2136.1
391.44	2157.1
397.228	2172.1
403.009	2178.1
408.784	2172.1
414.553	2199.1
420.315	2196.1
426.071	2191.1
431.821	2193.1
437.565	2189.1
443.302	2190.1
449.033	2192.1
454.758	2166.1
460.477	2176.1
466.189	2160.1
471.896	2133.1
477.596	2136.1
483.29	2153.1
488.978	2115.1
494.66	2112.1
500.335	2096.1
506.005	2039.1
511.668	1989.1
517.325	1916.1
522.977	1886.1
528.622	1853.1
534.261	1820.1
539.894	1812.1
545.521	1795.1
551.141	1770.1
556.756	1769.1
562.365	1758.1
567.968	1763.1
573.565	1742.1
579.155	1736.1
584.74	1723.1
590.319	1715.1
595.892	1722.1
601.459	1703.1
607.02	1700.1
612.575	1701.1
618.124	1678.1
623.667	1662.1
629.204	1654.1
634.735	1624.1
640.261	1616.1
645.781	1606.1
651.294	1612.1
656.802	1615.1
662.304	1601.1
667.8	1615.1
673.29	1594.1
678.775	1588.1
684.254	1597.1
689.726	1600.1
695.193	1583.1
700.655	1563.1
706.11	1562.1
711.56	1559.1
717.004	1536.1
722.442	1524.1
727.874	1534.1
733.301	1534.1
738.722	1516.1
744.137	1518.1
749.547	1511.1
754.951	1492.1
760.349	1497.1
765.741	1518.1
771.128	1498.1
776.509	1520.1
781.885	1549.1
787.254	1530.1
792.618	1532.1
797.977	1521.1
803.33	1516.1
808.677	1523.1
814.019	1496.1
819.355	1475.1
824.686	1477.1
830.011	1454.1
835.33	1466.1
840.644	1456.1
845.952	1463.1
851.255	1467.1
856.552	1463.1
861.844	1452.1
867.13	1439.1
872.41	1451.1
877.686	1439.1
882.955	1431.1
888.219	1403.1
893.478	1385.1
898.731	1358.1
903.979	1349.1
909.221	1342.1
914.458	1341.1
919.69	1327.1
924.916	1341.1
930.136	1347.1
935.351	1343.1
940.561	1343.1
945.766	1355.1
950.965	1352.1
956.158	1338.1
961.347	1335.1
966.529	1314.1
971.707	1285.1
976.879	1248.1
982.046	1258.1
987.208	1248.1
992.364	1253.1
997.515	1247.1
1002.66	1273.1
1007.801	1270.1
1012.936	1280.1
1018.066	1283.1
1023.19	1288.1
1028.309	1284.1
1033.423	1295.1
1038.532	1273.1
1043.636	1268.1
1048.734	1259.1
1053.827	1236.1
1058.915	1228.1
1063.998	1218.1
1069.075	1211.1
1074.147	1203.1
1079.214	1218.1
1084.276	1219.1
1089.333	1219.1
1094.385	1224.1
1099.431	1226.1
1104.472	1210.1
1109.509	1224.1
1114.54	1192.1
1119.565	1191.1
1124.586	1164.1
1129.602	1152.1
1134.613	1145.1
1139.618	1151.1
1144.619	1128.1
1149.614	1146.1
1154.604	1139.1
1159.589	1151.1
1164.57	1141.1
1169.545	1170.1
1174.515	1160.1
1179.48	1153.1
1184.44	1137.1
1189.395	1128.1
1194.345	1110.1
1199.29	1093.1
1204.23	1120.1
1209.165	1111.1
1214.095	1109.1
1219.021	1125.1
1223.941	1143.1
1228.856	1130.1
1233.766	1157.1
1238.672	1147.1
1243.572	1126.1
1248.467	1140.1
1253.358	1128.1
1258.244	1101.1
1263.124	1084.1
1268	1079.1
1272.871	1069.1
1277.737	1047.1
1282.599	1048.1
1287.455	1027.1
1292.306	1042.1
1297.153	1065.1
1301.995	1059.1
1306.832	1065.1
1311.664	1064.1
1316.491	1069.1
1321.314	1070.1
1326.132	1073.1
1330.945	1035.1
1335.753	1033.1
1340.556	995.1
1345.354	990.1
1350.148	953.1
1354.937	936.1
1359.722	915.1
1364.501	882.1
1369.276	869.1
1374.046	848.1
1378.811	837.1
1383.572	844.1
1388.327	836.1
1393.079	848.1
1397.825	864.1
1402.567	866.1
1407.304	876.1
1412.036	874.1
1416.764	887.1
1421.487	877.1
1426.205	877.1
1430.919	884.1
1435.628	892.1
1440.333	895.1
1445.032	880.1
1449.727	905.1
1454.418	899.1
1459.104	895.1
1463.785	872.1
1468.462	859.1
1473.134	838.1
1477.802	812.1
1482.465	797.1
1487.123	798.1
1491.777	751.1
1496.426	763.1
1501.071	733.1
1505.711	721.1
1510.347	715.1
1514.978	714.1
1519.604	710.1
1524.226	704.1
1528.844	705.1
1533.457	692.1
1538.065	692.1
1542.669	693.1
1547.269	693.1
1551.864	698.1
1556.454	726.1
1561.041	724.1
1565.622	729.1
1570.199	746.1
1574.772	740.1
1579.34	772.1
1583.904	777.1
1588.464	800.1
1593.019	785.1
1597.569	787.1
1602.115	789.1
1606.657	782.1
1611.195	772.1
1615.728	777.1
1620.256	777.1
1624.78	779.1
1629.3	787.1
1633.816	763.1
1638.327	787.1
1642.834	775.1
1647.336	780.1
1651.834	784.1
1656.328	782.1
1660.817	763.1
1665.302	752.1
1669.783	733.1
1674.259	721.1
1678.732	698.1
1683.199	658.1
1687.663	652.1
1692.122	596.1
1696.577	569.1
1701.028	529.1
1705.474	498.1
1709.917	486.1
1714.355	481.1
1718.788	489.1
1723.218	496.1
1727.643	502.1
1732.064	497.1
1736.481	503.1
1740.893	486.1
1745.301	480.1
1749.705	473.1
1754.105	465.1
1758.501	444.1
1762.893	447.1
1767.28	436.1
1771.663	422.1
1776.042	423.1
1780.417	414.1
1784.787	396.1
1789.154	394.1
1793.516	375.1
1797.874	364.1
1802.228	358.1
1806.578	358.1
1810.924	348.1
1815.266	346.1
1819.603	350.1
1823.937	368.1
1828.266	374.1
1832.591	385.1
1836.913	380.1
1841.23	387.1
1845.543	383.1
1849.852	392.1
1854.156	384.1
1858.457	386.1
1862.754	387.1
1867.047	385.1
1871.335	376.1
1875.62	376.1
1879.9	374.1
1884.177	368.1
1888.449	361.1
1892.718	357.1
1896.982	348.1
1901.243	330.1
1905.499	338.1
1909.752	322.1
1914	315.1
1918.245	305.1
1922.485	303.1
1926.722	288.1
1930.954	290.1
1935.183	289.1
1939.408	282.1
1943.628	280.1
1947.845	280.1
1952.058	274.1
1956.267	265.1
1960.472	271.1
1964.673	271.1
1968.87	263.1
1973.063	282.1
1977.252	270.1
1981.438	279.1
1985.619	281.1
1989.797	278.1
1993.971	286.1
1998.14	289.1
2002.306	295.1
2006.469	294.1
2010.627	295.1
2014.781	293.1
2018.932	294.1
2023.078	298.1
2027.221	289.1
2031.36	286.1
2035.495	280.1
2039.627	273.1
2043.754	273.1
2047.878	270.1
2051.998	266.1
2056.114	272.1
2060.226	257.1
2064.334	252.1
2068.439	258.1
2072.54	252.1
2076.637	259.1
2080.73	249.1
2084.82	240.1
2088.906	238.1
2092.988	235.1
2097.066	233.1
2101.14	236.1
2105.211	230.1
2109.278	229.1
2113.342	210.1
2117.401	219.1
2121.457	216.1
2125.509	225.1
2129.558	214.1
2133.602	213.1
2137.643	230.1
2141.681	219.1
2145.714	218.1
2149.744	228.1
2153.77	224.1
2157.793	231.1
2161.812	229.1
2165.827	232.1
2169.838	220.1
2173.846	224.1
2177.851	215.1
2181.851	223.1
2185.848	223.1
2189.841	220.1
2193.831	215.1
2197.817	224.1
2201.799	215.1
2205.778	219.1
2209.753	219.1
2213.725	215.1
2217.693	215.1
2221.657	218.1
2225.618	212.1
2229.575	208.1
2233.529	206.1
2237.479	215.1
2241.425	198.1
2245.368	199.1
2249.307	205.1
2253.243	199.1
2257.175	198.1
2261.104	194.1
2265.029	191.1
2268.95	196.1
2272.868	190.1
2276.783	188.1
2280.694	186.1
2284.601	179.1
2288.505	183.1
2292.405	185.1
2296.302	184.1
2300.195	176.1
2304.085	169.1
2307.971	168.1
2311.854	167.1
2315.734	168.1
2319.609	176.1
2323.482	169.1
2327.351	167.1
2331.216	171.1
2335.078	183.1
2338.937	178.1
2342.792	177.1
2346.643	174.1
2350.492	182.1
2354.336	177.1
2358.178	170.1
2362.015	176.1
2365.85	175.1
2369.681	184.1
2373.508	190.1
2377.333	178.1
2381.153	181.1
2384.971	181.1
2388.785	169.1
2392.595	173.1
2396.402	182.1
2400.206	178.1
2404.007	176.1
2407.804	174.1
2411.597	176.1
2415.388	175.1
2419.174	179.1
2422.958	176.1
2426.738	174.1
2430.515	177.1
2434.289	180.1
2438.059	169.1
2441.825	171.1
2445.589	164.1
2449.349	161.1
2453.106	170.1
2456.859	157.1
2460.61	153.1
2464.356	153.1
2468.1	156.1
2471.84	149.1
2475.577	147.1
2479.311	154.1
2483.041	147.1
2486.768	142.1
2490.492	144.1
2494.213	142.1
2497.93	154.1
2501.644	141.1
2505.355	140.1
2509.062	136.1
2512.766	143.1
2516.467	139.1
2520.165	129.1
2523.859	138.1
2527.551	125.1
2531.239	131.1
2534.923	119.1
2538.605	111.1
2542.283	113.1
2545.958	117.1
2549.63	110.1
2553.299	111.1
2556.964	107.1
2560.626	107.1
2564.285	111.1
2567.941	105.1
2571.594	107.1
2575.243	110.1
2578.89	107.1
2582.533	99.1
2586.173	102.1
2589.809	107.1
2593.443	102.1
2597.073	106.1
2600.701	93.1
2604.325	92.1
2607.946	80.1
2611.564	93.1
2615.178	95.1
2618.79	92.1
2622.398	95.1
2626.004	95.1
2629.606	84.1
2633.205	94.1
2636.801	85.1
2640.394	96.1
2643.983	88.1
2647.57	87.1
2651.153	88.1
2654.734	86.1
2658.311	90.1
2661.885	85.1
2665.456	91.1
2669.025	90.1
2672.589	78.1
2676.151	81.1
2679.71	83.1
2683.266	78.1
2686.819	78.1
2690.368	81.1
2693.915	73.1
2697.458	66.1
2700.999	85.1
2704.536	67.1
2708.071	80.1
2711.602	67.1
2715.13	58.1
2718.656	62.1
2722.178	63.1
2725.697	65.1
2729.214	58.1
2732.727	71.1
2736.237	61.1
2739.744	52.1
2743.249	55.1
2746.75	52.1
2750.248	49.1
2753.743	41.1
2757.236	40.1
2760.725	48.1
2764.211	38.1
2767.695	35.1
2771.175	36.1
2774.652	39.1
2778.127	37.1
2781.598	32.1
2785.067	37.1
2788.532	45.1
2791.995	45.1
2795.455	39.1
2798.911	48.1
2802.365	47.1
2805.816	44.1
2809.264	48.1
2812.709	42.1
2816.151	49.1
2819.59	54.1
2823.026	43.1
2826.46	48.1
2829.89	48.1
2833.318	42.1
2836.742	51.1
2840.164	40.1
2843.583	46.1
2846.999	47.1
2850.412	43.1
2853.822	47.1
2857.229	51.1
2860.634	40.1
2864.035	48.1
2867.434	46.1
2870.83	55.1
2874.223	54.1
2877.613	50.1
2881	55.1
2884.385	64.1
2887.766	60.1
2891.145	58.1
2894.521	68.1
2897.894	64.1
2901.264	58.1
2904.631	57.1
2907.996	65.1
2911.358	71.1
2914.717	69.1
2918.073	63.1
2921.426	70.1
2924.777	79.1
2928.124	80.1
2931.469	74.1
2934.811	81.1
2938.15	86.1
2941.487	86.1
2944.821	85.1
2948.152	90.1
2951.48	78.1
2954.805	80.1
2958.128	82.1
2961.447	74.1
2964.765	70.1
2968.079	71.1
2971.39	78.1
2974.699	65.1
2978.005	79.1
2981.308	78.1
2984.609	70.1
2987.907	72.1
2991.202	75.1
2994.494	68.1
2997.784	65.1
3001.07	76.1
3004.355	67.1
3007.636	81.1
3010.915	81.1
3014.191	71.1
3017.464	82.1
3020.734	83.1
3024.002	79.1
3027.267	79.1
3030.53	90.1
3033.789	84.1
3037.046	85.1
3040.301	94.1
3043.552	99.1
3046.801	99.1
3050.048	102.1
3053.291	106.1
3056.532	109.1
3059.771	110.1
3063.006	121.1
3066.239	131.1
3069.469	131.1
3072.697	133.1
3075.922	133.1
3079.144	134.1
3082.364	146.1
3085.581	139.1
3088.795	144.1
3092.007	148.1
3095.216	155.1
3098.423	149.1
3101.627	151.1
3104.828	167.1
3108.026	168.1
3111.222	161.1
3114.416	167.1
3117.607	177.1
3120.795	176.1
3123.98	186.1
3127.163	197.1
3130.344	188.1
3133.521	196.1
3136.696	203.1
3139.869	205.1
3143.039	200.1
3146.206	213.1
3149.371	211.1
3152.533	212.1
3155.693	218.1
3158.85	216.1
3162.005	227.1
3165.157	218.1
3168.306	220.1
3171.453	211.1
3174.597	228.1
3177.739	217.1
3180.878	229.1
3184.014	216.1
3187.149	224.1
3190.28	231.1
3193.409	234.1
3196.536	234.1
3199.659	235.1
3202.781	230.1
3205.9	230.1
3209.016	225.1
3212.13	226.1
3215.241	225.1
3218.35	222.1
3221.456	222.1
3224.56	215.1
3227.661	216.1
3230.76	212.1
3233.856	205.1
3236.95	203.1
3240.041	200.1
3243.13	197.1
3246.216	183.1
3249.3	185.1
3252.382	192.1
3255.46	178.1
3258.537	180.1
3261.611	179.1
3264.682	184.1
3267.751	180.1
3270.818	172.1
3273.882	176.1
3276.943	159.1
3280.002	171.1
3283.059	168.1
3286.113	170.1
3289.165	165.1
3292.214	158.1
3295.261	160.1
3298.306	165.1
3301.348	159.1
3304.387	156.1
3307.425	158.1
3310.459	158.1
3313.492	160.1
3316.521	154.1
3319.549	164.1
3322.574	148.1
3325.597	155.1
3328.617	157.1
3331.635	165.1
3334.65	162.1
3337.663	148.1
3340.674	166.1
3343.682	162.1
3346.688	153.1
3349.691	164.1
3352.692	152.1
3355.691	162.1
3358.687	162.1
3361.681	155.1
3364.673	152.1
3367.662	148.1
3370.649	144.1
3373.633	138.1
3376.615	146.1
3379.595	140.1
3382.572	128.1
3385.547	139.1
3388.52	125.1
3391.49	139.1
3394.458	121.1
3397.424	132.1
3400.387	124.1
3403.348	117.1
3406.307	116.1
3409.263	121.1
3412.217	122.1
3415.168	119.1
3418.118	114.1
3421.065	107.1
3424.009	107.1
3426.951	105.1
3429.891	97.1
3432.829	108.1
3435.764	101.1
3438.697	95.1
3441.628	85.1
3444.557	89.1
3447.483	89.1
3450.407	77.1
3453.328	75.1
3456.247	72.1
3459.164	69.1
3462.079	62.1
3464.991	59.1
3467.902	54.1
3470.809	62.1
3473.715	50.1
3476.618	51.1
3479.519	43.1
3482.418	40.1
3485.315	44.1
3488.209	26.1
3491.101	30.1
3493.99	32.1
3496.878	24.1
3499.763	22.1
3502.646	24.1
3505.527	19.1
3508.405	19.1
3511.281	19.1
3514.155	10.1
3517.027	5.1
3519.897	8.1
3522.764	3.1
3525.629	6.1
3528.492	1.1
3531.352	-8.9
3534.211	-6.9
3537.067	-9.9
3539.921	0.1
3542.773	-11.9
3545.622	-7.9
3548.469	-8.9
3551.315	-10.9
3554.157	-14.9
3556.998	-14.9
3559.837	-22.9
3562.673	-22.9
3565.507	-21.9
3568.339	-14.9
3571.169	-25.9
3573.996	-14.9
3576.822	-36.9
3579.645	-32.9
3582.466	-27.9
3585.285	-28.9
3588.101	-32.9
3590.916	-24.9
3593.728	-28.9
3596.538	-30.9
3599.346	-34.9
3602.152	-29.9
3604.956	-36.9
3607.757	-27.9
3610.556	-31.9
3613.354	-37.9
3616.149	-44.9
3618.942	-35.9
3621.732	-44.9
3624.521	-37.9
3627.307	-41.9
3630.092	-39.9
3632.874	-43.9
3635.654	-47.9
3638.432	-34.9
3641.208	-34.9
3643.982	-34.9
3646.753	-41.9
3649.523	-38.9
3652.29	-40.9
3655.055	-41.9
3657.818	-44.9
3660.579	-41.9
3663.338	-39.9
3666.095	-48.9
3668.849	-48.9
3671.602	-46.9
3674.352	-48.9
3677.101	-48.9
3679.847	-51.9
3682.591	-45.9
3685.333	-50.9
3688.073	-52.9
3690.811	-52.9
3693.547	-52.9
3696.281	-48.9
3699.013	-47.9
3701.742	-54.9
3704.47	-47.9
3707.195	-49.9
3709.919	-56.9
3712.64	-50.9
3715.359	-52.9
3718.076	-53.9
3720.792	-53.9
3723.505	-52.9
3726.216	-48.9
3728.925	-65.9
3731.632	-54.9
3734.336	-53.9
3737.039	-51.9
3739.74	-54.9
3742.439	-72.9
3745.136	-55.9
3747.83	-56.9
3750.523	-55.9
3753.213	-65.9
3755.902	-56.9
3758.589	-52.9
3761.273	-53.9
3763.956	-52.9
3766.636	-52.9
3769.315	-51.9
3771.991	-56.9
3774.665	-56.9
3777.338	-57.9
3780.008	-56.9
3782.677	-61.9
3785.343	-58.9
3788.007	-59.9
3790.67	-60.9
3793.33	-60.9
3795.989	-60.9
3798.645	-56.9
3801.299	-55.9
3803.952	-55.9
3806.602	-59.9
3809.251	-58.9
3811.897	-57.9
3814.542	-60.9
3817.184	-61.9
3819.825	-51.9
3822.463	-55.9
3825.1	-52.9
3827.735	-63.9
3830.367	-59.9
3832.998	-61.9
3835.627	-60.9
3838.253	-55.9
3840.878	-53.9
3843.501	-54.9
3846.122	-63.9
3848.741	-60.9
3851.358	-57.9
3853.973	-56.9
3856.586	-58.9
3859.197	-56.9
3861.806	-54.9
3864.414	-58.9
3867.019	-59.9
3869.622	-52.9
3872.224	-53.9
3874.823	-43.9
3877.421	-43.9
3880.016	-31.9
3882.61	-18.9
3885.202	-20.9
3887.792	-21.9
3890.38	-36.9
3892.966	-49.9
3895.55	-56.9
3898.132	-55.9
3900.713	-60.9
3903.291	-61.9
3905.868	-54.9
3908.442	-57.9
3911.015	-62.9
3913.586	-66.9
3916.155	-61.9
3918.722	-60.9
3921.287	-59.9
3923.85	-53.9
3926.411	-60.9
3928.971	-69.9
3931.528	-59.9
3934.084	-55.9
3936.638	-53.9
3939.19	-65.9
3941.74	-57.9
3944.288	-58.9
3946.834	-56.9
3949.378	-58.9
3951.921	-64.9
3954.462	-59.9
3957	-61.9
3959.537	-56.9
3962.072	-57.9
3964.606	-60.9
3967.137	-55.9
3969.667	-62.9
3972.194	-54.9
3974.72	-55.9
3977.244	-54.9
3979.766	-55.9
3982.286	-58.9
3984.805	-62.9
3987.321	-58.9
3989.836	-52.9
3992.349	-59.9
3994.86	-65.9
3997.369	-60.9
3999.877	-55.9
4002.382	-56.9
4004.886	-57.9
4007.388	-59.9
4009.888	-55.9
4012.386	-62.9
4014.883	-58.9
4017.377	-53.9
4019.87	-59.9
4022.361	-64.9
4024.85	-59.9
4027.338	-64.9
4029.823	-61.9
4032.307	-58.9
4034.789	-55.9
4037.269	-56.9
4039.747	-63.9
4042.224	-58.9
4044.699	-58.9
4047.172	-59.9
4049.643	-56.9
4052.112	-57.9
4054.58	-55.9
4057.046	-52.9
4059.51	-58.9
4061.972	-62.9
4064.432	-59.9
4066.891	-54.9
4069.348	-57.9
4071.803	-51.9
4074.256	-53.9
4076.708	-58.9
4079.158	-61.9
4081.606	-61.9
4084.052	-57.9
4086.497	-53.9
4088.939	-61.9
4091.38	-60.9
4093.819	-65.9
4096.257	-64.9
4098.693	-61.9
4101.127	-57.9
4103.559	-63.9
4105.989	-8.9
4108.418	-11.9
4110.845	-11.9
4113.27	-8.9
4115.694	-4.9
4118.115	3.1
4120.535	-60.9
4122.954	-52.9
4125.37	-56.9
4127.785	-53.9
4130.198	-56.9
4132.609	-58.9
4135.019	-58.9
4137.427	-63.9
4139.833	-63.9
4142.237	-63.9
