Data from 2018-3-7_conc=6_n=1_RamanShift_01.txt Node
Date: Wed Mar 07 12:56:52 IST 2018
User: aro
Spectrometer: QEPB0276
Trigger mode: 0
Integration Time (sec): 3.000000E1
Scans to average: 1
Electric dark correction enabled: true
Nonlinearity correction enabled: false
Boxcar width: 0
XAxis mode: Raman Shifts
Number of Pixels in Spectrum: 1044
>>>>>Begin Spectral Data<<<<<
160.701	1.6
166.742	22.6
172.777	57.6
178.805	178.6
184.826	502.6
190.841	1070.6
196.849	1816.6
202.85	2372.6
208.845	2572.6
214.833	2566.6
220.815	2531.6
226.789	2503.6
232.758	2492.6
238.719	2495.6
244.674	2485.6
250.623	2447.6
256.565	2411.6
262.5	2358.6
268.429	2339.6
274.351	2309.6
280.267	2276.6
286.176	2279.6
292.079	2277.6
297.975	2244.6
303.865	2244.6
309.748	2220.6
315.625	2219.6
321.495	2207.6
327.359	2206.6
333.217	2206.6
339.068	2234.6
344.912	2209.6
350.751	2223.6
356.583	2209.6
362.408	2192.6
368.227	2221.6
374.04	2227.6
379.847	2227.6
385.647	2237.6
391.44	2224.6
397.228	2256.6
403.009	2277.6
408.784	2270.6
414.553	2288.6
420.315	2282.6
426.071	2283.6
431.821	2306.6
437.565	2266.6
443.302	2276.6
449.033	2274.6
454.758	2269.6
460.477	2239.6
466.189	2234.6
471.896	2239.6
477.596	2204.6
483.29	2209.6
488.978	2208.6
494.66	2200.6
500.335	2165.6
506.005	2109.6
511.668	2067.6
517.325	2017.6
522.977	1959.6
528.622	1929.6
534.261	1895.6
539.894	1906.6
545.521	1864.6
551.141	1859.6
556.756	1851.6
562.365	1836.6
567.968	1814.6
573.565	1817.6
579.155	1804.6
584.74	1806.6
590.319	1783.6
595.892	1790.6
601.459	1771.6
607.02	1772.6
612.575	1733.6
618.124	1743.6
623.667	1736.6
629.204	1719.6
634.735	1714.6
640.261	1691.6
645.781	1677.6
651.294	1671.6
656.802	1660.6
662.304	1684.6
667.8	1676.6
673.29	1667.6
678.775	1673.6
684.254	1642.6
689.726	1648.6
695.193	1656.6
700.655	1620.6
706.11	1622.6
711.56	1605.6
717.004	1600.6
722.442	1590.6
727.874	1574.6
733.301	1573.6
738.722	1581.6
744.137	1566.6
749.547	1578.6
754.951	1547.6
760.349	1549.6
765.741	1576.6
771.128	1579.6
776.509	1591.6
781.885	1593.6
787.254	1590.6
792.618	1592.6
797.977	1584.6
803.33	1577.6
808.677	1565.6
814.019	1555.6
819.355	1548.6
824.686	1536.6
830.011	1536.6
835.33	1526.6
840.644	1520.6
845.952	1538.6
851.255	1520.6
856.552	1510.6
861.844	1501.6
867.13	1481.6
872.41	1489.6
877.686	1481.6
882.955	1484.6
888.219	1472.6
893.478	1438.6
898.731	1424.6
903.979	1405.6
909.221	1394.6
914.458	1382.6
919.69	1383.6
924.916	1408.6
930.136	1397.6
935.351	1403.6
940.561	1397.6
945.766	1389.6
950.965	1396.6
956.158	1385.6
961.347	1359.6
966.529	1346.6
971.707	1331.6
976.879	1313.6
982.046	1301.6
987.208	1283.6
992.364	1289.6
997.515	1289.6
1002.66	1291.6
1007.801	1320.6
1012.936	1339.6
1018.066	1343.6
1023.19	1332.6
1028.309	1332.6
1033.423	1313.6
1038.532	1302.6
1043.636	1308.6
1048.734	1292.6
1053.827	1275.6
1058.915	1263.6
1063.998	1242.6
1069.075	1225.6
1074.147	1245.6
1079.214	1265.6
1084.276	1257.6
1089.333	1261.6
1094.385	1271.6
1099.431	1265.6
1104.472	1264.6
1109.509	1252.6
1114.54	1227.6
1119.565	1221.6
1124.586	1210.6
1129.602	1192.6
1134.613	1178.6
1139.618	1184.6
1144.619	1169.6
1149.614	1186.6
1154.604	1172.6
1159.589	1197.6
1164.57	1203.6
1169.545	1180.6
1174.515	1181.6
1179.48	1179.6
1184.44	1178.6
1189.395	1160.6
1194.345	1155.6
1199.29	1139.6
1204.23	1164.6
1209.165	1158.6
1214.095	1157.6
1219.021	1169.6
1223.941	1175.6
1228.856	1180.6
1233.766	1182.6
1238.672	1191.6
1243.572	1169.6
1248.467	1173.6
1253.358	1152.6
1258.244	1144.6
1263.124	1131.6
1268	1094.6
1272.871	1097.6
1277.737	1084.6
1282.599	1085.6
1287.455	1080.6
1292.306	1082.6
1297.153	1096.6
1301.995	1085.6
1306.832	1101.6
1311.664	1095.6
1316.491	1121.6
1321.314	1107.6
1326.132	1098.6
1330.945	1064.6
1335.753	1057.6
1340.556	1032.6
1345.354	1025.6
1350.148	984.6
1354.937	953.6
1359.722	923.6
1364.501	899.6
1369.276	888.6
1374.046	870.6
1378.811	860.6
1383.572	874.6
1388.327	868.6
1393.079	871.6
1397.825	884.6
1402.567	894.6
1407.304	909.6
1412.036	900.6
1416.764	901.6
1421.487	908.6
1426.205	912.6
1430.919	917.6
1435.628	911.6
1440.333	930.6
1445.032	924.6
1449.727	930.6
1454.418	941.6
1459.104	930.6
1463.785	905.6
1468.462	889.6
1473.134	856.6
1477.802	837.6
1482.465	809.6
1487.123	804.6
1491.777	767.6
1496.426	765.6
1501.071	766.6
1505.711	742.6
1510.347	746.6
1514.978	731.6
1519.604	730.6
1524.226	731.6
1528.844	720.6
1533.457	714.6
1538.065	714.6
1542.669	718.6
1547.269	718.6
1551.864	744.6
1556.454	741.6
1561.041	760.6
1565.622	767.6
1570.199	761.6
1574.772	778.6
1579.34	796.6
1583.904	803.6
1588.464	829.6
1593.019	815.6
1597.569	840.6
1602.115	825.6
1606.657	830.6
1611.195	814.6
1615.728	821.6
1620.256	815.6
1624.78	821.6
1629.3	812.6
1633.816	819.6
1638.327	823.6
1642.834	814.6
1647.336	815.6
1651.834	803.6
1656.328	794.6
1660.817	804.6
1665.302	779.6
1669.783	769.6
1674.259	747.6
1678.732	720.6
1683.199	689.6
1687.663	658.6
1692.122	617.6
1696.577	589.6
1701.028	559.6
1705.474	522.6
1709.917	503.6
1714.355	493.6
1718.788	499.6
1723.218	501.6
1727.643	510.6
1732.064	508.6
1736.481	505.6
1740.893	504.6
1745.301	490.6
1749.705	487.6
1754.105	470.6
1758.501	454.6
1762.893	454.6
1767.28	436.6
1771.663	427.6
1776.042	420.6
1780.417	418.6
1784.787	407.6
1789.154	392.6
1793.516	374.6
1797.874	374.6
1802.228	363.6
1806.578	350.6
1810.924	354.6
1815.266	362.6
1819.603	372.6
1823.937	363.6
1828.266	383.6
1832.591	383.6
1836.913	382.6
1841.23	393.6
1845.543	376.6
1849.852	391.6
1854.156	381.6
1858.457	390.6
1862.754	392.6
1867.047	387.6
1871.335	393.6
1875.62	385.6
1879.9	379.6
1884.177	363.6
1888.449	380.6
1892.718	368.6
1896.982	347.6
1901.243	347.6
1905.499	339.6
1909.752	327.6
1914	318.6
1918.245	308.6
1922.485	303.6
1926.722	298.6
1930.954	293.6
1935.183	284.6
1939.408	289.6
1943.628	273.6
1947.845	273.6
1952.058	275.6
1956.267	275.6
1960.472	273.6
1964.673	265.6
1968.87	274.6
1973.063	280.6
1977.252	287.6
1981.438	287.6
1985.619	280.6
1989.797	288.6
1993.971	294.6
1998.14	299.6
2002.306	290.6
2006.469	308.6
2010.627	298.6
2014.781	296.6
2018.932	303.6
2023.078	297.6
2027.221	301.6
2031.36	292.6
2035.495	281.6
2039.627	280.6
2043.754	277.6
2047.878	271.6
2051.998	283.6
2056.114	262.6
2060.226	265.6
2064.334	265.6
2068.439	254.6
2072.54	256.6
2076.637	259.6
2080.73	246.6
2084.82	248.6
2088.906	240.6
2092.988	242.6
2097.066	230.6
2101.14	242.6
2105.211	226.6
2109.278	224.6
2113.342	221.6
2117.401	226.6
2121.457	222.6
2125.509	223.6
2129.558	217.6
2133.602	225.6
2137.643	238.6
2141.681	228.6
2145.714	234.6
2149.744	232.6
2153.77	231.6
2157.793	231.6
2161.812	240.6
2165.827	236.6
2169.838	222.6
2173.846	223.6
2177.851	224.6
2181.851	227.6
2185.848	222.6
2189.841	219.6
2193.831	211.6
2197.817	223.6
2201.799	221.6
2205.778	212.6
2209.753	216.6
2213.725	213.6
2217.693	223.6
2221.657	217.6
2225.618	214.6
2229.575	212.6
2233.529	215.6
2237.479	219.6
2241.425	206.6
2245.368	208.6
2249.307	209.6
2253.243	197.6
2257.175	199.6
2261.104	184.6
2265.029	198.6
2268.95	198.6
2272.868	187.6
2276.783	191.6
2280.694	177.6
2284.601	181.6
2288.505	178.6
2292.405	187.6
2296.302	186.6
2300.195	178.6
2304.085	185.6
2307.971	172.6
2311.854	180.6
2315.734	169.6
2319.609	175.6
2323.482	174.6
2327.351	172.6
2331.216	184.6
2335.078	192.6
2338.937	180.6
2342.792	171.6
2346.643	177.6
2350.492	171.6
2354.336	176.6
2358.178	172.6
2362.015	170.6
2365.85	173.6
2369.681	177.6
2373.508	185.6
2377.333	180.6
2381.153	188.6
2384.971	179.6
2388.785	167.6
2392.595	180.6
2396.402	182.6
2400.206	179.6
2404.007	179.6
2407.804	168.6
2411.597	181.6
2415.388	172.6
2419.174	174.6
2422.958	169.6
2426.738	167.6
2430.515	164.6
2434.289	171.6
2438.059	166.6
2441.825	160.6
2445.589	162.6
2449.349	163.6
2453.106	158.6
2456.859	158.6
2460.61	157.6
2464.356	156.6
2468.1	147.6
2471.84	153.6
2475.577	142.6
2479.311	148.6
2483.041	149.6
2486.768	140.6
2490.492	155.6
2494.213	139.6
2497.93	141.6
2501.644	145.6
2505.355	135.6
2509.062	136.6
2512.766	133.6
2516.467	125.6
2520.165	128.6
2523.859	131.6
2527.551	126.6
2531.239	121.6
2534.923	113.6
2538.605	113.6
2542.283	117.6
2545.958	113.6
2549.63	114.6
2553.299	110.6
2556.964	106.6
2560.626	105.6
2564.285	107.6
2567.941	98.6
2571.594	100.6
2575.243	108.6
2578.89	106.6
2582.533	99.6
2586.173	100.6
2589.809	100.6
2593.443	108.6
2597.073	96.6
2600.701	100.6
2604.325	89.6
2607.946	84.6
2611.564	95.6
2615.178	94.6
2618.79	101.6
2622.398	90.6
2626.004	91.6
2629.606	86.6
2633.205	87.6
2636.801	81.6
2640.394	90.6
2643.983	88.6
2647.57	87.6
2651.153	86.6
2654.734	91.6
2658.311	85.6
2661.885	82.6
2665.456	87.6
2669.025	93.6
2672.589	88.6
2676.151	79.6
2679.71	79.6
2683.266	79.6
2686.819	78.6
2690.368	78.6
2693.915	75.6
2697.458	71.6
2700.999	73.6
2704.536	79.6
2708.071	74.6
2711.602	64.6
2715.13	61.6
2718.656	62.6
2722.178	64.6
2725.697	62.6
2729.214	61.6
2732.727	67.6
2736.237	58.6
2739.744	52.6
2743.249	57.6
2746.75	52.6
2750.248	46.6
2753.743	44.6
2757.236	39.6
2760.725	45.6
2764.211	45.6
2767.695	33.6
2771.175	37.6
2774.652	37.6
2778.127	41.6
2781.598	35.6
2785.067	38.6
2788.532	37.6
2791.995	47.6
2795.455	36.6
2798.911	44.6
2802.365	46.6
2805.816	39.6
2809.264	46.6
2812.709	39.6
2816.151	51.6
2819.59	58.6
2823.026	43.6
2826.46	45.6
2829.89	49.6
2833.318	43.6
2836.742	44.6
2840.164	46.6
2843.583	44.6
2846.999	50.6
2850.412	50.6
2853.822	43.6
2857.229	51.6
2860.634	48.6
2864.035	43.6
2867.434	46.6
2870.83	58.6
2874.223	52.6
2877.613	60.6
2881	65.6
2884.385	74.6
2887.766	68.6
2891.145	57.6
2894.521	64.6
2897.894	60.6
2901.264	60.6
2904.631	63.6
2907.996	65.6
2911.358	74.6
2914.717	68.6
2918.073	74.6
2921.426	76.6
2924.777	77.6
2928.124	80.6
2931.469	82.6
2934.811	92.6
2938.15	84.6
2941.487	95.6
2944.821	90.6
2948.152	91.6
2951.48	77.6
2954.805	85.6
2958.128	76.6
2961.447	88.6
2964.765	79.6
2968.079	78.6
2971.39	83.6
2974.699	81.6
2978.005	86.6
2981.308	78.6
2984.609	77.6
2987.907	81.6
2991.202	79.6
2994.494	75.6
2997.784	76.6
3001.07	74.6
3004.355	78.6
3007.636	89.6
3010.915	84.6
3014.191	80.6
3017.464	82.6
3020.734	92.6
3024.002	90.6
3027.267	89.6
3030.53	101.6
3033.789	97.6
3037.046	104.6
3040.301	102.6
3043.552	111.6
3046.801	116.6
3050.048	123.6
3053.291	114.6
3056.532	125.6
3059.771	131.6
3063.006	135.6
3066.239	140.6
3069.469	147.6
3072.697	148.6
3075.922	153.6
3079.144	154.6
3082.364	158.6
3085.581	155.6
3088.795	160.6
3092.007	169.6
3095.216	170.6
3098.423	175.6
3101.627	175.6
3104.828	187.6
3108.026	191.6
3111.222	190.6
3114.416	192.6
3117.607	196.6
3120.795	205.6
3123.98	194.6
3127.163	224.6
3130.344	227.6
3133.521	220.6
3136.696	229.6
3139.869	234.6
3143.039	239.6
3146.206	236.6
3149.371	230.6
3152.533	243.6
3155.693	252.6
3158.85	252.6
3162.005	247.6
3165.157	247.6
3168.306	249.6
3171.453	254.6
3174.597	251.6
3177.739	263.6
3180.878	262.6
3184.014	252.6
3187.149	261.6
3190.28	259.6
3193.409	258.6
3196.536	257.6
3199.659	266.6
3202.781	266.6
3205.9	258.6
3209.016	260.6
3212.13	255.6
3215.241	247.6
3218.35	252.6
3221.456	253.6
3224.56	241.6
3227.661	245.6
3230.76	230.6
3233.856	238.6
3236.95	222.6
3240.041	220.6
3243.13	236.6
3246.216	218.6
3249.3	215.6
3252.382	213.6
3255.46	217.6
3258.537	204.6
3261.611	202.6
3264.682	206.6
3267.751	195.6
3270.818	188.6
3273.882	197.6
3276.943	188.6
3280.002	194.6
3283.059	190.6
3286.113	182.6
3289.165	181.6
3292.214	184.6
3295.261	193.6
3298.306	187.6
3301.348	190.6
3304.387	187.6
3307.425	180.6
3310.459	173.6
3313.492	187.6
3316.521	183.6
3319.549	192.6
3322.574	174.6
3325.597	188.6
3328.617	180.6
3331.635	180.6
3334.65	190.6
3337.663	177.6
3340.674	183.6
3343.682	181.6
3346.688	182.6
3349.691	182.6
3352.692	183.6
3355.691	179.6
3358.687	181.6
3361.681	174.6
3364.673	176.6
3367.662	166.6
3370.649	167.6
3373.633	164.6
3376.615	166.6
3379.595	166.6
3382.572	154.6
3385.547	160.6
3388.52	158.6
3391.49	150.6
3394.458	143.6
3397.424	146.6
3400.387	146.6
3403.348	140.6
3406.307	127.6
3409.263	133.6
3412.217	131.6
3415.168	139.6
3418.118	119.6
3421.065	132.6
3424.009	127.6
3426.951	120.6
3429.891	117.6
3432.829	112.6
3435.764	113.6
3438.697	110.6
3441.628	106.6
3444.557	107.6
3447.483	104.6
3450.407	86.6
3453.328	89.6
3456.247	84.6
3459.164	77.6
3462.079	71.6
3464.991	67.6
3467.902	65.6
3470.809	66.6
3473.715	64.6
3476.618	53.6
3479.519	50.6
3482.418	48.6
3485.315	47.6
3488.209	41.6
3491.101	40.6
3493.99	38.6
3496.878	37.6
3499.763	30.6
3502.646	34.6
3505.527	29.6
3508.405	24.6
3511.281	19.6
3514.155	15.6
3517.027	15.6
3519.897	19.6
3522.764	8.6
3525.629	14.6
3528.492	5.6
3531.352	1.6
3534.211	-1.4
3537.067	-4.4
3539.921	0.6
3542.773	-10.4
3545.622	-11.4
3548.469	-9.4
3551.315	-7.4
3554.157	-7.4
3556.998	-11.4
3559.837	-13.4
3562.673	-13.4
3565.507	-17.4
3568.339	-17.4
3571.169	-20.4
3573.996	-19.4
3576.822	-28.4
3579.645	-21.4
3582.466	-26.4
3585.285	-27.4
3588.101	-30.4
3590.916	-32.4
3593.728	-33.4
3596.538	-34.4
3599.346	-33.4
3602.152	-32.4
3604.956	-31.4
3607.757	-26.4
3610.556	-25.4
3613.354	-45.4
3616.149	-34.4
3618.942	-36.4
3621.732	-42.4
3624.521	-32.4
3627.307	-32.4
3630.092	-41.4
3632.874	-42.4
3635.654	-44.4
3638.432	-41.4
3641.208	-42.4
3643.982	-40.4
3646.753	-47.4
3649.523	-48.4
3652.29	-50.4
3655.055	-46.4
3657.818	-46.4
3660.579	-46.4
3663.338	-43.4
3666.095	-45.4
3668.849	-45.4
3671.602	-47.4
3674.352	-42.4
3677.101	-44.4
3679.847	-49.4
3682.591	-48.4
3685.333	-46.4
3688.073	-54.4
3690.811	-47.4
3693.547	-54.4
3696.281	-47.4
3699.013	-50.4
3701.742	-60.4
3704.47	-51.4
3707.195	-54.4
3709.919	-53.4
3712.64	-57.4
3715.359	-55.4
3718.076	-60.4
3720.792	-57.4
3723.505	-54.4
3726.216	-53.4
3728.925	-61.4
3731.632	-59.4
3734.336	-58.4
3737.039	-51.4
3739.74	-53.4
3742.439	-62.4
3745.136	-56.4
3747.83	-53.4
3750.523	-58.4
3753.213	-60.4
3755.902	-55.4
3758.589	-58.4
3761.273	-57.4
3763.956	-57.4
3766.636	-51.4
3769.315	-53.4
3771.991	-63.4
3774.665	-65.4
3777.338	-57.4
3780.008	-62.4
3782.677	-65.4
3785.343	-56.4
3788.007	-59.4
3790.67	-62.4
3793.33	-57.4
3795.989	-57.4
3798.645	-65.4
3801.299	-62.4
3803.952	-58.4
3806.602	-57.4
3809.251	-60.4
3811.897	-61.4
3814.542	-62.4
3817.184	-58.4
3819.825	-56.4
3822.463	-62.4
3825.1	-56.4
3827.735	-65.4
3830.367	-65.4
3832.998	-64.4
3835.627	-67.4
3838.253	-62.4
3840.878	-59.4
3843.501	-57.4
3846.122	-66.4
3848.741	-66.4
3851.358	-64.4
3853.973	-57.4
3856.586	-62.4
3859.197	-63.4
3861.806	-60.4
3864.414	-62.4
3867.019	-62.4
3869.622	-50.4
3872.224	-45.4
3874.823	-35.4
3877.421	-36.4
3880.016	-29.4
3882.61	-10.4
3885.202	-5.4
3887.792	-18.4
3890.38	-33.4
3892.966	-56.4
3895.55	-56.4
3898.132	-59.4
3900.713	-65.4
3903.291	-68.4
3905.868	-62.4
3908.442	-60.4
3911.015	-60.4
3913.586	-67.4
3916.155	-60.4
3918.722	-65.4
3921.287	-61.4
3923.85	-61.4
3926.411	-61.4
3928.971	-67.4
3931.528	-67.4
3934.084	-56.4
3936.638	-62.4
3939.19	-67.4
3941.74	-58.4
3944.288	-63.4
3946.834	-61.4
3949.378	-61.4
3951.921	-67.4
3954.462	-66.4
3957	-58.4
3959.537	-54.4
3962.072	-64.4
3964.606	-54.4
3967.137	-59.4
3969.667	-64.4
3972.194	-61.4
3974.72	-55.4
3977.244	-58.4
3979.766	-62.4
3982.286	-62.4
3984.805	-67.4
3987.321	-60.4
3989.836	-53.4
3992.349	-58.4
3994.86	-64.4
3997.369	-61.4
3999.877	-60.4
4002.382	-57.4
4004.886	-61.4
4007.388	-61.4
4009.888	-59.4
4012.386	-67.4
4014.883	-61.4
4017.377	-57.4
4019.87	-60.4
4022.361	-65.4
4024.85	-58.4
4027.338	-63.4
4029.823	-67.4
4032.307	-63.4
4034.789	-58.4
4037.269	-58.4
4039.747	-63.4
4042.224	-58.4
4044.699	-61.4
4047.172	-61.4
4049.643	-63.4
4052.112	-61.4
4054.58	-63.4
4057.046	-55.4
4059.51	-62.4
4061.972	-66.4
4064.432	-60.4
4066.891	-59.4
4069.348	-60.4
4071.803	-55.4
4074.256	-64.4
4076.708	-62.4
4079.158	-67.4
4081.606	-60.4
4084.052	-66.4
4086.497	-52.4
4088.939	-59.4
4091.38	-68.4
4093.819	-63.4
4096.257	-62.4
4098.693	-64.4
4101.127	-56.4
4103.559	-70.4
4105.989	-1.4
4108.418	-8.4
4110.845	-6.4
4113.27	-3.4
4115.694	-0.4
4118.115	1.6
4120.535	-60.4
4122.954	-59.4
4125.37	-61.4
4127.785	-56.4
4130.198	-58.4
4132.609	-63.4
4135.019	-63.4
4137.427	-67.4
4139.833	-64.4
4142.237	-65.4
