Data from 2018-3-7_conc=3_n=1_RamanShift_04.txt Node
Date: Wed Mar 07 11:16:52 IST 2018
User: aro
Spectrometer: QEPB0276
Trigger mode: 0
Integration Time (sec): 3.000000E1
Scans to average: 1
Electric dark correction enabled: true
Nonlinearity correction enabled: false
Boxcar width: 0
XAxis mode: Raman Shifts
Number of Pixels in Spectrum: 1044
>>>>>Begin Spectral Data<<<<<
160.701	13.2
166.742	20.2
172.777	54.2
178.805	147.2
184.826	371.2
190.841	773.2
196.849	1301.2
202.85	1661.2
208.845	1818.2
214.833	1811.2
220.815	1803.2
226.789	1799.2
232.758	1810.2
238.719	1823.2
244.674	1812.2
250.623	1792.2
256.565	1787.2
262.5	1750.2
268.429	1739.2
274.351	1737.2
280.267	1723.2
286.176	1727.2
292.079	1724.2
297.975	1744.2
303.865	1725.2
309.748	1717.2
315.625	1724.2
321.495	1720.2
327.359	1723.2
333.217	1727.2
339.068	1734.2
344.912	1735.2
350.751	1737.2
356.583	1730.2
362.408	1743.2
368.227	1753.2
374.04	1760.2
379.847	1772.2
385.647	1774.2
391.44	1789.2
397.228	1788.2
403.009	1804.2
408.784	1806.2
414.553	1844.2
420.315	1828.2
426.071	1813.2
431.821	1822.2
437.565	1823.2
443.302	1825.2
449.033	1806.2
454.758	1794.2
460.477	1783.2
466.189	1784.2
471.896	1750.2
477.596	1727.2
483.29	1735.2
488.978	1742.2
494.66	1729.2
500.335	1688.2
506.005	1622.2
511.668	1578.2
517.325	1519.2
522.977	1456.2
528.622	1397.2
534.261	1392.2
539.894	1376.2
545.521	1350.2
551.141	1357.2
556.756	1329.2
562.365	1328.2
567.968	1326.2
573.565	1304.2
579.155	1304.2
584.74	1292.2
590.319	1290.2
595.892	1275.2
601.459	1271.2
607.02	1274.2
612.575	1275.2
618.124	1258.2
623.667	1239.2
629.204	1222.2
634.735	1211.2
640.261	1205.2
645.781	1175.2
651.294	1201.2
656.802	1183.2
662.304	1174.2
667.8	1170.2
673.29	1168.2
678.775	1159.2
684.254	1178.2
689.726	1173.2
695.193	1157.2
700.655	1139.2
706.11	1138.2
711.56	1130.2
717.004	1131.2
722.442	1102.2
727.874	1100.2
733.301	1112.2
738.722	1102.2
744.137	1083.2
749.547	1105.2
754.951	1094.2
760.349	1103.2
765.741	1096.2
771.128	1112.2
776.509	1113.2
781.885	1143.2
787.254	1125.2
792.618	1137.2
797.977	1130.2
803.33	1125.2
808.677	1113.2
814.019	1110.2
819.355	1100.2
824.686	1090.2
830.011	1083.2
835.33	1082.2
840.644	1069.2
845.952	1075.2
851.255	1051.2
856.552	1052.2
861.844	1055.2
867.13	1045.2
872.41	1041.2
877.686	1041.2
882.955	1039.2
888.219	1020.2
893.478	1003.2
898.731	985.2
903.979	965.2
909.221	959.2
914.458	975.2
919.69	976.2
924.916	970.2
930.136	972.2
935.351	966.2
940.561	959.2
945.766	951.2
950.965	967.2
956.158	953.2
961.347	933.2
966.529	940.2
971.707	906.2
976.879	910.2
982.046	889.2
987.208	887.2
992.364	890.2
997.515	894.2
1002.66	890.2
1007.801	909.2
1012.936	936.2
1018.066	926.2
1023.19	921.2
1028.309	913.2
1033.423	931.2
1038.532	911.2
1043.636	901.2
1048.734	911.2
1053.827	889.2
1058.915	884.2
1063.998	862.2
1069.075	871.2
1074.147	866.2
1079.214	862.2
1084.276	870.2
1089.333	882.2
1094.385	875.2
1099.431	871.2
1104.472	862.2
1109.509	856.2
1114.54	854.2
1119.565	842.2
1124.586	828.2
1129.602	830.2
1134.613	824.2
1139.618	819.2
1144.619	805.2
1149.614	820.2
1154.604	821.2
1159.589	814.2
1164.57	820.2
1169.545	823.2
1174.515	817.2
1179.48	816.2
1184.44	808.2
1189.395	802.2
1194.345	810.2
1199.29	791.2
1204.23	794.2
1209.165	804.2
1214.095	798.2
1219.021	812.2
1223.941	807.2
1228.856	812.2
1233.766	810.2
1238.672	808.2
1243.572	816.2
1248.467	809.2
1253.358	797.2
1258.244	793.2
1263.124	759.2
1268	749.2
1272.871	740.2
1277.737	741.2
1282.599	745.2
1287.455	735.2
1292.306	738.2
1297.153	725.2
1301.995	745.2
1306.832	750.2
1311.664	735.2
1316.491	751.2
1321.314	747.2
1326.132	747.2
1330.945	736.2
1335.753	710.2
1340.556	703.2
1345.354	693.2
1350.148	686.2
1354.937	664.2
1359.722	642.2
1364.501	638.2
1369.276	636.2
1374.046	617.2
1378.811	616.2
1383.572	611.2
1388.327	602.2
1393.079	597.2
1397.825	610.2
1402.567	615.2
1407.304	612.2
1412.036	612.2
1416.764	629.2
1421.487	624.2
1426.205	624.2
1430.919	621.2
1435.628	628.2
1440.333	639.2
1445.032	619.2
1449.727	652.2
1454.418	646.2
1459.104	637.2
1463.785	613.2
1468.462	603.2
1473.134	604.2
1477.802	576.2
1482.465	572.2
1487.123	555.2
1491.777	538.2
1496.426	543.2
1501.071	531.2
1505.711	532.2
1510.347	523.2
1514.978	521.2
1519.604	526.2
1524.226	504.2
1528.844	517.2
1533.457	512.2
1538.065	509.2
1542.669	499.2
1547.269	501.2
1551.864	512.2
1556.454	521.2
1561.041	539.2
1565.622	540.2
1570.199	528.2
1574.772	536.2
1579.34	539.2
1583.904	550.2
1588.464	563.2
1593.019	551.2
1597.569	555.2
1602.115	554.2
1606.657	570.2
1611.195	562.2
1615.728	551.2
1620.256	541.2
1624.78	553.2
1629.3	553.2
1633.816	559.2
1638.327	552.2
1642.834	554.2
1647.336	549.2
1651.834	544.2
1656.328	545.2
1660.817	537.2
1665.302	529.2
1669.783	528.2
1674.259	505.2
1678.732	494.2
1683.199	477.2
1687.663	468.2
1692.122	446.2
1696.577	425.2
1701.028	408.2
1705.474	383.2
1709.917	374.2
1714.355	367.2
1718.788	371.2
1723.218	365.2
1727.643	368.2
1732.064	367.2
1736.481	367.2
1740.893	357.2
1745.301	359.2
1749.705	343.2
1754.105	329.2
1758.501	324.2
1762.893	325.2
1767.28	308.2
1771.663	313.2
1776.042	299.2
1780.417	302.2
1784.787	297.2
1789.154	283.2
1793.516	279.2
1797.874	275.2
1802.228	285.2
1806.578	272.2
1810.924	269.2
1815.266	270.2
1819.603	277.2
1823.937	274.2
1828.266	272.2
1832.591	281.2
1836.913	290.2
1841.23	273.2
1845.543	272.2
1849.852	279.2
1854.156	279.2
1858.457	280.2
1862.754	283.2
1867.047	283.2
1871.335	277.2
1875.62	273.2
1879.9	272.2
1884.177	272.2
1888.449	266.2
1892.718	269.2
1896.982	263.2
1901.243	247.2
1905.499	249.2
1909.752	238.2
1914	239.2
1918.245	231.2
1922.485	227.2
1926.722	219.2
1930.954	227.2
1935.183	218.2
1939.408	225.2
1943.628	224.2
1947.845	229.2
1952.058	224.2
1956.267	219.2
1960.472	213.2
1964.673	208.2
1968.87	207.2
1973.063	210.2
1977.252	215.2
1981.438	210.2
1985.619	203.2
1989.797	204.2
1993.971	217.2
1998.14	216.2
2002.306	220.2
2006.469	223.2
2010.627	218.2
2014.781	221.2
2018.932	215.2
2023.078	220.2
2027.221	212.2
2031.36	205.2
2035.495	209.2
2039.627	194.2
2043.754	196.2
2047.878	192.2
2051.998	195.2
2056.114	199.2
2060.226	186.2
2064.334	188.2
2068.439	189.2
2072.54	174.2
2076.637	187.2
2080.73	185.2
2084.82	183.2
2088.906	183.2
2092.988	176.2
2097.066	168.2
2101.14	169.2
2105.211	173.2
2109.278	162.2
2113.342	166.2
2117.401	161.2
2121.457	164.2
2125.509	161.2
2129.558	164.2
2133.602	163.2
2137.643	169.2
2141.681	154.2
2145.714	162.2
2149.744	156.2
2153.77	165.2
2157.793	162.2
2161.812	170.2
2165.827	166.2
2169.838	158.2
2173.846	158.2
2177.851	162.2
2181.851	161.2
2185.848	156.2
2189.841	157.2
2193.831	144.2
2197.817	157.2
2201.799	155.2
2205.778	140.2
2209.753	159.2
2213.725	143.2
2217.693	148.2
2221.657	146.2
2225.618	143.2
2229.575	145.2
2233.529	141.2
2237.479	142.2
2241.425	140.2
2245.368	145.2
2249.307	142.2
2253.243	137.2
2257.175	130.2
2261.104	121.2
2265.029	130.2
2268.95	127.2
2272.868	120.2
2276.783	124.2
2280.694	121.2
2284.601	117.2
2288.505	128.2
2292.405	129.2
2296.302	128.2
2300.195	121.2
2304.085	116.2
2307.971	112.2
2311.854	109.2
2315.734	114.2
2319.609	114.2
2323.482	111.2
2327.351	119.2
2331.216	130.2
2335.078	141.2
2338.937	127.2
2342.792	114.2
2346.643	117.2
2350.492	116.2
2354.336	111.2
2358.178	105.2
2362.015	110.2
2365.85	107.2
2369.681	116.2
2373.508	117.2
2377.333	117.2
2381.153	114.2
2384.971	112.2
2388.785	112.2
2392.595	112.2
2396.402	116.2
2400.206	117.2
2404.007	112.2
2407.804	112.2
2411.597	104.2
2415.388	115.2
2419.174	111.2
2422.958	105.2
2426.738	103.2
2430.515	105.2
2434.289	103.2
2438.059	94.2
2441.825	105.2
2445.589	98.2
2449.349	91.2
2453.106	107.2
2456.859	92.2
2460.61	94.2
2464.356	97.2
2468.1	99.2
2471.84	85.2
2475.577	81.2
2479.311	83.2
2483.041	87.2
2486.768	86.2
2490.492	88.2
2494.213	88.2
2497.93	86.2
2501.644	90.2
2505.355	80.2
2509.062	88.2
2512.766	80.2
2516.467	75.2
2520.165	80.2
2523.859	79.2
2527.551	73.2
2531.239	76.2
2534.923	70.2
2538.605	65.2
2542.283	68.2
2545.958	70.2
2549.63	67.2
2553.299	65.2
2556.964	62.2
2560.626	66.2
2564.285	70.2
2567.941	63.2
2571.594	62.2
2575.243	61.2
2578.89	55.2
2582.533	61.2
2586.173	60.2
2589.809	65.2
2593.443	65.2
2597.073	54.2
2600.701	60.2
2604.325	60.2
2607.946	46.2
2611.564	54.2
2615.178	57.2
2618.79	53.2
2622.398	53.2
2626.004	52.2
2629.606	56.2
2633.205	48.2
2636.801	52.2
2640.394	51.2
2643.983	49.2
2647.57	42.2
2651.153	43.2
2654.734	42.2
2658.311	50.2
2661.885	49.2
2665.456	55.2
2669.025	48.2
2672.589	47.2
2676.151	43.2
2679.71	47.2
2683.266	41.2
2686.819	44.2
2690.368	40.2
2693.915	39.2
2697.458	37.2
2700.999	41.2
2704.536	33.2
2708.071	39.2
2711.602	37.2
2715.13	28.2
2718.656	28.2
2722.178	34.2
2725.697	35.2
2729.214	33.2
2732.727	36.2
2736.237	33.2
2739.744	27.2
2743.249	23.2
2746.75	26.2
2750.248	23.2
2753.743	25.2
2757.236	20.2
2760.725	19.2
2764.211	12.2
2767.695	17.2
2771.175	16.2
2774.652	14.2
2778.127	19.2
2781.598	17.2
2785.067	21.2
2788.532	19.2
2791.995	22.2
2795.455	19.2
2798.911	18.2
2802.365	19.2
2805.816	19.2
2809.264	23.2
2812.709	18.2
2816.151	16.2
2819.59	31.2
2823.026	19.2
2826.46	21.2
2829.89	25.2
2833.318	21.2
2836.742	21.2
2840.164	20.2
2843.583	24.2
2846.999	21.2
2850.412	15.2
2853.822	19.2
2857.229	26.2
2860.634	21.2
2864.035	23.2
2867.434	21.2
2870.83	33.2
2874.223	30.2
2877.613	28.2
2881	31.2
2884.385	28.2
2887.766	32.2
2891.145	30.2
2894.521	35.2
2897.894	34.2
2901.264	36.2
2904.631	28.2
2907.996	27.2
2911.358	40.2
2914.717	36.2
2918.073	29.2
2921.426	37.2
2924.777	43.2
2928.124	41.2
2931.469	44.2
2934.811	47.2
2938.15	49.2
2941.487	54.2
2944.821	45.2
2948.152	52.2
2951.48	41.2
2954.805	47.2
2958.128	41.2
2961.447	42.2
2964.765	38.2
2968.079	33.2
2971.39	42.2
2974.699	40.2
2978.005	48.2
2981.308	41.2
2984.609	39.2
2987.907	43.2
2991.202	46.2
2994.494	39.2
2997.784	37.2
3001.07	35.2
3004.355	40.2
3007.636	42.2
3010.915	44.2
3014.191	38.2
3017.464	45.2
3020.734	50.2
3024.002	46.2
3027.267	53.2
3030.53	52.2
3033.789	51.2
3037.046	59.2
3040.301	55.2
3043.552	56.2
3046.801	56.2
3050.048	58.2
3053.291	58.2
3056.532	67.2
3059.771	63.2
3063.006	69.2
3066.239	75.2
3069.469	77.2
3072.697	79.2
3075.922	87.2
3079.144	78.2
3082.364	92.2
3085.581	84.2
3088.795	94.2
3092.007	93.2
3095.216	101.2
3098.423	100.2
3101.627	94.2
3104.828	106.2
3108.026	106.2
3111.222	108.2
3114.416	108.2
3117.607	112.2
3120.795	111.2
3123.98	111.2
3127.163	131.2
3130.344	127.2
3133.521	121.2
3136.696	131.2
3139.869	138.2
3143.039	134.2
3146.206	143.2
3149.371	131.2
3152.533	148.2
3155.693	142.2
3158.85	144.2
3162.005	147.2
3165.157	146.2
3168.306	140.2
3171.453	141.2
3174.597	146.2
3177.739	158.2
3180.878	151.2
3184.014	144.2
3187.149	146.2
3190.28	152.2
3193.409	145.2
3196.536	138.2
3199.659	151.2
3202.781	147.2
3205.9	140.2
3209.016	145.2
3212.13	148.2
3215.241	151.2
3218.35	141.2
3221.456	146.2
3224.56	134.2
3227.661	140.2
3230.76	135.2
3233.856	130.2
3236.95	132.2
3240.041	122.2
3243.13	127.2
3246.216	124.2
3249.3	124.2
3252.382	125.2
3255.46	122.2
3258.537	110.2
3261.611	111.2
3264.682	116.2
3267.751	125.2
3270.818	103.2
3273.882	108.2
3276.943	103.2
3280.002	113.2
3283.059	107.2
3286.113	101.2
3289.165	105.2
3292.214	103.2
3295.261	101.2
3298.306	95.2
3301.348	106.2
3304.387	90.2
3307.425	101.2
3310.459	94.2
3313.492	95.2
3316.521	96.2
3319.549	103.2
3322.574	97.2
3325.597	95.2
3328.617	87.2
3331.635	98.2
3334.65	95.2
3337.663	83.2
3340.674	94.2
3343.682	97.2
3346.688	90.2
3349.691	98.2
3352.692	103.2
3355.691	108.2
3358.687	92.2
3361.681	94.2
3364.673	92.2
3367.662	97.2
3370.649	89.2
3373.633	85.2
3376.615	85.2
3379.595	84.2
3382.572	72.2
3385.547	82.2
3388.52	77.2
3391.49	72.2
3394.458	67.2
3397.424	79.2
3400.387	73.2
3403.348	67.2
3406.307	66.2
3409.263	67.2
3412.217	67.2
3415.168	70.2
3418.118	64.2
3421.065	63.2
3424.009	61.2
3426.951	56.2
3429.891	63.2
3432.829	52.2
3435.764	63.2
3438.697	62.2
3441.628	45.2
3444.557	47.2
3447.483	50.2
3450.407	46.2
3453.328	43.2
3456.247	32.2
3459.164	38.2
3462.079	29.2
3464.991	32.2
3467.902	26.2
3470.809	21.2
3473.715	20.2
3476.618	18.2
3479.519	20.2
3482.418	13.2
3485.315	11.2
3488.209	6.2
3491.101	0.2
3493.99	10.2
3496.878	7.2
3499.763	2.2
3502.646	-4.8
3505.527	-0.8
3508.405	3.2
3511.281	-4.8
3514.155	-2.8
3517.027	-8.8
3519.897	-1.8
3522.764	-4.8
3525.629	-6.8
3528.492	-13.8
3531.352	-15.8
3534.211	-17.8
3537.067	-20.8
3539.921	-17.8
3542.773	-28.8
3545.622	-20.8
3548.469	-18.8
3551.315	-21.8
3554.157	-23.8
3556.998	-21.8
3559.837	-25.8
3562.673	-23.8
3565.507	-19.8
3568.339	-24.8
3571.169	-28.8
3573.996	-24.8
3576.822	-29.8
3579.645	-35.8
3582.466	-36.8
3585.285	-36.8
3588.101	-33.8
3590.916	-30.8
3593.728	-38.8
3596.538	-36.8
3599.346	-34.8
3602.152	-35.8
3604.956	-30.8
3607.757	-29.8
3610.556	-29.8
3613.354	-45.8
3616.149	-41.8
3618.942	-42.8
3621.732	-43.8
3624.521	-42.8
3627.307	-38.8
3630.092	-41.8
3632.874	-44.8
3635.654	-39.8
3638.432	-45.8
3641.208	-40.8
3643.982	-39.8
3646.753	-46.8
3649.523	-40.8
3652.29	-45.8
3655.055	-45.8
3657.818	-48.8
3660.579	-52.8
3663.338	-42.8
3666.095	-46.8
3668.849	-45.8
3671.602	-42.8
3674.352	-40.8
3677.101	-47.8
3679.847	-44.8
3682.591	-51.8
3685.333	-46.8
3688.073	-53.8
3690.811	-49.8
3693.547	-49.8
3696.281	-48.8
3699.013	-46.8
3701.742	-56.8
3704.47	-44.8
3707.195	-49.8
3709.919	-55.8
3712.64	-46.8
3715.359	-49.8
3718.076	-51.8
3720.792	-48.8
3723.505	-48.8
3726.216	-46.8
3728.925	-57.8
3731.632	-48.8
3734.336	-59.8
3737.039	-47.8
3739.74	-56.8
3742.439	-55.8
3745.136	-58.8
3747.83	-54.8
3750.523	-52.8
3753.213	-57.8
3755.902	-49.8
3758.589	-49.8
3761.273	-52.8
3763.956	-56.8
3766.636	-52.8
3769.315	-48.8
3771.991	-56.8
3774.665	-58.8
3777.338	-50.8
3780.008	-52.8
3782.677	-56.8
3785.343	-52.8
3788.007	-59.8
3790.67	-59.8
3793.33	-52.8
3795.989	-56.8
3798.645	-55.8
3801.299	-53.8
3803.952	-55.8
3806.602	-55.8
3809.251	-58.8
3811.897	-59.8
3814.542	-61.8
3817.184	-57.8
3819.825	-53.8
3822.463	-53.8
3825.1	-55.8
3827.735	-55.8
3830.367	-54.8
3832.998	-55.8
3835.627	-55.8
3838.253	-45.8
3840.878	-47.8
3843.501	-48.8
3846.122	-59.8
3848.741	-58.8
3851.358	-54.8
3853.973	-56.8
3856.586	-53.8
3859.197	-58.8
3861.806	-50.8
3864.414	-56.8
3867.019	-55.8
3869.622	-45.8
3872.224	-38.8
3874.823	-34.8
3877.421	-26.8
3880.016	-12.8
3882.61	4.2
3885.202	7.2
3887.792	1.2
3890.38	-19.8
3892.966	-43.8
3895.55	-48.8
3898.132	-54.8
3900.713	-56.8
3903.291	-59.8
3905.868	-49.8
3908.442	-54.8
3911.015	-51.8
3913.586	-61.8
3916.155	-57.8
3918.722	-56.8
3921.287	-52.8
3923.85	-48.8
3926.411	-58.8
3928.971	-64.8
3931.528	-58.8
3934.084	-55.8
3936.638	-53.8
3939.19	-64.8
3941.74	-57.8
3944.288	-57.8
3946.834	-55.8
3949.378	-55.8
3951.921	-59.8
3954.462	-55.8
3957	-49.8
3959.537	-48.8
3962.072	-51.8
3964.606	-54.8
3967.137	-54.8
3969.667	-56.8
3972.194	-47.8
3974.72	-56.8
3977.244	-52.8
3979.766	-54.8
3982.286	-60.8
3984.805	-65.8
3987.321	-56.8
3989.836	-47.8
3992.349	-53.8
3994.86	-59.8
3997.369	-59.8
3999.877	-54.8
4002.382	-52.8
4004.886	-54.8
4007.388	-60.8
4009.888	-56.8
4012.386	-59.8
4014.883	-55.8
4017.377	-52.8
4019.87	-54.8
4022.361	-60.8
4024.85	-50.8
4027.338	-57.8
4029.823	-51.8
4032.307	-61.8
4034.789	-53.8
4037.269	-57.8
4039.747	-55.8
4042.224	-56.8
4044.699	-64.8
4047.172	-59.8
4049.643	-57.8
4052.112	-52.8
4054.58	-51.8
4057.046	-53.8
4059.51	-58.8
4061.972	-60.8
4064.432	-56.8
4066.891	-49.8
4069.348	-52.8
4071.803	-49.8
4074.256	-53.8
4076.708	-55.8
4079.158	-58.8
4081.606	-57.8
4084.052	-57.8
4086.497	-51.8
4088.939	-55.8
4091.38	-57.8
4093.819	-62.8
4096.257	-58.8
4098.693	-59.8
4101.127	-53.8
4103.559	-63.8
4105.989	12.2
4108.418	9.2
4110.845	6.2
4113.27	6.2
4115.694	11.2
4118.115	10.2
4120.535	-57.8
4122.954	-55.8
4125.37	-56.8
4127.785	-47.8
4130.198	-53.8
4132.609	-56.8
4135.019	-58.8
4137.427	-60.8
4139.833	-55.8
4142.237	-59.8
