Data from 2018-3-7_conc=3_n=2_RamanShift_04.txt Node
Date: Wed Mar 07 11:20:22 IST 2018
User: aro
Spectrometer: QEPB0276
Trigger mode: 0
Integration Time (sec): 3.000000E1
Scans to average: 1
Electric dark correction enabled: true
Nonlinearity correction enabled: false
Boxcar width: 0
XAxis mode: Raman Shifts
Number of Pixels in Spectrum: 1044
>>>>>Begin Spectral Data<<<<<
160.701	16.6
166.742	22.6
172.777	44.6
178.805	137.6
184.826	357.6
190.841	740.6
196.849	1203.6
202.85	1589.6
208.845	1725.6
214.833	1721.6
220.815	1719.6
226.789	1699.6
232.758	1710.6
238.719	1738.6
244.674	1722.6
250.623	1707.6
256.565	1691.6
262.5	1686.6
268.429	1655.6
274.351	1646.6
280.267	1640.6
286.176	1632.6
292.079	1640.6
297.975	1635.6
303.865	1640.6
309.748	1654.6
315.625	1637.6
321.495	1654.6
327.359	1653.6
333.217	1657.6
339.068	1663.6
344.912	1668.6
350.751	1681.6
356.583	1669.6
362.408	1681.6
368.227	1690.6
374.04	1679.6
379.847	1684.6
385.647	1698.6
391.44	1703.6
397.228	1703.6
403.009	1723.6
408.784	1732.6
414.553	1740.6
420.315	1742.6
426.071	1754.6
431.821	1738.6
437.565	1742.6
443.302	1731.6
449.033	1721.6
454.758	1728.6
460.477	1711.6
466.189	1697.6
471.896	1693.6
477.596	1684.6
483.29	1647.6
488.978	1649.6
494.66	1648.6
500.335	1607.6
506.005	1550.6
511.668	1507.6
517.325	1445.6
522.977	1392.6
528.622	1348.6
534.261	1311.6
539.894	1291.6
545.521	1277.6
551.141	1269.6
556.756	1261.6
562.365	1261.6
567.968	1241.6
573.565	1228.6
579.155	1209.6
584.74	1221.6
590.319	1206.6
595.892	1213.6
601.459	1212.6
607.02	1196.6
612.575	1195.6
618.124	1168.6
623.667	1165.6
629.204	1150.6
634.735	1136.6
640.261	1126.6
645.781	1128.6
651.294	1119.6
656.802	1105.6
662.304	1125.6
667.8	1107.6
673.29	1118.6
678.775	1099.6
684.254	1101.6
689.726	1097.6
695.193	1075.6
700.655	1088.6
706.11	1073.6
711.56	1073.6
717.004	1063.6
722.442	1054.6
727.874	1044.6
733.301	1039.6
738.722	1039.6
744.137	1043.6
749.547	1044.6
754.951	1046.6
760.349	1033.6
765.741	1036.6
771.128	1040.6
776.509	1058.6
781.885	1081.6
787.254	1082.6
792.618	1081.6
797.977	1072.6
803.33	1070.6
808.677	1065.6
814.019	1051.6
819.355	1035.6
824.686	1035.6
830.011	1012.6
835.33	1024.6
840.644	1024.6
845.952	1019.6
851.255	997.6
856.552	1013.6
861.844	989.6
867.13	988.6
872.41	986.6
877.686	974.6
882.955	962.6
888.219	955.6
893.478	947.6
898.731	925.6
903.979	912.6
909.221	905.6
914.458	912.6
919.69	911.6
924.916	912.6
930.136	917.6
935.351	910.6
940.561	914.6
945.766	914.6
950.965	896.6
956.158	896.6
961.347	900.6
966.529	891.6
971.707	864.6
976.879	858.6
982.046	836.6
987.208	835.6
992.364	828.6
997.515	849.6
1002.66	846.6
1007.801	855.6
1012.936	861.6
1018.066	878.6
1023.19	865.6
1028.309	862.6
1033.423	869.6
1038.532	859.6
1043.636	857.6
1048.734	849.6
1053.827	843.6
1058.915	837.6
1063.998	824.6
1069.075	817.6
1074.147	813.6
1079.214	826.6
1084.276	826.6
1089.333	830.6
1094.385	834.6
1099.431	827.6
1104.472	822.6
1109.509	819.6
1114.54	801.6
1119.565	791.6
1124.586	789.6
1129.602	781.6
1134.613	784.6
1139.618	765.6
1144.619	759.6
1149.614	765.6
1154.604	760.6
1159.589	781.6
1164.57	766.6
1169.545	773.6
1174.515	785.6
1179.48	786.6
1184.44	771.6
1189.395	759.6
1194.345	746.6
1199.29	734.6
1204.23	752.6
1209.165	748.6
1214.095	757.6
1219.021	763.6
1223.941	770.6
1228.856	769.6
1233.766	760.6
1238.672	768.6
1243.572	765.6
1248.467	764.6
1253.358	755.6
1258.244	742.6
1263.124	734.6
1268	715.6
1272.871	698.6
1277.737	695.6
1282.599	688.6
1287.455	693.6
1292.306	698.6
1297.153	694.6
1301.995	699.6
1306.832	711.6
1311.664	708.6
1316.491	713.6
1321.314	700.6
1326.132	702.6
1330.945	678.6
1335.753	677.6
1340.556	662.6
1345.354	649.6
1350.148	631.6
1354.937	629.6
1359.722	612.6
1364.501	606.6
1369.276	598.6
1374.046	578.6
1378.811	578.6
1383.572	592.6
1388.327	573.6
1393.079	582.6
1397.825	569.6
1402.567	593.6
1407.304	591.6
1412.036	587.6
1416.764	583.6
1421.487	581.6
1426.205	580.6
1430.919	574.6
1435.628	593.6
1440.333	598.6
1445.032	589.6
1449.727	616.6
1454.418	609.6
1459.104	605.6
1463.785	586.6
1468.462	581.6
1473.134	571.6
1477.802	549.6
1482.465	530.6
1487.123	530.6
1491.777	512.6
1496.426	515.6
1501.071	493.6
1505.711	497.6
1510.347	493.6
1514.978	494.6
1519.604	495.6
1524.226	488.6
1528.844	489.6
1533.457	490.6
1538.065	485.6
1542.669	472.6
1547.269	480.6
1551.864	482.6
1556.454	507.6
1561.041	502.6
1565.622	509.6
1570.199	512.6
1574.772	498.6
1579.34	509.6
1583.904	514.6
1588.464	539.6
1593.019	534.6
1597.569	529.6
1602.115	539.6
1606.657	529.6
1611.195	523.6
1615.728	521.6
1620.256	513.6
1624.78	527.6
1629.3	526.6
1633.816	524.6
1638.327	519.6
1642.834	523.6
1647.336	520.6
1651.834	511.6
1656.328	518.6
1660.817	519.6
1665.302	506.6
1669.783	489.6
1674.259	476.6
1678.732	469.6
1683.199	451.6
1687.663	447.6
1692.122	418.6
1696.577	412.6
1701.028	398.6
1705.474	370.6
1709.917	368.6
1714.355	360.6
1718.788	351.6
1723.218	356.6
1727.643	345.6
1732.064	351.6
1736.481	348.6
1740.893	334.6
1745.301	336.6
1749.705	339.6
1754.105	315.6
1758.501	314.6
1762.893	313.6
1767.28	305.6
1771.663	299.6
1776.042	296.6
1780.417	296.6
1784.787	290.6
1789.154	274.6
1793.516	267.6
1797.874	255.6
1802.228	268.6
1806.578	267.6
1810.924	252.6
1815.266	262.6
1819.603	265.6
1823.937	262.6
1828.266	270.6
1832.591	271.6
1836.913	265.6
1841.23	269.6
1845.543	254.6
1849.852	261.6
1854.156	276.6
1858.457	269.6
1862.754	275.6
1867.047	255.6
1871.335	263.6
1875.62	260.6
1879.9	274.6
1884.177	260.6
1888.449	265.6
1892.718	255.6
1896.982	251.6
1901.243	239.6
1905.499	242.6
1909.752	231.6
1914	233.6
1918.245	221.6
1922.485	215.6
1926.722	222.6
1930.954	213.6
1935.183	218.6
1939.408	213.6
1943.628	215.6
1947.845	214.6
1952.058	214.6
1956.267	210.6
1960.472	219.6
1964.673	202.6
1968.87	203.6
1973.063	208.6
1977.252	201.6
1981.438	200.6
1985.619	203.6
1989.797	200.6
1993.971	203.6
1998.14	197.6
2002.306	214.6
2006.469	205.6
2010.627	202.6
2014.781	202.6
2018.932	197.6
2023.078	201.6
2027.221	203.6
2031.36	203.6
2035.495	201.6
2039.627	188.6
2043.754	193.6
2047.878	189.6
2051.998	186.6
2056.114	178.6
2060.226	186.6
2064.334	180.6
2068.439	184.6
2072.54	184.6
2076.637	183.6
2080.73	185.6
2084.82	182.6
2088.906	180.6
2092.988	177.6
2097.066	173.6
2101.14	181.6
2105.211	172.6
2109.278	164.6
2113.342	153.6
2117.401	158.6
2121.457	154.6
2125.509	155.6
2129.558	154.6
2133.602	153.6
2137.643	158.6
2141.681	157.6
2145.714	160.6
2149.744	166.6
2153.77	163.6
2157.793	166.6
2161.812	163.6
2165.827	163.6
2169.838	148.6
2173.846	150.6
2177.851	145.6
2181.851	143.6
2185.848	142.6
2189.841	146.6
2193.831	141.6
2197.817	145.6
2201.799	143.6
2205.778	139.6
2209.753	144.6
2213.725	145.6
2217.693	150.6
2221.657	138.6
2225.618	135.6
2229.575	135.6
2233.529	132.6
2237.479	143.6
2241.425	136.6
2245.368	135.6
2249.307	139.6
2253.243	123.6
2257.175	126.6
2261.104	119.6
2265.029	125.6
2268.95	121.6
2272.868	125.6
2276.783	122.6
2280.694	116.6
2284.601	118.6
2288.505	116.6
2292.405	120.6
2296.302	114.6
2300.195	107.6
2304.085	106.6
2307.971	107.6
2311.854	105.6
2315.734	109.6
2319.609	111.6
2323.482	103.6
2327.351	112.6
2331.216	120.6
2335.078	130.6
2338.937	121.6
2342.792	104.6
2346.643	108.6
2350.492	111.6
2354.336	105.6
2358.178	98.6
2362.015	102.6
2365.85	95.6
2369.681	108.6
2373.508	103.6
2377.333	105.6
2381.153	103.6
2384.971	98.6
2388.785	104.6
2392.595	107.6
2396.402	109.6
2400.206	107.6
2404.007	106.6
2407.804	98.6
2411.597	97.6
2415.388	101.6
2419.174	101.6
2422.958	97.6
2426.738	95.6
2430.515	95.6
2434.289	98.6
2438.059	96.6
2441.825	96.6
2445.589	96.6
2449.349	93.6
2453.106	94.6
2456.859	87.6
2460.61	86.6
2464.356	83.6
2468.1	81.6
2471.84	88.6
2475.577	75.6
2479.311	78.6
2483.041	84.6
2486.768	77.6
2490.492	80.6
2494.213	78.6
2497.93	84.6
2501.644	82.6
2505.355	71.6
2509.062	73.6
2512.766	77.6
2516.467	72.6
2520.165	68.6
2523.859	75.6
2527.551	68.6
2531.239	62.6
2534.923	68.6
2538.605	61.6
2542.283	64.6
2545.958	62.6
2549.63	68.6
2553.299	63.6
2556.964	62.6
2560.626	59.6
2564.285	64.6
2567.941	56.6
2571.594	53.6
2575.243	58.6
2578.89	54.6
2582.533	50.6
2586.173	53.6
2589.809	57.6
2593.443	56.6
2597.073	55.6
2600.701	58.6
2604.325	49.6
2607.946	39.6
2611.564	49.6
2615.178	52.6
2618.79	48.6
2622.398	46.6
2626.004	47.6
2629.606	45.6
2633.205	46.6
2636.801	47.6
2640.394	52.6
2643.983	44.6
2647.57	43.6
2651.153	41.6
2654.734	44.6
2658.311	44.6
2661.885	47.6
2665.456	48.6
2669.025	39.6
2672.589	34.6
2676.151	38.6
2679.71	33.6
2683.266	38.6
2686.819	40.6
2690.368	39.6
2693.915	39.6
2697.458	33.6
2700.999	39.6
2704.536	40.6
2708.071	31.6
2711.602	33.6
2715.13	27.6
2718.656	28.6
2722.178	26.6
2725.697	25.6
2729.214	28.6
2732.727	32.6
2736.237	29.6
2739.744	22.6
2743.249	30.6
2746.75	31.6
2750.248	22.6
2753.743	26.6
2757.236	23.6
2760.725	20.6
2764.211	22.6
2767.695	13.6
2771.175	14.6
2774.652	9.6
2778.127	21.6
2781.598	11.6
2785.067	15.6
2788.532	12.6
2791.995	15.6
2795.455	14.6
2798.911	18.6
2802.365	24.6
2805.816	19.6
2809.264	20.6
2812.709	18.6
2816.151	21.6
2819.59	33.6
2823.026	21.6
2826.46	17.6
2829.89	12.6
2833.318	15.6
2836.742	22.6
2840.164	18.6
2843.583	18.6
2846.999	29.6
2850.412	19.6
2853.822	18.6
2857.229	31.6
2860.634	19.6
2864.035	24.6
2867.434	28.6
2870.83	28.6
2874.223	29.6
2877.613	26.6
2881	25.6
2884.385	27.6
2887.766	33.6
2891.145	28.6
2894.521	34.6
2897.894	32.6
2901.264	33.6
2904.631	29.6
2907.996	32.6
2911.358	35.6
2914.717	37.6
2918.073	34.6
2921.426	31.6
2924.777	28.6
2928.124	34.6
2931.469	35.6
2934.811	43.6
2938.15	43.6
2941.487	49.6
2944.821	46.6
2948.152	48.6
2951.48	42.6
2954.805	44.6
2958.128	37.6
2961.447	46.6
2964.765	38.6
2968.079	37.6
2971.39	34.6
2974.699	29.6
2978.005	43.6
2981.308	35.6
2984.609	34.6
2987.907	39.6
2991.202	39.6
2994.494	37.6
2997.784	32.6
3001.07	39.6
3004.355	38.6
3007.636	41.6
3010.915	45.6
3014.191	38.6
3017.464	44.6
3020.734	42.6
3024.002	44.6
3027.267	41.6
3030.53	44.6
3033.789	43.6
3037.046	48.6
3040.301	45.6
3043.552	52.6
3046.801	58.6
3050.048	54.6
3053.291	58.6
3056.532	64.6
3059.771	62.6
3063.006	67.6
3066.239	76.6
3069.469	69.6
3072.697	71.6
3075.922	76.6
3079.144	72.6
3082.364	85.6
3085.581	84.6
3088.795	92.6
3092.007	84.6
3095.216	100.6
3098.423	89.6
3101.627	88.6
3104.828	102.6
3108.026	94.6
3111.222	104.6
3114.416	101.6
3117.607	100.6
3120.795	100.6
3123.98	107.6
3127.163	118.6
3130.344	120.6
3133.521	119.6
3136.696	120.6
3139.869	129.6
3143.039	125.6
3146.206	129.6
3149.371	125.6
3152.533	132.6
3155.693	138.6
3158.85	129.6
3162.005	136.6
3165.157	135.6
3168.306	135.6
3171.453	139.6
3174.597	135.6
3177.739	137.6
3180.878	142.6
3184.014	129.6
3187.149	138.6
3190.28	133.6
3193.409	140.6
3196.536	129.6
3199.659	136.6
3202.781	145.6
3205.9	134.6
3209.016	134.6
3212.13	140.6
3215.241	135.6
3218.35	134.6
3221.456	143.6
3224.56	128.6
3227.661	135.6
3230.76	128.6
3233.856	125.6
3236.95	122.6
3240.041	114.6
3243.13	124.6
3246.216	111.6
3249.3	109.6
3252.382	106.6
3255.46	111.6
3258.537	108.6
3261.611	103.6
3264.682	111.6
3267.751	107.6
3270.818	88.6
3273.882	102.6
3276.943	103.6
3280.002	106.6
3283.059	97.6
3286.113	101.6
3289.165	97.6
3292.214	95.6
3295.261	102.6
3298.306	100.6
3301.348	98.6
3304.387	97.6
3307.425	94.6
3310.459	86.6
3313.492	89.6
3316.521	92.6
3319.549	91.6
3322.574	86.6
3325.597	86.6
3328.617	91.6
3331.635	92.6
3334.65	100.6
3337.663	83.6
3340.674	92.6
3343.682	88.6
3346.688	86.6
3349.691	91.6
3352.692	92.6
3355.691	93.6
3358.687	86.6
3361.681	84.6
3364.673	89.6
3367.662	83.6
3370.649	83.6
3373.633	74.6
3376.615	76.6
3379.595	76.6
3382.572	73.6
3385.547	75.6
3388.52	71.6
3391.49	60.6
3394.458	63.6
3397.424	72.6
3400.387	70.6
3403.348	60.6
3406.307	64.6
3409.263	71.6
3412.217	58.6
3415.168	71.6
3418.118	53.6
3421.065	48.6
3424.009	58.6
3426.951	49.6
3429.891	53.6
3432.829	49.6
3435.764	50.6
3438.697	50.6
3441.628	41.6
3444.557	48.6
3447.483	46.6
3450.407	39.6
3453.328	45.6
3456.247	37.6
3459.164	32.6
3462.079	26.6
3464.991	27.6
3467.902	19.6
3470.809	23.6
3473.715	21.6
3476.618	20.6
3479.519	6.6
3482.418	12.6
3485.315	14.6
3488.209	11.6
3491.101	16.6
3493.99	14.6
3496.878	10.6
3499.763	3.6
3502.646	2.6
3505.527	-1.4
3508.405	-0.4
3511.281	-2.4
3514.155	-0.4
3517.027	-12.4
3519.897	-5.4
3522.764	-4.4
3525.629	-7.4
3528.492	-10.4
3531.352	-19.4
3534.211	-14.4
3537.067	-17.4
3539.921	-9.4
3542.773	-25.4
3545.622	-15.4
3548.469	-19.4
3551.315	-18.4
3554.157	-22.4
3556.998	-18.4
3559.837	-28.4
3562.673	-24.4
3565.507	-29.4
3568.339	-22.4
3571.169	-27.4
3573.996	-19.4
3576.822	-35.4
3579.645	-26.4
3582.466	-30.4
3585.285	-30.4
3588.101	-35.4
3590.916	-28.4
3593.728	-35.4
3596.538	-35.4
3599.346	-43.4
3602.152	-38.4
3604.956	-32.4
3607.757	-29.4
3610.556	-36.4
3613.354	-39.4
3616.149	-41.4
3618.942	-33.4
3621.732	-39.4
3624.521	-37.4
3627.307	-37.4
3630.092	-37.4
3632.874	-41.4
3635.654	-48.4
3638.432	-40.4
3641.208	-42.4
3643.982	-41.4
3646.753	-43.4
3649.523	-46.4
3652.29	-47.4
3655.055	-36.4
3657.818	-41.4
3660.579	-45.4
3663.338	-43.4
3666.095	-42.4
3668.849	-44.4
3671.602	-47.4
3674.352	-42.4
3677.101	-46.4
3679.847	-44.4
3682.591	-50.4
3685.333	-45.4
3688.073	-53.4
3690.811	-46.4
3693.547	-52.4
3696.281	-48.4
3699.013	-51.4
3701.742	-49.4
3704.47	-42.4
3707.195	-45.4
3709.919	-45.4
3712.64	-47.4
3715.359	-49.4
3718.076	-49.4
3720.792	-52.4
3723.505	-52.4
3726.216	-46.4
3728.925	-54.4
3731.632	-49.4
3734.336	-54.4
3737.039	-45.4
3739.74	-56.4
3742.439	-51.4
3745.136	-52.4
3747.83	-46.4
3750.523	-50.4
3753.213	-50.4
3755.902	-55.4
3758.589	-51.4
3761.273	-12.4
3763.956	-50.4
3766.636	-51.4
3769.315	-47.4
3771.991	-50.4
3774.665	-54.4
3777.338	-50.4
3780.008	-48.4
3782.677	-54.4
3785.343	-51.4
3788.007	-48.4
3790.67	-48.4
3793.33	-53.4
3795.989	-54.4
3798.645	-54.4
3801.299	-52.4
3803.952	-55.4
3806.602	-52.4
3809.251	-53.4
3811.897	-55.4
3814.542	-59.4
3817.184	-53.4
3819.825	-50.4
3822.463	-53.4
3825.1	-47.4
3827.735	-56.4
3830.367	-58.4
3832.998	-53.4
3835.627	-55.4
3838.253	-50.4
3840.878	-51.4
3843.501	-52.4
3846.122	-57.4
3848.741	-51.4
3851.358	-48.4
3853.973	-48.4
3856.586	-47.4
3859.197	-51.4
3861.806	-52.4
3864.414	-58.4
3867.019	-54.4
3869.622	-47.4
3872.224	-41.4
3874.823	-31.4
3877.421	-33.4
3880.016	-14.4
3882.61	9.6
3885.202	15.6
3887.792	2.6
3890.38	-14.4
3892.966	-30.4
3895.55	-47.4
3898.132	-51.4
3900.713	-50.4
3903.291	-54.4
3905.868	-49.4
3908.442	-51.4
3911.015	-56.4
3913.586	-54.4
3916.155	-60.4
3918.722	-54.4
3921.287	-53.4
3923.85	-43.4
3926.411	-56.4
3928.971	-57.4
3931.528	-53.4
3934.084	-52.4
3936.638	-51.4
3939.19	-60.4
3941.74	-57.4
3944.288	-53.4
3946.834	-51.4
3949.378	-57.4
3951.921	-57.4
3954.462	-53.4
3957	-48.4
3959.537	-47.4
3962.072	-49.4
3964.606	-52.4
3967.137	-49.4
3969.667	-56.4
3972.194	-50.4
3974.72	-46.4
3977.244	-49.4
3979.766	-54.4
3982.286	-57.4
3984.805	-61.4
3987.321	-53.4
3989.836	-48.4
3992.349	-53.4
3994.86	-52.4
3997.369	-57.4
3999.877	-52.4
4002.382	-51.4
4004.886	-51.4
4007.388	-48.4
4009.888	-50.4
4012.386	-50.4
4014.883	-51.4
4017.377	-55.4
4019.87	-54.4
4022.361	-56.4
4024.85	-51.4
4027.338	-51.4
4029.823	-57.4
4032.307	-54.4
4034.789	-43.4
4037.269	-57.4
4039.747	-47.4
4042.224	-53.4
4044.699	-55.4
4047.172	-53.4
4049.643	-57.4
4052.112	-51.4
4054.58	-57.4
4057.046	-49.4
4059.51	-58.4
4061.972	-59.4
4064.432	-45.4
4066.891	-49.4
4069.348	-52.4
4071.803	-42.4
4074.256	-50.4
4076.708	-52.4
4079.158	-56.4
4081.606	-52.4
4084.052	-54.4
4086.497	-52.4
4088.939	-51.4
4091.38	-59.4
4093.819	-59.4
4096.257	-52.4
4098.693	-54.4
4101.127	-52.4
4103.559	-60.4
4105.989	23.6
4108.418	11.6
4110.845	11.6
4113.27	11.6
4115.694	13.6
4118.115	14.6
4120.535	-54.4
4122.954	-49.4
4125.37	-52.4
4127.785	-48.4
4130.198	-50.4
4132.609	-54.4
4135.019	-55.4
4137.427	-58.4
4139.833	-51.4
4142.237	-56.4
