Data from 2018-3-7_conc=2_n=7_RamanShift_05.txt Node
Date: Wed Mar 07 10:59:52 IST 2018
User: aro
Spectrometer: QEPB0276
Trigger mode: 0
Integration Time (sec): 3.000000E1
Scans to average: 1
Electric dark correction enabled: true
Nonlinearity correction enabled: false
Boxcar width: 0
XAxis mode: Raman Shifts
Number of Pixels in Spectrum: 1044
>>>>>Begin Spectral Data<<<<<
160.701	10.6
166.742	15.6
172.777	45.6
178.805	125.6
184.826	319.6
190.841	667.6
196.849	1107.6
202.85	1445.6
208.845	1560.6
214.833	1567.6
220.815	1550.6
226.789	1547.6
232.758	1567.6
238.719	1557.6
244.674	1565.6
250.623	1551.6
256.565	1555.6
262.5	1536.6
268.429	1528.6
274.351	1514.6
280.267	1526.6
286.176	1528.6
292.079	1511.6
297.975	1518.6
303.865	1506.6
309.748	1512.6
315.625	1512.6
321.495	1516.6
327.359	1512.6
333.217	1532.6
339.068	1548.6
344.912	1542.6
350.751	1544.6
356.583	1550.6
362.408	1548.6
368.227	1554.6
374.04	1552.6
379.847	1547.6
385.647	1575.6
391.44	1587.6
397.228	1577.6
403.009	1593.6
408.784	1617.6
414.553	1621.6
420.315	1633.6
426.071	1622.6
431.821	1622.6
437.565	1615.6
443.302	1622.6
449.033	1603.6
454.758	1603.6
460.477	1594.6
466.189	1578.6
471.896	1551.6
477.596	1544.6
483.29	1538.6
488.978	1543.6
494.66	1547.6
500.335	1490.6
506.005	1437.6
511.668	1365.6
517.325	1310.6
522.977	1244.6
528.622	1205.6
534.261	1183.6
539.894	1148.6
545.521	1153.6
551.141	1142.6
556.756	1125.6
562.365	1117.6
567.968	1110.6
573.565	1106.6
579.155	1102.6
584.74	1091.6
590.319	1069.6
595.892	1077.6
601.459	1073.6
607.02	1073.6
612.575	1074.6
618.124	1067.6
623.667	1046.6
629.204	1037.6
634.735	1027.6
640.261	1011.6
645.781	998.6
651.294	987.6
656.802	995.6
662.304	986.6
667.8	990.6
673.29	998.6
678.775	982.6
684.254	989.6
689.726	970.6
695.193	970.6
700.655	972.6
706.11	958.6
711.56	947.6
717.004	949.6
722.442	931.6
727.874	937.6
733.301	934.6
738.722	920.6
744.137	925.6
749.547	925.6
754.951	901.6
760.349	919.6
765.741	926.6
771.128	933.6
776.509	938.6
781.885	965.6
787.254	968.6
792.618	973.6
797.977	970.6
803.33	947.6
808.677	957.6
814.019	936.6
819.355	930.6
824.686	915.6
830.011	925.6
835.33	907.6
840.644	925.6
845.952	907.6
851.255	895.6
856.552	893.6
861.844	885.6
867.13	862.6
872.41	871.6
877.686	885.6
882.955	869.6
888.219	859.6
893.478	839.6
898.731	810.6
903.979	818.6
909.221	796.6
914.458	798.6
919.69	796.6
924.916	804.6
930.136	806.6
935.351	811.6
940.561	814.6
945.766	805.6
950.965	813.6
956.158	790.6
961.347	781.6
966.529	788.6
971.707	756.6
976.879	750.6
982.046	740.6
987.208	730.6
992.364	749.6
997.515	747.6
1002.66	744.6
1007.801	764.6
1012.936	759.6
1018.066	764.6
1023.19	769.6
1028.309	763.6
1033.423	770.6
1038.532	767.6
1043.636	759.6
1048.734	760.6
1053.827	754.6
1058.915	742.6
1063.998	737.6
1069.075	724.6
1074.147	732.6
1079.214	741.6
1084.276	730.6
1089.333	738.6
1094.385	743.6
1099.431	722.6
1104.472	728.6
1109.509	723.6
1114.54	719.6
1119.565	697.6
1124.586	688.6
1129.602	692.6
1134.613	670.6
1139.618	687.6
1144.619	665.6
1149.614	681.6
1154.604	674.6
1159.589	684.6
1164.57	693.6
1169.545	682.6
1174.515	684.6
1179.48	691.6
1184.44	673.6
1189.395	672.6
1194.345	667.6
1199.29	641.6
1204.23	673.6
1209.165	662.6
1214.095	658.6
1219.021	665.6
1223.941	680.6
1228.856	675.6
1233.766	670.6
1238.672	676.6
1243.572	671.6
1248.467	669.6
1253.358	656.6
1258.244	643.6
1263.124	635.6
1268	628.6
1272.871	623.6
1277.737	615.6
1282.599	618.6
1287.455	613.6
1292.306	612.6
1297.153	611.6
1301.995	615.6
1306.832	616.6
1311.664	625.6
1316.491	636.6
1321.314	615.6
1326.132	617.6
1330.945	605.6
1335.753	601.6
1340.556	579.6
1345.354	564.6
1350.148	558.6
1354.937	547.6
1359.722	539.6
1364.501	535.6
1369.276	529.6
1374.046	511.6
1378.811	514.6
1383.572	505.6
1388.327	511.6
1393.079	493.6
1397.825	504.6
1402.567	504.6
1407.304	509.6
1412.036	515.6
1416.764	517.6
1421.487	517.6
1426.205	511.6
1430.919	512.6
1435.628	509.6
1440.333	517.6
1445.032	510.6
1449.727	531.6
1454.418	532.6
1459.104	523.6
1463.785	520.6
1468.462	510.6
1473.134	504.6
1477.802	494.6
1482.465	473.6
1487.123	457.6
1491.777	444.6
1496.426	451.6
1501.071	447.6
1505.711	436.6
1510.347	434.6
1514.978	433.6
1519.604	429.6
1524.226	423.6
1528.844	442.6
1533.457	412.6
1538.065	423.6
1542.669	423.6
1547.269	425.6
1551.864	435.6
1556.454	447.6
1561.041	451.6
1565.622	433.6
1570.199	453.6
1574.772	440.6
1579.34	448.6
1583.904	459.6
1588.464	472.6
1593.019	467.6
1597.569	464.6
1602.115	465.6
1606.657	456.6
1611.195	451.6
1615.728	447.6
1620.256	456.6
1624.78	461.6
1629.3	450.6
1633.816	451.6
1638.327	461.6
1642.834	440.6
1647.336	448.6
1651.834	456.6
1656.328	452.6
1660.817	448.6
1665.302	438.6
1669.783	431.6
1674.259	425.6
1678.732	409.6
1683.199	394.6
1687.663	381.6
1692.122	360.6
1696.577	360.6
1701.028	338.6
1705.474	314.6
1709.917	315.6
1714.355	315.6
1718.788	304.6
1723.218	310.6
1727.643	308.6
1732.064	309.6
1736.481	306.6
1740.893	304.6
1745.301	294.6
1749.705	294.6
1754.105	281.6
1758.501	264.6
1762.893	270.6
1767.28	257.6
1771.663	265.6
1776.042	264.6
1780.417	253.6
1784.787	255.6
1789.154	241.6
1793.516	228.6
1797.874	230.6
1802.228	232.6
1806.578	233.6
1810.924	226.6
1815.266	239.6
1819.603	232.6
1823.937	243.6
1828.266	231.6
1832.591	240.6
1836.913	235.6
1841.23	232.6
1845.543	230.6
1849.852	240.6
1854.156	239.6
1858.457	233.6
1862.754	239.6
1867.047	228.6
1871.335	237.6
1875.62	233.6
1879.9	236.6
1884.177	232.6
1888.449	226.6
1892.718	226.6
1896.982	219.6
1901.243	208.6
1905.499	205.6
1909.752	201.6
1914	204.6
1918.245	201.6
1922.485	195.6
1926.722	185.6
1930.954	196.6
1935.183	196.6
1939.408	190.6
1943.628	182.6
1947.845	190.6
1952.058	190.6
1956.267	188.6
1960.472	182.6
1964.673	176.6
1968.87	174.6
1973.063	186.6
1977.252	177.6
1981.438	181.6
1985.619	183.6
1989.797	180.6
1993.971	189.6
1998.14	185.6
2002.306	183.6
2006.469	190.6
2010.627	186.6
2014.781	174.6
2018.932	179.6
2023.078	182.6
2027.221	176.6
2031.36	183.6
2035.495	174.6
2039.627	160.6
2043.754	169.6
2047.878	168.6
2051.998	165.6
2056.114	164.6
2060.226	168.6
2064.334	158.6
2068.439	156.6
2072.54	150.6
2076.637	154.6
2080.73	155.6
2084.82	161.6
2088.906	152.6
2092.988	152.6
2097.066	152.6
2101.14	155.6
2105.211	151.6
2109.278	147.6
2113.342	141.6
2117.401	144.6
2121.457	143.6
2125.509	143.6
2129.558	136.6
2133.602	143.6
2137.643	141.6
2141.681	138.6
2145.714	152.6
2149.744	143.6
2153.77	141.6
2157.793	138.6
2161.812	141.6
2165.827	140.6
2169.838	128.6
2173.846	132.6
2177.851	128.6
2181.851	132.6
2185.848	136.6
2189.841	135.6
2193.831	123.6
2197.817	133.6
2201.799	125.6
2205.778	127.6
2209.753	123.6
2213.725	129.6
2217.693	134.6
2221.657	130.6
2225.618	123.6
2229.575	119.6
2233.529	122.6
2237.479	135.6
2241.425	112.6
2245.368	118.6
2249.307	110.6
2253.243	108.6
2257.175	111.6
2261.104	108.6
2265.029	111.6
2268.95	107.6
2272.868	114.6
2276.783	104.6
2280.694	99.6
2284.601	100.6
2288.505	103.6
2292.405	105.6
2296.302	108.6
2300.195	101.6
2304.085	100.6
2307.971	86.6
2311.854	94.6
2315.734	90.6
2319.609	98.6
2323.482	96.6
2327.351	96.6
2331.216	106.6
2335.078	116.6
2338.937	116.6
2342.792	102.6
2346.643	101.6
2350.492	100.6
2354.336	96.6
2358.178	84.6
2362.015	91.6
2365.85	95.6
2369.681	98.6
2373.508	100.6
2377.333	102.6
2381.153	92.6
2384.971	91.6
2388.785	93.6
2392.595	92.6
2396.402	97.6
2400.206	90.6
2404.007	95.6
2407.804	88.6
2411.597	88.6
2415.388	83.6
2419.174	91.6
2422.958	83.6
2426.738	94.6
2430.515	85.6
2434.289	82.6
2438.059	85.6
2441.825	80.6
2445.589	81.6
2449.349	80.6
2453.106	85.6
2456.859	73.6
2460.61	78.6
2464.356	78.6
2468.1	70.6
2471.84	69.6
2475.577	67.6
2479.311	72.6
2483.041	76.6
2486.768	76.6
2490.492	74.6
2494.213	69.6
2497.93	74.6
2501.644	75.6
2505.355	63.6
2509.062	69.6
2512.766	63.6
2516.467	62.6
2520.165	62.6
2523.859	65.6
2527.551	60.6
2531.239	64.6
2534.923	59.6
2538.605	55.6
2542.283	50.6
2545.958	60.6
2549.63	57.6
2553.299	58.6
2556.964	48.6
2560.626	56.6
2564.285	52.6
2567.941	48.6
2571.594	50.6
2575.243	47.6
2578.89	50.6
2582.533	51.6
2586.173	50.6
2589.809	53.6
2593.443	54.6
2597.073	51.6
2600.701	51.6
2604.325	42.6
2607.946	38.6
2611.564	50.6
2615.178	47.6
2618.79	40.6
2622.398	39.6
2626.004	42.6
2629.606	38.6
2633.205	43.6
2636.801	38.6
2640.394	47.6
2643.983	42.6
2647.57	42.6
2651.153	36.6
2654.734	36.6
2658.311	35.6
2661.885	43.6
2665.456	41.6
2669.025	36.6
2672.589	34.6
2676.151	35.6
2679.71	29.6
2683.266	34.6
2686.819	35.6
2690.368	37.6
2693.915	39.6
2697.458	29.6
2700.999	35.6
2704.536	33.6
2708.071	27.6
2711.602	23.6
2715.13	21.6
2718.656	33.6
2722.178	24.6
2725.697	25.6
2729.214	26.6
2732.727	32.6
2736.237	33.6
2739.744	24.6
2743.249	22.6
2746.75	21.6
2750.248	27.6
2753.743	13.6
2757.236	15.6
2760.725	19.6
2764.211	20.6
2767.695	21.6
2771.175	22.6
2774.652	19.6
2778.127	21.6
2781.598	13.6
2785.067	22.6
2788.532	14.6
2791.995	13.6
2795.455	17.6
2798.911	10.6
2802.365	19.6
2805.816	13.6
2809.264	16.6
2812.709	18.6
2816.151	23.6
2819.59	26.6
2823.026	17.6
2826.46	21.6
2829.89	17.6
2833.318	21.6
2836.742	21.6
2840.164	12.6
2843.583	18.6
2846.999	18.6
2850.412	21.6
2853.822	15.6
2857.229	21.6
2860.634	13.6
2864.035	18.6
2867.434	20.6
2870.83	29.6
2874.223	26.6
2877.613	27.6
2881	31.6
2884.385	32.6
2887.766	31.6
2891.145	19.6
2894.521	31.6
2897.894	23.6
2901.264	28.6
2904.631	19.6
2907.996	26.6
2911.358	33.6
2914.717	29.6
2918.073	26.6
2921.426	28.6
2924.777	35.6
2928.124	35.6
2931.469	36.6
2934.811	40.6
2938.15	35.6
2941.487	44.6
2944.821	39.6
2948.152	43.6
2951.48	43.6
2954.805	37.6
2958.128	37.6
2961.447	39.6
2964.765	36.6
2968.079	36.6
2971.39	33.6
2974.699	36.6
2978.005	41.6
2981.308	26.6
2984.609	27.6
2987.907	34.6
2991.202	34.6
2994.494	34.6
2997.784	29.6
3001.07	33.6
3004.355	33.6
3007.636	41.6
3010.915	39.6
3014.191	33.6
3017.464	39.6
3020.734	33.6
3024.002	48.6
3027.267	36.6
3030.53	43.6
3033.789	39.6
3037.046	40.6
3040.301	35.6
3043.552	46.6
3046.801	44.6
3050.048	51.6
3053.291	46.6
3056.532	46.6
3059.771	53.6
3063.006	58.6
3066.239	57.6
3069.469	65.6
3072.697	65.6
3075.922	67.6
3079.144	63.6
3082.364	69.6
3085.581	70.6
3088.795	75.6
3092.007	76.6
3095.216	80.6
3098.423	75.6
3101.627	72.6
3104.828	88.6
3108.026	88.6
3111.222	82.6
3114.416	85.6
3117.607	85.6
3120.795	85.6
3123.98	89.6
3127.163	102.6
3130.344	95.6
3133.521	100.6
3136.696	106.6
3139.869	106.6
3143.039	104.6
3146.206	115.6
3149.371	103.6
3152.533	117.6
3155.693	122.6
3158.85	114.6
3162.005	119.6
3165.157	112.6
3168.306	115.6
3171.453	119.6
3174.597	119.6
3177.739	119.6
3180.878	123.6
3184.014	110.6
3187.149	114.6
3190.28	115.6
3193.409	123.6
3196.536	119.6
3199.659	123.6
3202.781	114.6
3205.9	113.6
3209.016	121.6
3212.13	123.6
3215.241	111.6
3218.35	111.6
3221.456	120.6
3224.56	114.6
3227.661	111.6
3230.76	104.6
3233.856	107.6
3236.95	102.6
3240.041	103.6
3243.13	95.6
3246.216	96.6
3249.3	99.6
3252.382	100.6
3255.46	98.6
3258.537	94.6
3261.611	95.6
3264.682	92.6
3267.751	96.6
3270.818	83.6
3273.882	88.6
3276.943	86.6
3280.002	86.6
3283.059	85.6
3286.113	80.6
3289.165	84.6
3292.214	78.6
3295.261	83.6
3298.306	83.6
3301.348	90.6
3304.387	81.6
3307.425	78.6
3310.459	73.6
3313.492	72.6
3316.521	75.6
3319.549	84.6
3322.574	79.6
3325.597	77.6
3328.617	77.6
3331.635	82.6
3334.65	81.6
3337.663	71.6
3340.674	75.6
3343.682	77.6
3346.688	73.6
3349.691	79.6
3352.692	83.6
3355.691	82.6
3358.687	76.6
3361.681	77.6
3364.673	73.6
3367.662	80.6
3370.649	73.6
3373.633	69.6
3376.615	68.6
3379.595	62.6
3382.572	60.6
3385.547	63.6
3388.52	62.6
3391.49	55.6
3394.458	50.6
3397.424	61.6
3400.387	61.6
3403.348	52.6
3406.307	51.6
3409.263	53.6
3412.217	56.6
3415.168	60.6
3418.118	58.6
3421.065	45.6
3424.009	49.6
3426.951	43.6
3429.891	42.6
3432.829	45.6
3435.764	50.6
3438.697	42.6
3441.628	35.6
3444.557	40.6
3447.483	39.6
3450.407	29.6
3453.328	27.6
3456.247	25.6
3459.164	31.6
3462.079	21.6
3464.991	17.6
3467.902	17.6
3470.809	20.6
3473.715	14.6
3476.618	19.6
3479.519	8.6
3482.418	21.6
3485.315	13.6
3488.209	8.6
3491.101	2.6
3493.99	6.6
3496.878	3.6
3499.763	-1.4
3502.646	-0.4
3505.527	0.6
3508.405	0.6
3511.281	-2.4
3514.155	-1.4
3517.027	-6.4
3519.897	-3.4
3522.764	-7.4
3525.629	-5.4
3528.492	-9.4
3531.352	-17.4
3534.211	-22.4
3537.067	-15.4
3539.921	-15.4
3542.773	-17.4
3545.622	-17.4
3548.469	-14.4
3551.315	-19.4
3554.157	-17.4
3556.998	-18.4
3559.837	-20.4
3562.673	-22.4
3565.507	-18.4
3568.339	-18.4
3571.169	-29.4
3573.996	-20.4
3576.822	-28.4
3579.645	-25.4
3582.466	-24.4
3585.285	-28.4
3588.101	-28.4
3590.916	-23.4
3593.728	-30.4
3596.538	-30.4
3599.346	-30.4
3602.152	-30.4
3604.956	-31.4
3607.757	-26.4
3610.556	-28.4
3613.354	-35.4
3616.149	-39.4
3618.942	-32.4
3621.732	-30.4
3624.521	-31.4
3627.307	-32.4
3630.092	-35.4
3632.874	-35.4
3635.654	-35.4
3638.432	-34.4
3641.208	-37.4
3643.982	-33.4
3646.753	-40.4
3649.523	-37.4
3652.29	-37.4
3655.055	-33.4
3657.818	-42.4
3660.579	-36.4
3663.338	-33.4
3666.095	-38.4
3668.849	-41.4
3671.602	-36.4
3674.352	-37.4
3677.101	-42.4
3679.847	-42.4
3682.591	-44.4
3685.333	-38.4
3688.073	-39.4
3690.811	-38.4
3693.547	-37.4
3696.281	-37.4
3699.013	-39.4
3701.742	-41.4
3704.47	-37.4
3707.195	-43.4
3709.919	-41.4
3712.64	-40.4
3715.359	-43.4
3718.076	-51.4
3720.792	-42.4
3723.505	-42.4
3726.216	-35.4
3728.925	-43.4
3731.632	-42.4
3734.336	-41.4
3737.039	-41.4
3739.74	-46.4
3742.439	-47.4
3745.136	-47.4
3747.83	-43.4
3750.523	-49.4
3753.213	-54.4
3755.902	-43.4
3758.589	-42.4
3761.273	-42.4
3763.956	-46.4
3766.636	-40.4
3769.315	-37.4
3771.991	-47.4
3774.665	-49.4
3777.338	-44.4
3780.008	-44.4
3782.677	-49.4
3785.343	-48.4
3788.007	-48.4
3790.67	-48.4
3793.33	-49.4
3795.989	-48.4
3798.645	-47.4
3801.299	-39.4
3803.952	-41.4
3806.602	-46.4
3809.251	-45.4
3811.897	-49.4
3814.542	-53.4
3817.184	-46.4
3819.825	-40.4
3822.463	-42.4
3825.1	-45.4
3827.735	-52.4
3830.367	-49.4
3832.998	-46.4
3835.627	-45.4
3838.253	-41.4
3840.878	-38.4
3843.501	-36.4
3846.122	-45.4
3848.741	-41.4
3851.358	-45.4
3853.973	-43.4
3856.586	-39.4
3859.197	-40.4
3861.806	-47.4
3864.414	-48.4
3867.019	-47.4
3869.622	-42.4
3872.224	-34.4
3874.823	-27.4
3877.421	-27.4
3880.016	-13.4
3882.61	9.6
3885.202	15.6
3887.792	2.6
3890.38	-17.4
3892.966	-34.4
3895.55	-42.4
3898.132	-43.4
3900.713	-43.4
3903.291	-49.4
3905.868	-41.4
3908.442	-45.4
3911.015	-47.4
3913.586	-44.4
3916.155	-43.4
3918.722	-40.4
3921.287	-47.4
3923.85	-46.4
3926.411	-51.4
3928.971	-54.4
3931.528	-47.4
3934.084	-47.4
3936.638	-44.4
3939.19	-50.4
3941.74	-45.4
3944.288	-48.4
3946.834	-46.4
3949.378	-48.4
3951.921	-46.4
3954.462	-47.4
3957	-37.4
3959.537	-40.4
3962.072	-43.4
3964.606	-45.4
3967.137	-44.4
3969.667	-47.4
3972.194	-44.4
3974.72	-35.4
3977.244	-41.4
3979.766	-42.4
3982.286	-44.4
3984.805	-55.4
3987.321	-41.4
3989.836	-39.4
3992.349	-47.4
3994.86	-49.4
3997.369	-46.4
3999.877	-50.4
4002.382	-49.4
4004.886	-45.4
4007.388	-44.4
4009.888	-40.4
4012.386	-41.4
4014.883	-38.4
4017.377	-42.4
4019.87	-46.4
4022.361	-50.4
4024.85	-41.4
4027.338	-46.4
4029.823	-49.4
4032.307	-49.4
4034.789	-45.4
4037.269	-44.4
4039.747	-45.4
4042.224	-48.4
4044.699	-46.4
4047.172	-47.4
4049.643	-47.4
4052.112	-41.4
4054.58	-42.4
4057.046	-46.4
4059.51	-52.4
4061.972	-48.4
4064.432	-48.4
4066.891	-44.4
4069.348	-41.4
4071.803	-39.4
4074.256	-47.4
4076.708	-46.4
4079.158	-46.4
4081.606	-45.4
4084.052	-41.4
4086.497	-38.4
4088.939	-44.4
4091.38	-48.4
4093.819	-50.4
4096.257	-53.4
4098.693	-49.4
4101.127	-42.4
4103.559	-47.4
4105.989	18.6
4108.418	23.6
4110.845	10.6
4113.27	18.6
4115.694	17.6
4118.115	19.6
4120.535	-45.4
4122.954	-45.4
4125.37	-49.4
4127.785	-41.4
4130.198	-42.4
4132.609	-51.4
4135.019	-46.4
4137.427	-48.4
4139.833	-50.4
4142.237	-52.4
