Data from 2018-3-7_conc=3_n=2_RamanShift_05.txt Node
Date: Wed Mar 07 11:20:52 IST 2018
User: aro
Spectrometer: QEPB0276
Trigger mode: 0
Integration Time (sec): 3.000000E1
Scans to average: 1
Electric dark correction enabled: true
Nonlinearity correction enabled: false
Boxcar width: 0
XAxis mode: Raman Shifts
Number of Pixels in Spectrum: 1044
>>>>>Begin Spectral Data<<<<<
160.701	9.2
166.742	17.2
172.777	48.2
178.805	126.2
184.826	339.2
190.841	700.2
196.849	1162.2
202.85	1508.2
208.845	1639.2
214.833	1644.2
220.815	1634.2
226.789	1618.2
232.758	1646.2
238.719	1660.2
244.674	1639.2
250.623	1638.2
256.565	1626.2
262.5	1593.2
268.429	1606.2
274.351	1575.2
280.267	1587.2
286.176	1586.2
292.079	1582.2
297.975	1584.2
303.865	1591.2
309.748	1579.2
315.625	1573.2
321.495	1570.2
327.359	1589.2
333.217	1585.2
339.068	1606.2
344.912	1608.2
350.751	1603.2
356.583	1616.2
362.408	1606.2
368.227	1619.2
374.04	1615.2
379.847	1617.2
385.647	1634.2
391.44	1641.2
397.228	1638.2
403.009	1655.2
408.784	1664.2
414.553	1668.2
420.315	1681.2
426.071	1684.2
431.821	1672.2
437.565	1687.2
443.302	1679.2
449.033	1690.2
454.758	1668.2
460.477	1656.2
466.189	1652.2
471.896	1626.2
477.596	1619.2
483.29	1622.2
488.978	1615.2
494.66	1596.2
500.335	1566.2
506.005	1507.2
511.668	1449.2
517.325	1398.2
522.977	1342.2
528.622	1311.2
534.261	1274.2
539.894	1236.2
545.521	1230.2
551.141	1206.2
556.756	1211.2
562.365	1199.2
567.968	1182.2
573.565	1176.2
579.155	1171.2
584.74	1168.2
590.319	1164.2
595.892	1170.2
601.459	1156.2
607.02	1149.2
612.575	1140.2
618.124	1138.2
623.667	1114.2
629.204	1101.2
634.735	1085.2
640.261	1067.2
645.781	1069.2
651.294	1077.2
656.802	1065.2
662.304	1064.2
667.8	1069.2
673.29	1058.2
678.775	1057.2
684.254	1065.2
689.726	1060.2
695.193	1049.2
700.655	1038.2
706.11	1018.2
711.56	1026.2
717.004	1013.2
722.442	1003.2
727.874	1009.2
733.301	1009.2
738.722	981.2
744.137	1002.2
749.547	996.2
754.951	989.2
760.349	987.2
765.741	994.2
771.128	993.2
776.509	1033.2
781.885	1030.2
787.254	1039.2
792.618	1028.2
797.977	1033.2
803.33	1020.2
808.677	1009.2
814.019	1010.2
819.355	996.2
824.686	976.2
830.011	996.2
835.33	975.2
840.644	978.2
845.952	981.2
851.255	953.2
856.552	976.2
861.844	946.2
867.13	941.2
872.41	941.2
877.686	940.2
882.955	915.2
888.219	911.2
893.478	902.2
898.731	898.2
903.979	879.2
909.221	873.2
914.458	877.2
919.69	863.2
924.916	873.2
930.136	866.2
935.351	888.2
940.561	875.2
945.766	873.2
950.965	869.2
956.158	872.2
961.347	855.2
966.529	843.2
971.707	812.2
976.879	816.2
982.046	820.2
987.208	807.2
992.364	798.2
997.515	814.2
1002.66	810.2
1007.801	829.2
1012.936	830.2
1018.066	829.2
1023.19	824.2
1028.309	843.2
1033.423	830.2
1038.532	818.2
1043.636	825.2
1048.734	801.2
1053.827	816.2
1058.915	801.2
1063.998	798.2
1069.075	791.2
1074.147	788.2
1079.214	788.2
1084.276	787.2
1089.333	787.2
1094.385	797.2
1099.431	782.2
1104.472	795.2
1109.509	778.2
1114.54	780.2
1119.565	763.2
1124.586	759.2
1129.602	752.2
1134.613	746.2
1139.618	739.2
1144.619	741.2
1149.614	748.2
1154.604	728.2
1159.589	750.2
1164.57	740.2
1169.545	738.2
1174.515	743.2
1179.48	742.2
1184.44	730.2
1189.395	726.2
1194.345	706.2
1199.29	719.2
1204.23	719.2
1209.165	712.2
1214.095	721.2
1219.021	727.2
1223.941	732.2
1228.856	724.2
1233.766	729.2
1238.672	744.2
1243.572	725.2
1248.467	732.2
1253.358	719.2
1258.244	705.2
1263.124	685.2
1268	691.2
1272.871	676.2
1277.737	663.2
1282.599	679.2
1287.455	654.2
1292.306	661.2
1297.153	671.2
1301.995	676.2
1306.832	688.2
1311.664	681.2
1316.491	684.2
1321.314	671.2
1326.132	669.2
1330.945	658.2
1335.753	644.2
1340.556	627.2
1345.354	635.2
1350.148	616.2
1354.937	599.2
1359.722	591.2
1364.501	573.2
1369.276	561.2
1374.046	561.2
1378.811	548.2
1383.572	559.2
1388.327	553.2
1393.079	549.2
1397.825	553.2
1402.567	552.2
1407.304	559.2
1412.036	560.2
1416.764	564.2
1421.487	558.2
1426.205	559.2
1430.919	561.2
1435.628	569.2
1440.333	577.2
1445.032	578.2
1449.727	590.2
1454.418	588.2
1459.104	571.2
1463.785	563.2
1468.462	560.2
1473.134	533.2
1477.802	525.2
1482.465	511.2
1487.123	511.2
1491.777	490.2
1496.426	493.2
1501.071	482.2
1505.711	484.2
1510.347	477.2
1514.978	469.2
1519.604	462.2
1524.226	484.2
1528.844	474.2
1533.457	470.2
1538.065	462.2
1542.669	469.2
1547.269	458.2
1551.864	480.2
1556.454	481.2
1561.041	495.2
1565.622	487.2
1570.199	483.2
1574.772	485.2
1579.34	501.2
1583.904	498.2
1588.464	510.2
1593.019	505.2
1597.569	512.2
1602.115	510.2
1606.657	500.2
1611.195	498.2
1615.728	492.2
1620.256	484.2
1624.78	495.2
1629.3	506.2
1633.816	493.2
1638.327	494.2
1642.834	504.2
1647.336	496.2
1651.834	491.2
1656.328	497.2
1660.817	507.2
1665.302	480.2
1669.783	471.2
1674.259	471.2
1678.732	459.2
1683.199	445.2
1687.663	423.2
1692.122	405.2
1696.577	393.2
1701.028	380.2
1705.474	354.2
1709.917	362.2
1714.355	347.2
1718.788	345.2
1723.218	349.2
1727.643	345.2
1732.064	342.2
1736.481	346.2
1740.893	337.2
1745.301	331.2
1749.705	332.2
1754.105	300.2
1758.501	307.2
1762.893	300.2
1767.28	299.2
1771.663	288.2
1776.042	282.2
1780.417	281.2
1784.787	280.2
1789.154	271.2
1793.516	263.2
1797.874	263.2
1802.228	257.2
1806.578	266.2
1810.924	253.2
1815.266	255.2
1819.603	255.2
1823.937	265.2
1828.266	251.2
1832.591	257.2
1836.913	257.2
1841.23	255.2
1845.543	264.2
1849.852	265.2
1854.156	259.2
1858.457	254.2
1862.754	272.2
1867.047	265.2
1871.335	263.2
1875.62	261.2
1879.9	263.2
1884.177	248.2
1888.449	246.2
1892.718	249.2
1896.982	244.2
1901.243	227.2
1905.499	237.2
1909.752	234.2
1914	228.2
1918.245	221.2
1922.485	217.2
1926.722	212.2
1930.954	212.2
1935.183	215.2
1939.408	214.2
1943.628	210.2
1947.845	212.2
1952.058	203.2
1956.267	208.2
1960.472	204.2
1964.673	195.2
1968.87	195.2
1973.063	197.2
1977.252	201.2
1981.438	211.2
1985.619	201.2
1989.797	197.2
1993.971	204.2
1998.14	204.2
2002.306	194.2
2006.469	213.2
2010.627	198.2
2014.781	209.2
2018.932	198.2
2023.078	197.2
2027.221	194.2
2031.36	202.2
2035.495	189.2
2039.627	182.2
2043.754	193.2
2047.878	183.2
2051.998	185.2
2056.114	183.2
2060.226	180.2
2064.334	180.2
2068.439	171.2
2072.54	177.2
2076.637	183.2
2080.73	172.2
2084.82	173.2
2088.906	169.2
2092.988	160.2
2097.066	163.2
2101.14	171.2
2105.211	163.2
2109.278	161.2
2113.342	161.2
2117.401	157.2
2121.457	155.2
2125.509	155.2
2129.558	162.2
2133.602	150.2
2137.643	153.2
2141.681	146.2
2145.714	152.2
2149.744	148.2
2153.77	162.2
2157.793	156.2
2161.812	156.2
2165.827	160.2
2169.838	155.2
2173.846	150.2
2177.851	147.2
2181.851	145.2
2185.848	144.2
2189.841	140.2
2193.831	142.2
2197.817	142.2
2201.799	146.2
2205.778	138.2
2209.753	143.2
2213.725	137.2
2217.693	139.2
2221.657	144.2
2225.618	130.2
2229.575	139.2
2233.529	137.2
2237.479	135.2
2241.425	135.2
2245.368	131.2
2249.307	141.2
2253.243	126.2
2257.175	125.2
2261.104	116.2
2265.029	124.2
2268.95	120.2
2272.868	118.2
2276.783	114.2
2280.694	110.2
2284.601	106.2
2288.505	121.2
2292.405	112.2
2296.302	122.2
2300.195	114.2
2304.085	114.2
2307.971	110.2
2311.854	110.2
2315.734	101.2
2319.609	112.2
2323.482	106.2
2327.351	105.2
2331.216	118.2
2335.078	128.2
2338.937	121.2
2342.792	110.2
2346.643	111.2
2350.492	109.2
2354.336	105.2
2358.178	97.2
2362.015	105.2
2365.85	105.2
2369.681	111.2
2373.508	108.2
2377.333	102.2
2381.153	105.2
2384.971	92.2
2388.785	106.2
2392.595	101.2
2396.402	107.2
2400.206	106.2
2404.007	102.2
2407.804	104.2
2411.597	103.2
2415.388	105.2
2419.174	110.2
2422.958	101.2
2426.738	104.2
2430.515	100.2
2434.289	99.2
2438.059	94.2
2441.825	87.2
2445.589	86.2
2449.349	90.2
2453.106	95.2
2456.859	92.2
2460.61	85.2
2464.356	92.2
2468.1	93.2
2471.84	86.2
2475.577	80.2
2479.311	86.2
2483.041	82.2
2486.768	86.2
2490.492	81.2
2494.213	74.2
2497.93	84.2
2501.644	83.2
2505.355	75.2
2509.062	73.2
2512.766	75.2
2516.467	76.2
2520.165	76.2
2523.859	73.2
2527.551	71.2
2531.239	72.2
2534.923	64.2
2538.605	67.2
2542.283	62.2
2545.958	64.2
2549.63	64.2
2553.299	59.2
2556.964	55.2
2560.626	66.2
2564.285	65.2
2567.941	58.2
2571.594	55.2
2575.243	67.2
2578.89	63.2
2582.533	61.2
2586.173	64.2
2589.809	59.2
2593.443	58.2
2597.073	55.2
2600.701	59.2
2604.325	43.2
2607.946	48.2
2611.564	58.2
2615.178	50.2
2618.79	53.2
2622.398	53.2
2626.004	51.2
2629.606	45.2
2633.205	47.2
2636.801	52.2
2640.394	47.2
2643.983	45.2
2647.57	45.2
2651.153	42.2
2654.734	43.2
2658.311	42.2
2661.885	44.2
2665.456	46.2
2669.025	48.2
2672.589	41.2
2676.151	43.2
2679.71	36.2
2683.266	47.2
2686.819	44.2
2690.368	46.2
2693.915	43.2
2697.458	32.2
2700.999	35.2
2704.536	38.2
2708.071	34.2
2711.602	34.2
2715.13	28.2
2718.656	32.2
2722.178	34.2
2725.697	31.2
2729.214	34.2
2732.727	35.2
2736.237	36.2
2739.744	25.2
2743.249	28.2
2746.75	32.2
2750.248	24.2
2753.743	22.2
2757.236	23.2
2760.725	23.2
2764.211	19.2
2767.695	17.2
2771.175	22.2
2774.652	21.2
2778.127	21.2
2781.598	21.2
2785.067	19.2
2788.532	19.2
2791.995	21.2
2795.455	18.2
2798.911	17.2
2802.365	20.2
2805.816	23.2
2809.264	18.2
2812.709	18.2
2816.151	24.2
2819.59	34.2
2823.026	21.2
2826.46	20.2
2829.89	22.2
2833.318	17.2
2836.742	20.2
2840.164	20.2
2843.583	24.2
2846.999	21.2
2850.412	20.2
2853.822	23.2
2857.229	29.2
2860.634	20.2
2864.035	21.2
2867.434	27.2
2870.83	33.2
2874.223	29.2
2877.613	32.2
2881	32.2
2884.385	31.2
2887.766	37.2
2891.145	34.2
2894.521	35.2
2897.894	35.2
2901.264	31.2
2904.631	21.2
2907.996	27.2
2911.358	39.2
2914.717	27.2
2918.073	30.2
2921.426	29.2
2924.777	39.2
2928.124	34.2
2931.469	42.2
2934.811	46.2
2938.15	51.2
2941.487	51.2
2944.821	45.2
2948.152	43.2
2951.48	46.2
2954.805	44.2
2958.128	39.2
2961.447	47.2
2964.765	36.2
2968.079	39.2
2971.39	38.2
2974.699	37.2
2978.005	40.2
2981.308	33.2
2984.609	37.2
2987.907	42.2
2991.202	38.2
2994.494	42.2
2997.784	36.2
3001.07	35.2
3004.355	46.2
3007.636	42.2
3010.915	38.2
3014.191	46.2
3017.464	37.2
3020.734	40.2
3024.002	44.2
3027.267	53.2
3030.53	52.2
3033.789	50.2
3037.046	49.2
3040.301	49.2
3043.552	58.2
3046.801	61.2
3050.048	50.2
3053.291	58.2
3056.532	56.2
3059.771	68.2
3063.006	67.2
3066.239	64.2
3069.469	74.2
3072.697	74.2
3075.922	82.2
3079.144	79.2
3082.364	81.2
3085.581	84.2
3088.795	95.2
3092.007	90.2
3095.216	91.2
3098.423	89.2
3101.627	87.2
3104.828	97.2
3108.026	99.2
3111.222	95.2
3114.416	97.2
3117.607	106.2
3120.795	108.2
3123.98	102.2
3127.163	118.2
3130.344	111.2
3133.521	117.2
3136.696	116.2
3139.869	123.2
3143.039	124.2
3146.206	131.2
3149.371	122.2
3152.533	137.2
3155.693	136.2
3158.85	132.2
3162.005	131.2
3165.157	127.2
3168.306	124.2
3171.453	128.2
3174.597	129.2
3177.739	134.2
3180.878	139.2
3184.014	131.2
3187.149	132.2
3190.28	139.2
3193.409	139.2
3196.536	125.2
3199.659	140.2
3202.781	134.2
3205.9	132.2
3209.016	130.2
3212.13	128.2
3215.241	131.2
3218.35	123.2
3221.456	133.2
3224.56	117.2
3227.661	129.2
3230.76	123.2
3233.856	119.2
3236.95	114.2
3240.041	117.2
3243.13	120.2
3246.216	108.2
3249.3	105.2
3252.382	111.2
3255.46	114.2
3258.537	107.2
3261.611	97.2
3264.682	103.2
3267.751	109.2
3270.818	94.2
3273.882	106.2
3276.943	98.2
3280.002	103.2
3283.059	99.2
3286.113	95.2
3289.165	93.2
3292.214	98.2
3295.261	95.2
3298.306	97.2
3301.348	91.2
3304.387	92.2
3307.425	79.2
3310.459	81.2
3313.492	90.2
3316.521	84.2
3319.549	93.2
3322.574	82.2
3325.597	91.2
3328.617	86.2
3331.635	91.2
3334.65	94.2
3337.663	83.2
3340.674	88.2
3343.682	83.2
3346.688	77.2
3349.691	90.2
3352.692	87.2
3355.691	88.2
3358.687	81.2
3361.681	82.2
3364.673	84.2
3367.662	83.2
3370.649	84.2
3373.633	78.2
3376.615	76.2
3379.595	73.2
3382.572	75.2
3385.547	76.2
3388.52	68.2
3391.49	64.2
3394.458	56.2
3397.424	70.2
3400.387	62.2
3403.348	61.2
3406.307	55.2
3409.263	60.2
3412.217	58.2
3415.168	69.2
3418.118	59.2
3421.065	50.2
3424.009	56.2
3426.951	50.2
3429.891	58.2
3432.829	55.2
3435.764	54.2
3438.697	48.2
3441.628	42.2
3444.557	44.2
3447.483	39.2
3450.407	34.2
3453.328	41.2
3456.247	33.2
3459.164	37.2
3462.079	31.2
3464.991	33.2
3467.902	30.2
3470.809	30.2
3473.715	21.2
3476.618	18.2
3479.519	14.2
3482.418	20.2
3485.315	17.2
3488.209	9.2
3491.101	6.2
3493.99	12.2
3496.878	9.2
3499.763	5.2
3502.646	9.2
3505.527	12.2
3508.405	5.2
3511.281	5.2
3514.155	0.2
3517.027	-8.8
3519.897	1.2
3522.764	-6.8
3525.629	-8.8
3528.492	-8.8
3531.352	-12.8
3534.211	-13.8
3537.067	-12.8
3539.921	-9.8
3542.773	-14.8
3545.622	-14.8
3548.469	-12.8
3551.315	-13.8
3554.157	-15.8
3556.998	-19.8
3559.837	-15.8
3562.673	-19.8
3565.507	-18.8
3568.339	-19.8
3571.169	-23.8
3573.996	-25.8
3576.822	-30.8
3579.645	-35.8
3582.466	-24.8
3585.285	-26.8
3588.101	-35.8
3590.916	-25.8
3593.728	-26.8
3596.538	-35.8
3599.346	-27.8
3602.152	-29.8
3604.956	-26.8
3607.757	-29.8
3610.556	-30.8
3613.354	-39.8
3616.149	-38.8
3618.942	-33.8
3621.732	-36.8
3624.521	-34.8
3627.307	-32.8
3630.092	-32.8
3632.874	-34.8
3635.654	-34.8
3638.432	-31.8
3641.208	-30.8
3643.982	-32.8
3646.753	-35.8
3649.523	-33.8
3652.29	-44.8
3655.055	-31.8
3657.818	-42.8
3660.579	-38.8
3663.338	-31.8
3666.095	-38.8
3668.849	-39.8
3671.602	-37.8
3674.352	-34.8
3677.101	-39.8
3679.847	-31.8
3682.591	-46.8
3685.333	-38.8
3688.073	-45.8
3690.811	-39.8
3693.547	-45.8
3696.281	-39.8
3699.013	-42.8
3701.742	-47.8
3704.47	-37.8
3707.195	-40.8
3709.919	-44.8
3712.64	-47.8
3715.359	-40.8
3718.076	-44.8
3720.792	-43.8
3723.505	-49.8
3726.216	-43.8
3728.925	-47.8
3731.632	-41.8
3734.336	-45.8
3737.039	-43.8
3739.74	-50.8
3742.439	-45.8
3745.136	-42.8
3747.83	-43.8
3750.523	-45.8
3753.213	-46.8
3755.902	-44.8
3758.589	-42.8
3761.273	-45.8
3763.956	-47.8
3766.636	-46.8
3769.315	-43.8
3771.991	-46.8
3774.665	-51.8
3777.338	-47.8
3780.008	-47.8
3782.677	-49.8
3785.343	-46.8
3788.007	-43.8
3790.67	-49.8
3793.33	-44.8
3795.989	-46.8
3798.645	-51.8
3801.299	-41.8
3803.952	-49.8
3806.602	-49.8
3809.251	-54.8
3811.897	-54.8
3814.542	-55.8
3817.184	-45.8
3819.825	-41.8
3822.463	-47.8
3825.1	-40.8
3827.735	-48.8
3830.367	-50.8
3832.998	-49.8
3835.627	-45.8
3838.253	-45.8
3840.878	-48.8
3843.501	-43.8
3846.122	-50.8
3848.741	-50.8
3851.358	-47.8
3853.973	-47.8
3856.586	-51.8
3859.197	-44.8
3861.806	-47.8
3864.414	-53.8
3867.019	-49.8
3869.622	-37.8
3872.224	-38.8
3874.823	-29.8
3877.421	-21.8
3880.016	-10.8
3882.61	4.2
3885.202	12.2
3887.792	-2.8
3890.38	-11.8
3892.966	-36.8
3895.55	-40.8
3898.132	-46.8
3900.713	-43.8
3903.291	-51.8
3905.868	-45.8
3908.442	-49.8
3911.015	-45.8
3913.586	-52.8
3916.155	-50.8
3918.722	-56.8
3921.287	-48.8
3923.85	-45.8
3926.411	-52.8
3928.971	-58.8
3931.528	-47.8
3934.084	-47.8
3936.638	-40.8
3939.19	-51.8
3941.74	-50.8
3944.288	-45.8
3946.834	-52.8
3949.378	-52.8
3951.921	-51.8
3954.462	-49.8
3957	-40.8
3959.537	-38.8
3962.072	-45.8
3964.606	-47.8
3967.137	-44.8
3969.667	-46.8
3972.194	-43.8
3974.72	-43.8
3977.244	-36.8
3979.766	-46.8
3982.286	-47.8
3984.805	-53.8
3987.321	-45.8
3989.836	-44.8
3992.349	-49.8
3994.86	-52.8
3997.369	-45.8
3999.877	-48.8
4002.382	-44.8
4004.886	-47.8
4007.388	-46.8
4009.888	-45.8
4012.386	-48.8
4014.883	-46.8
4017.377	-39.8
4019.87	-46.8
4022.361	-54.8
4024.85	-44.8
4027.338	-48.8
4029.823	-50.8
4032.307	-49.8
4034.789	-46.8
4037.269	-47.8
4039.747	-47.8
4042.224	-47.8
4044.699	-45.8
4047.172	-50.8
4049.643	-51.8
4052.112	-46.8
4054.58	-44.8
4057.046	-43.8
4059.51	-51.8
4061.972	-54.8
4064.432	-48.8
4066.891	-44.8
4069.348	-47.8
4071.803	-39.8
4074.256	-44.8
4076.708	-45.8
4079.158	-49.8
4081.606	-46.8
4084.052	-47.8
4086.497	-35.8
4088.939	-44.8
4091.38	-48.8
4093.819	-50.8
4096.257	-49.8
4098.693	-53.8
4101.127	-44.8
4103.559	-50.8
4105.989	15.2
4108.418	15.2
4110.845	5.2
4113.27	8.2
4115.694	13.2
4118.115	19.2
4120.535	-48.8
4122.954	-47.8
4125.37	-52.8
4127.785	-44.8
4130.198	-48.8
4132.609	-54.8
4135.019	-49.8
4137.427	-52.8
4139.833	-46.8
4142.237	-51.8
