Data from 2018-3-7_conc=6_n=9_RamanShift_01.txt Node
Date: Wed Mar 07 13:22:51 IST 2018
User: aro
Spectrometer: QEPB0276
Trigger mode: 0
Integration Time (sec): 3.000000E1
Scans to average: 1
Electric dark correction enabled: true
Nonlinearity correction enabled: false
Boxcar width: 0
XAxis mode: Raman Shifts
Number of Pixels in Spectrum: 1044
>>>>>Begin Spectral Data<<<<<
160.701	4.1
166.742	18.1
172.777	51.1
178.805	149.1
184.826	380.1
190.841	838.1
196.849	1379.1
202.85	1807.1
208.845	1976.1
214.833	1980.1
220.815	1945.1
226.789	1921.1
232.758	1956.1
238.719	1918.1
244.674	1903.1
250.623	1900.1
256.565	1881.1
262.5	1846.1
268.429	1837.1
274.351	1805.1
280.267	1794.1
286.176	1789.1
292.079	1773.1
297.975	1786.1
303.865	1771.1
309.748	1767.1
315.625	1771.1
321.495	1742.1
327.359	1759.1
333.217	1767.1
339.068	1771.1
344.912	1793.1
350.751	1770.1
356.583	1781.1
362.408	1772.1
368.227	1771.1
374.04	1766.1
379.847	1785.1
385.647	1786.1
391.44	1799.1
397.228	1799.1
403.009	1797.1
408.784	1828.1
414.553	1838.1
420.315	1834.1
426.071	1841.1
431.821	1832.1
437.565	1839.1
443.302	1834.1
449.033	1818.1
454.758	1813.1
460.477	1801.1
466.189	1775.1
471.896	1788.1
477.596	1763.1
483.29	1762.1
488.978	1763.1
494.66	1755.1
500.335	1712.1
506.005	1665.1
511.668	1620.1
517.325	1563.1
522.977	1529.1
528.622	1501.1
534.261	1473.1
539.894	1446.1
545.521	1443.1
551.141	1425.1
556.756	1422.1
562.365	1418.1
567.968	1416.1
573.565	1378.1
579.155	1391.1
584.74	1369.1
590.319	1375.1
595.892	1388.1
601.459	1371.1
607.02	1355.1
612.575	1346.1
618.124	1332.1
623.667	1336.1
629.204	1312.1
634.735	1304.1
640.261	1297.1
645.781	1282.1
651.294	1280.1
656.802	1268.1
662.304	1262.1
667.8	1260.1
673.29	1267.1
678.775	1271.1
684.254	1262.1
689.726	1243.1
695.193	1244.1
700.655	1229.1
706.11	1237.1
711.56	1217.1
717.004	1201.1
722.442	1206.1
727.874	1193.1
733.301	1194.1
738.722	1206.1
744.137	1190.1
749.547	1189.1
754.951	1175.1
760.349	1194.1
765.741	1188.1
771.128	1187.1
776.509	1202.1
781.885	1220.1
787.254	1225.1
792.618	1212.1
797.977	1217.1
803.33	1201.1
808.677	1200.1
814.019	1198.1
819.355	1176.1
824.686	1174.1
830.011	1167.1
835.33	1160.1
840.644	1148.1
845.952	1134.1
851.255	1133.1
856.552	1160.1
861.844	1141.1
867.13	1125.1
872.41	1120.1
877.686	1125.1
882.955	1119.1
888.219	1116.1
893.478	1094.1
898.731	1074.1
903.979	1061.1
909.221	1048.1
914.458	1040.1
919.69	1035.1
924.916	1048.1
930.136	1046.1
935.351	1051.1
940.561	1039.1
945.766	1043.1
950.965	1036.1
956.158	1042.1
961.347	1023.1
966.529	1004.1
971.707	988.1
976.879	981.1
982.046	982.1
987.208	959.1
992.364	965.1
997.515	968.1
1002.66	987.1
1007.801	998.1
1012.936	1005.1
1018.066	1007.1
1023.19	1001.1
1028.309	996.1
1033.423	998.1
1038.532	1003.1
1043.636	971.1
1048.734	972.1
1053.827	963.1
1058.915	955.1
1063.998	951.1
1069.075	929.1
1074.147	944.1
1079.214	949.1
1084.276	947.1
1089.333	939.1
1094.385	954.1
1099.431	938.1
1104.472	943.1
1109.509	941.1
1114.54	931.1
1119.565	932.1
1124.586	910.1
1129.602	903.1
1134.613	891.1
1139.618	883.1
1144.619	881.1
1149.614	904.1
1154.604	880.1
1159.589	892.1
1164.57	881.1
1169.545	890.1
1174.515	895.1
1179.48	897.1
1184.44	875.1
1189.395	872.1
1194.345	861.1
1199.29	852.1
1204.23	854.1
1209.165	874.1
1214.095	868.1
1219.021	866.1
1223.941	881.1
1228.856	885.1
1233.766	881.1
1238.672	891.1
1243.572	873.1
1248.467	867.1
1253.358	871.1
1258.244	848.1
1263.124	828.1
1268	817.1
1272.871	811.1
1277.737	801.1
1282.599	803.1
1287.455	802.1
1292.306	812.1
1297.153	806.1
1301.995	811.1
1306.832	819.1
1311.664	824.1
1316.491	833.1
1321.314	809.1
1326.132	827.1
1330.945	798.1
1335.753	785.1
1340.556	770.1
1345.354	755.1
1350.148	750.1
1354.937	728.1
1359.722	717.1
1364.501	692.1
1369.276	683.1
1374.046	680.1
1378.811	663.1
1383.572	660.1
1388.327	663.1
1393.079	664.1
1397.825	657.1
1402.567	671.1
1407.304	682.1
1412.036	677.1
1416.764	673.1
1421.487	688.1
1426.205	676.1
1430.919	675.1
1435.628	680.1
1440.333	689.1
1445.032	685.1
1449.727	706.1
1454.418	694.1
1459.104	695.1
1463.785	699.1
1468.462	674.1
1473.134	662.1
1477.802	648.1
1482.465	628.1
1487.123	615.1
1491.777	610.1
1496.426	606.1
1501.071	587.1
1505.711	585.1
1510.347	577.1
1514.978	566.1
1519.604	566.1
1524.226	574.1
1528.844	564.1
1533.457	552.1
1538.065	548.1
1542.669	556.1
1547.269	552.1
1551.864	559.1
1556.454	570.1
1561.041	584.1
1565.622	582.1
1570.199	588.1
1574.772	581.1
1579.34	593.1
1583.904	601.1
1588.464	616.1
1593.019	613.1
1597.569	634.1
1602.115	626.1
1606.657	616.1
1611.195	608.1
1615.728	610.1
1620.256	604.1
1624.78	606.1
1629.3	612.1
1633.816	622.1
1638.327	621.1
1642.834	610.1
1647.336	611.1
1651.834	615.1
1656.328	618.1
1660.817	606.1
1665.302	603.1
1669.783	586.1
1674.259	577.1
1678.732	545.1
1683.199	535.1
1687.663	527.1
1692.122	490.1
1696.577	478.1
1701.028	451.1
1705.474	422.1
1709.917	415.1
1714.355	396.1
1718.788	392.1
1723.218	398.1
1727.643	409.1
1732.064	405.1
1736.481	408.1
1740.893	396.1
1745.301	392.1
1749.705	387.1
1754.105	378.1
1758.501	351.1
1762.893	344.1
1767.28	343.1
1771.663	342.1
1776.042	328.1
1780.417	325.1
1784.787	327.1
1789.154	318.1
1793.516	312.1
1797.874	315.1
1802.228	307.1
1806.578	289.1
1810.924	292.1
1815.266	303.1
1819.603	294.1
1823.937	307.1
1828.266	304.1
1832.591	306.1
1836.913	306.1
1841.23	306.1
1845.543	295.1
1849.852	303.1
1854.156	309.1
1858.457	311.1
1862.754	312.1
1867.047	302.1
1871.335	306.1
1875.62	309.1
1879.9	309.1
1884.177	299.1
1888.449	296.1
1892.718	295.1
1896.982	291.1
1901.243	276.1
1905.499	280.1
1909.752	271.1
1914	264.1
1918.245	263.1
1922.485	263.1
1926.722	251.1
1930.954	245.1
1935.183	249.1
1939.408	244.1
1943.628	240.1
1947.845	234.1
1952.058	238.1
1956.267	228.1
1960.472	233.1
1964.673	216.1
1968.87	220.1
1973.063	231.1
1977.252	226.1
1981.438	225.1
1985.619	230.1
1989.797	225.1
1993.971	245.1
1998.14	236.1
2002.306	230.1
2006.469	246.1
2010.627	237.1
2014.781	231.1
2018.932	236.1
2023.078	232.1
2027.221	239.1
2031.36	236.1
2035.495	229.1
2039.627	216.1
2043.754	215.1
2047.878	224.1
2051.998	233.1
2056.114	216.1
2060.226	206.1
2064.334	211.1
2068.439	208.1
2072.54	206.1
2076.637	217.1
2080.73	210.1
2084.82	211.1
2088.906	202.1
2092.988	199.1
2097.066	190.1
2101.14	199.1
2105.211	242.1
2109.278	229.1
2113.342	196.1
2117.401	188.1
2121.457	186.1
2125.509	178.1
2129.558	174.1
2133.602	189.1
2137.643	183.1
2141.681	180.1
2145.714	184.1
2149.744	186.1
2153.77	177.1
2157.793	189.1
2161.812	196.1
2165.827	186.1
2169.838	184.1
2173.846	181.1
2177.851	178.1
2181.851	170.1
2185.848	173.1
2189.841	168.1
2193.831	165.1
2197.817	179.1
2201.799	163.1
2205.778	170.1
2209.753	158.1
2213.725	170.1
2217.693	170.1
2221.657	176.1
2225.618	164.1
2229.575	156.1
2233.529	160.1
2237.479	158.1
2241.425	157.1
2245.368	154.1
2249.307	154.1
2253.243	144.1
2257.175	154.1
2261.104	144.1
2265.029	154.1
2268.95	151.1
2272.868	148.1
2276.783	142.1
2280.694	138.1
2284.601	131.1
2288.505	148.1
2292.405	143.1
2296.302	141.1
2300.195	137.1
2304.085	132.1
2307.971	128.1
2311.854	122.1
2315.734	120.1
2319.609	131.1
2323.482	125.1
2327.351	125.1
2331.216	136.1
2335.078	143.1
2338.937	130.1
2342.792	132.1
2346.643	133.1
2350.492	124.1
2354.336	122.1
2358.178	130.1
2362.015	133.1
2365.85	127.1
2369.681	128.1
2373.508	134.1
2377.333	137.1
2381.153	126.1
2384.971	118.1
2388.785	125.1
2392.595	131.1
2396.402	132.1
2400.206	122.1
2404.007	120.1
2407.804	120.1
2411.597	120.1
2415.388	122.1
2419.174	127.1
2422.958	123.1
2426.738	124.1
2430.515	115.1
2434.289	116.1
2438.059	123.1
2441.825	120.1
2445.589	114.1
2449.349	115.1
2453.106	118.1
2456.859	105.1
2460.61	110.1
2464.356	111.1
2468.1	103.1
2471.84	106.1
2475.577	100.1
2479.311	106.1
2483.041	103.1
2486.768	102.1
2490.492	107.1
2494.213	100.1
2497.93	104.1
2501.644	104.1
2505.355	93.1
2509.062	102.1
2512.766	93.1
2516.467	92.1
2520.165	90.1
2523.859	95.1
2527.551	89.1
2531.239	84.1
2534.923	80.1
2538.605	82.1
2542.283	78.1
2545.958	84.1
2549.63	85.1
2553.299	80.1
2556.964	75.1
2560.626	71.1
2564.285	77.1
2567.941	69.1
2571.594	71.1
2575.243	72.1
2578.89	70.1
2582.533	75.1
2586.173	67.1
2589.809	74.1
2593.443	71.1
2597.073	69.1
2600.701	70.1
2604.325	67.1
2607.946	55.1
2611.564	66.1
2615.178	68.1
2618.79	66.1
2622.398	67.1
2626.004	68.1
2629.606	58.1
2633.205	65.1
2636.801	60.1
2640.394	64.1
2643.983	59.1
2647.57	59.1
2651.153	53.1
2654.734	51.1
2658.311	61.1
2661.885	68.1
2665.456	59.1
2669.025	58.1
2672.589	60.1
2676.151	59.1
2679.71	48.1
2683.266	61.1
2686.819	56.1
2690.368	57.1
2693.915	58.1
2697.458	43.1
2700.999	48.1
2704.536	47.1
2708.071	53.1
2711.602	43.1
2715.13	36.1
2718.656	43.1
2722.178	43.1
2725.697	34.1
2729.214	29.1
2732.727	39.1
2736.237	45.1
2739.744	31.1
2743.249	38.1
2746.75	37.1
2750.248	40.1
2753.743	27.1
2757.236	32.1
2760.725	27.1
2764.211	34.1
2767.695	24.1
2771.175	26.1
2774.652	23.1
2778.127	30.1
2781.598	25.1
2785.067	28.1
2788.532	19.1
2791.995	19.1
2795.455	22.1
2798.911	27.1
2802.365	26.1
2805.816	30.1
2809.264	27.1
2812.709	31.1
2816.151	31.1
2819.59	46.1
2823.026	30.1
2826.46	32.1
2829.89	29.1
2833.318	29.1
2836.742	38.1
2840.164	34.1
2843.583	27.1
2846.999	31.1
2850.412	33.1
2853.822	35.1
2857.229	38.1
2860.634	28.1
2864.035	25.1
2867.434	27.1
2870.83	39.1
2874.223	38.1
2877.613	40.1
2881	33.1
2884.385	40.1
2887.766	39.1
2891.145	40.1
2894.521	41.1
2897.894	37.1
2901.264	50.1
2904.631	40.1
2907.996	45.1
2911.358	49.1
2914.717	49.1
2918.073	49.1
2921.426	44.1
2924.777	57.1
2928.124	52.1
2931.469	60.1
2934.811	57.1
2938.15	68.1
2941.487	69.1
2944.821	55.1
2948.152	64.1
2951.48	55.1
2954.805	65.1
2958.128	57.1
2961.447	61.1
2964.765	51.1
2968.079	56.1
2971.39	57.1
2974.699	50.1
2978.005	56.1
2981.308	56.1
2984.609	55.1
2987.907	59.1
2991.202	59.1
2994.494	57.1
2997.784	49.1
3001.07	59.1
3004.355	53.1
3007.636	64.1
3010.915	54.1
3014.191	62.1
3017.464	61.1
3020.734	68.1
3024.002	67.1
3027.267	72.1
3030.53	69.1
3033.789	71.1
3037.046	76.1
3040.301	66.1
3043.552	69.1
3046.801	82.1
3050.048	82.1
3053.291	80.1
3056.532	86.1
3059.771	90.1
3063.006	96.1
3066.239	94.1
3069.469	111.1
3072.697	106.1
3075.922	125.1
3079.144	110.1
3082.364	118.1
3085.581	119.1
3088.795	122.1
3092.007	121.1
3095.216	133.1
3098.423	125.1
3101.627	128.1
3104.828	141.1
3108.026	129.1
3111.222	135.1
3114.416	144.1
3117.607	144.1
3120.795	150.1
3123.98	154.1
3127.163	163.1
3130.344	162.1
3133.521	168.1
3136.696	168.1
3139.869	180.1
3143.039	175.1
3146.206	182.1
3149.371	174.1
3152.533	190.1
3155.693	186.1
3158.85	189.1
3162.005	194.1
3165.157	190.1
3168.306	192.1
3171.453	189.1
3174.597	191.1
3177.739	194.1
3180.878	190.1
3184.014	181.1
3187.149	177.1
3190.28	192.1
3193.409	187.1
3196.536	185.1
3199.659	195.1
3202.781	188.1
3205.9	182.1
3209.016	193.1
3212.13	191.1
3215.241	195.1
3218.35	191.1
3221.456	187.1
3224.56	177.1
3227.661	180.1
3230.76	180.1
3233.856	179.1
3236.95	170.1
3240.041	167.1
3243.13	164.1
3246.216	164.1
3249.3	159.1
3252.382	158.1
3255.46	153.1
3258.537	163.1
3261.611	162.1
3264.682	149.1
3267.751	149.1
3270.818	145.1
3273.882	141.1
3276.943	146.1
3280.002	149.1
3283.059	146.1
3286.113	144.1
3289.165	140.1
3292.214	143.1
3295.261	139.1
3298.306	136.1
3301.348	138.1
3304.387	144.1
3307.425	134.1
3310.459	129.1
3313.492	132.1
3316.521	137.1
3319.549	135.1
3322.574	126.1
3325.597	134.1
3328.617	130.1
3331.635	138.1
3334.65	139.1
3337.663	125.1
3340.674	130.1
3343.682	129.1
3346.688	125.1
3349.691	133.1
3352.692	128.1
3355.691	139.1
3358.687	130.1
3361.681	131.1
3364.673	128.1
3367.662	131.1
3370.649	128.1
3373.633	118.1
3376.615	115.1
3379.595	115.1
3382.572	109.1
3385.547	116.1
3388.52	106.1
3391.49	105.1
3394.458	103.1
3397.424	106.1
3400.387	110.1
3403.348	104.1
3406.307	93.1
3409.263	101.1
3412.217	98.1
3415.168	97.1
3418.118	96.1
3421.065	90.1
3424.009	88.1
3426.951	84.1
3429.891	90.1
3432.829	87.1
3435.764	88.1
3438.697	83.1
3441.628	71.1
3444.557	83.1
3447.483	78.1
3450.407	70.1
3453.328	66.1
3456.247	54.1
3459.164	57.1
3462.079	45.1
3464.991	53.1
3467.902	49.1
3470.809	49.1
3473.715	40.1
3476.618	43.1
3479.519	31.1
3482.418	38.1
3485.315	28.1
3488.209	29.1
3491.101	24.1
3493.99	34.1
3496.878	27.1
3499.763	19.1
3502.646	24.1
3505.527	24.1
3508.405	19.1
3511.281	16.1
3514.155	15.1
3517.027	6.1
3519.897	11.1
3522.764	5.1
3525.629	4.1
3528.492	2.1
3531.352	-5.9
3534.211	-6.9
3537.067	-4.9
3539.921	-3.9
3542.773	-14.9
3545.622	-9.9
3548.469	-7.9
3551.315	-10.9
3554.157	-11.9
3556.998	-14.9
3559.837	-15.9
3562.673	-16.9
3565.507	-12.9
3568.339	-14.9
3571.169	-16.9
3573.996	-16.9
3576.822	-26.9
3579.645	-20.9
3582.466	-22.9
3585.285	-23.9
3588.101	-28.9
3590.916	-19.9
3593.728	-27.9
3596.538	-31.9
3599.346	-30.9
3602.152	-26.9
3604.956	-31.9
3607.757	-26.9
3610.556	-28.9
3613.354	-35.9
3616.149	-35.9
3618.942	-29.9
3621.732	-29.9
3624.521	-30.9
3627.307	-32.9
3630.092	-34.9
3632.874	-36.9
3635.654	-42.9
3638.432	-37.9
3641.208	-38.9
3643.982	-36.9
3646.753	-44.9
3649.523	-37.9
3652.29	-41.9
3655.055	-35.9
3657.818	-43.9
3660.579	-40.9
3663.338	-40.9
3666.095	-40.9
3668.849	-41.9
3671.602	-42.9
3674.352	-36.9
3677.101	-39.9
3679.847	-39.9
3682.591	-43.9
3685.333	-41.9
3688.073	-49.9
3690.811	-42.9
3693.547	-51.9
3696.281	-41.9
3699.013	-44.9
3701.742	-51.9
3704.47	-43.9
3707.195	-42.9
3709.919	-47.9
3712.64	-55.9
3715.359	-49.9
3718.076	-48.9
3720.792	-48.9
3723.505	-52.9
3726.216	-47.9
3728.925	-48.9
3731.632	-43.9
3734.336	-48.9
3737.039	-45.9
3739.74	-49.9
3742.439	-60.9
3745.136	-52.9
3747.83	-48.9
3750.523	-49.9
3753.213	-55.9
3755.902	-54.9
3758.589	-51.9
3761.273	-50.9
3763.956	-52.9
3766.636	-50.9
3769.315	-45.9
3771.991	-48.9
3774.665	-54.9
3777.338	-55.9
3780.008	-51.9
3782.677	-58.9
3785.343	-51.9
3788.007	-47.9
3790.67	-51.9
3793.33	-54.9
3795.989	-55.9
3798.645	-54.9
3801.299	-46.9
3803.952	-48.9
3806.602	-53.9
3809.251	-52.9
3811.897	-56.9
3814.542	-56.9
3817.184	-58.9
3819.825	-49.9
3822.463	-53.9
3825.1	-49.9
3827.735	-56.9
3830.367	-51.9
3832.998	-52.9
3835.627	-50.9
3838.253	-49.9
3840.878	-45.9
3843.501	-45.9
3846.122	-52.9
3848.741	-51.9
3851.358	-50.9
3853.973	-44.9
3856.586	-47.9
3859.197	-51.9
3861.806	-53.9
3864.414	-48.9
3867.019	-54.9
3869.622	-47.9
3872.224	-41.9
3874.823	-26.9
3877.421	-23.9
3880.016	-10.9
3882.61	7.1
3885.202	7.1
3887.792	-1.9
3890.38	-18.9
3892.966	-34.9
3895.55	-49.9
3898.132	-48.9
3900.713	-52.9
3903.291	-51.9
3905.868	-48.9
3908.442	-49.9
3911.015	-46.9
3913.586	-52.9
3916.155	-48.9
3918.722	-54.9
3921.287	-53.9
3923.85	-44.9
3926.411	-55.9
3928.971	-62.9
3931.528	-52.9
3934.084	-55.9
3936.638	-48.9
3939.19	-58.9
3941.74	-50.9
3944.288	-56.9
3946.834	-52.9
3949.378	-54.9
3951.921	-52.9
3954.462	-52.9
3957	-43.9
3959.537	-44.9
3962.072	-44.9
3964.606	-50.9
3967.137	-49.9
3969.667	-51.9
3972.194	-49.9
3974.72	-53.9
3977.244	-55.9
3979.766	-56.9
3982.286	-54.9
3984.805	-60.9
3987.321	-51.9
3989.836	-52.9
3992.349	-54.9
3994.86	-52.9
3997.369	-51.9
3999.877	-54.9
4002.382	-50.9
4004.886	-53.9
4007.388	-52.9
4009.888	-50.9
4012.386	-53.9
4014.883	-52.9
4017.377	-49.9
4019.87	-47.9
4022.361	-56.9
4024.85	-49.9
4027.338	-54.9
4029.823	-58.9
4032.307	-54.9
4034.789	-49.9
4037.269	-51.9
4039.747	-51.9
4042.224	-50.9
4044.699	-57.9
4047.172	-59.9
4049.643	-56.9
4052.112	-58.9
4054.58	-52.9
4057.046	-55.9
4059.51	-56.9
4061.972	-50.9
4064.432	-50.9
4066.891	-47.9
4069.348	-47.9
4071.803	-49.9
4074.256	-49.9
4076.708	-51.9
4079.158	-57.9
4081.606	-48.9
4084.052	-52.9
4086.497	-48.9
4088.939	-46.9
4091.38	-56.9
4093.819	-51.9
4096.257	-51.9
4098.693	-54.9
4101.127	-51.9
4103.559	-55.9
4105.989	15.1
4108.418	6.1
4110.845	4.1
4113.27	2.1
4115.694	11.1
4118.115	12.1
4120.535	-48.9
4122.954	-46.9
4125.37	-50.9
4127.785	-48.9
4130.198	-49.9
4132.609	-54.9
4135.019	-54.9
4137.427	-58.9
4139.833	-52.9
4142.237	-55.9
