Data from 2018-3-7_conc=4_n=3_RamanShift_03.txt Node
Date: Wed Mar 07 11:55:52 IST 2018
User: aro
Spectrometer: QEPB0276
Trigger mode: 0
Integration Time (sec): 3.000000E1
Scans to average: 1
Electric dark correction enabled: true
Nonlinearity correction enabled: false
Boxcar width: 0
XAxis mode: Raman Shifts
Number of Pixels in Spectrum: 1044
>>>>>Begin Spectral Data<<<<<
160.701	13.9
166.742	20.9
172.777	53.9
178.805	149.9
184.826	351.9
190.841	754.9
196.849	1233.9
202.85	1615.9
208.845	1770.9
214.833	1756.9
220.815	1757.9
226.789	1737.9
232.758	1753.9
238.719	1740.9
244.674	1735.9
250.623	1733.9
256.565	1702.9
262.5	1666.9
268.429	1669.9
274.351	1658.9
280.267	1650.9
286.176	1647.9
292.079	1656.9
297.975	1635.9
303.865	1636.9
309.748	1630.9
315.625	1633.9
321.495	1614.9
327.359	1642.9
333.217	1637.9
339.068	1643.9
344.912	1635.9
350.751	1637.9
356.583	1651.9
362.408	1641.9
368.227	1660.9
374.04	1654.9
379.847	1669.9
385.647	1680.9
391.44	1690.9
397.228	1682.9
403.009	1707.9
408.784	1718.9
414.553	1715.9
420.315	1722.9
426.071	1726.9
431.821	1702.9
437.565	1715.9
443.302	1722.9
449.033	1705.9
454.758	1716.9
460.477	1675.9
466.189	1687.9
471.896	1669.9
477.596	1664.9
483.29	1666.9
488.978	1640.9
494.66	1645.9
500.335	1601.9
506.005	1553.9
511.668	1494.9
517.325	1435.9
522.977	1368.9
528.622	1343.9
534.261	1334.9
539.894	1292.9
545.521	1313.9
551.141	1281.9
556.756	1290.9
562.365	1264.9
567.968	1269.9
573.565	1239.9
579.155	1236.9
584.74	1232.9
590.319	1233.9
595.892	1219.9
601.459	1229.9
607.02	1214.9
612.575	1211.9
618.124	1195.9
623.667	1178.9
629.204	1167.9
634.735	1145.9
640.261	1152.9
645.781	1153.9
651.294	1136.9
656.802	1127.9
662.304	1125.9
667.8	1142.9
673.29	1133.9
678.775	1129.9
684.254	1126.9
689.726	1113.9
695.193	1101.9
700.655	1096.9
706.11	1089.9
711.56	1075.9
717.004	1082.9
722.442	1065.9
727.874	1062.9
733.301	1067.9
738.722	1052.9
744.137	1044.9
749.547	1054.9
754.951	1042.9
760.349	1050.9
765.741	1058.9
771.128	1053.9
776.509	1071.9
781.885	1088.9
787.254	1089.9
792.618	1089.9
797.977	1078.9
803.33	1072.9
808.677	1068.9
814.019	1056.9
819.355	1057.9
824.686	1032.9
830.011	1032.9
835.33	1034.9
840.644	1030.9
845.952	1030.9
851.255	1018.9
856.552	1021.9
861.844	1011.9
867.13	989.9
872.41	1001.9
877.686	993.9
882.955	979.9
888.219	975.9
893.478	968.9
898.731	937.9
903.979	918.9
909.221	931.9
914.458	932.9
919.69	925.9
924.916	925.9
930.136	926.9
935.351	922.9
940.561	912.9
945.766	929.9
950.965	925.9
956.158	918.9
961.347	902.9
966.529	889.9
971.707	879.9
976.879	852.9
982.046	856.9
987.208	859.9
992.364	851.9
997.515	852.9
1002.66	848.9
1007.801	879.9
1012.936	873.9
1018.066	895.9
1023.19	877.9
1028.309	876.9
1033.423	883.9
1038.532	879.9
1043.636	869.9
1048.734	838.9
1053.827	836.9
1058.915	846.9
1063.998	832.9
1069.075	826.9
1074.147	827.9
1079.214	826.9
1084.276	836.9
1089.333	840.9
1094.385	840.9
1099.431	829.9
1104.472	847.9
1109.509	835.9
1114.54	808.9
1119.565	809.9
1124.586	789.9
1129.602	784.9
1134.613	781.9
1139.618	772.9
1144.619	784.9
1149.614	789.9
1154.604	767.9
1159.589	778.9
1164.57	788.9
1169.545	772.9
1174.515	770.9
1179.48	768.9
1184.44	780.9
1189.395	769.9
1194.345	759.9
1199.29	746.9
1204.23	772.9
1209.165	747.9
1214.095	760.9
1219.021	765.9
1223.941	768.9
1228.856	782.9
1233.766	770.9
1238.672	784.9
1243.572	769.9
1248.467	762.9
1253.358	756.9
1258.244	748.9
1263.124	726.9
1268	724.9
1272.871	707.9
1277.737	710.9
1282.599	705.9
1287.455	699.9
1292.306	696.9
1297.153	715.9
1301.995	708.9
1306.832	710.9
1311.664	712.9
1316.491	726.9
1321.314	705.9
1326.132	700.9
1330.945	688.9
1335.753	681.9
1340.556	662.9
1345.354	654.9
1350.148	636.9
1354.937	627.9
1359.722	621.9
1364.501	607.9
1369.276	596.9
1374.046	588.9
1378.811	586.9
1383.572	585.9
1388.327	576.9
1393.079	576.9
1397.825	572.9
1402.567	589.9
1407.304	590.9
1412.036	592.9
1416.764	579.9
1421.487	583.9
1426.205	574.9
1430.919	580.9
1435.628	596.9
1440.333	600.9
1445.032	600.9
1449.727	609.9
1454.418	613.9
1459.104	612.9
1463.785	586.9
1468.462	589.9
1473.134	575.9
1477.802	557.9
1482.465	547.9
1487.123	534.9
1491.777	519.9
1496.426	518.9
1501.071	503.9
1505.711	498.9
1510.347	506.9
1514.978	500.9
1519.604	486.9
1524.226	493.9
1528.844	498.9
1533.457	473.9
1538.065	484.9
1542.669	479.9
1547.269	472.9
1551.864	486.9
1556.454	498.9
1561.041	512.9
1565.622	509.9
1570.199	495.9
1574.772	510.9
1579.34	510.9
1583.904	530.9
1588.464	530.9
1593.019	533.9
1597.569	534.9
1602.115	525.9
1606.657	534.9
1611.195	525.9
1615.728	526.9
1620.256	509.9
1624.78	527.9
1629.3	531.9
1633.816	523.9
1638.327	535.9
1642.834	528.9
1647.336	526.9
1651.834	519.9
1656.328	535.9
1660.817	515.9
1665.302	510.9
1669.783	506.9
1674.259	490.9
1678.732	489.9
1683.199	453.9
1687.663	438.9
1692.122	419.9
1696.577	407.9
1701.028	386.9
1705.474	373.9
1709.917	361.9
1714.355	349.9
1718.788	352.9
1723.218	354.9
1727.643	353.9
1732.064	355.9
1736.481	358.9
1740.893	339.9
1745.301	333.9
1749.705	331.9
1754.105	319.9
1758.501	305.9
1762.893	306.9
1767.28	304.9
1771.663	295.9
1776.042	297.9
1780.417	286.9
1784.787	287.9
1789.154	277.9
1793.516	267.9
1797.874	264.9
1802.228	269.9
1806.578	258.9
1810.924	252.9
1815.266	256.9
1819.603	260.9
1823.937	264.9
1828.266	260.9
1832.591	265.9
1836.913	261.9
1841.23	267.9
1845.543	254.9
1849.852	259.9
1854.156	269.9
1858.457	267.9
1862.754	269.9
1867.047	266.9
1871.335	266.9
1875.62	258.9
1879.9	274.9
1884.177	250.9
1888.449	257.9
1892.718	260.9
1896.982	247.9
1901.243	236.9
1905.499	241.9
1909.752	232.9
1914	224.9
1918.245	226.9
1922.485	220.9
1926.722	210.9
1930.954	215.9
1935.183	212.9
1939.408	218.9
1943.628	205.9
1947.845	203.9
1952.058	200.9
1956.267	202.9
1960.472	208.9
1964.673	195.9
1968.87	201.9
1973.063	192.9
1977.252	203.9
1981.438	205.9
1985.619	200.9
1989.797	192.9
1993.971	201.9
1998.14	203.9
2002.306	202.9
2006.469	204.9
2010.627	196.9
2014.781	203.9
2018.932	198.9
2023.078	204.9
2027.221	199.9
2031.36	196.9
2035.495	192.9
2039.627	189.9
2043.754	184.9
2047.878	188.9
2051.998	190.9
2056.114	180.9
2060.226	183.9
2064.334	181.9
2068.439	178.9
2072.54	167.9
2076.637	174.9
2080.73	166.9
2084.82	174.9
2088.906	177.9
2092.988	169.9
2097.066	163.9
2101.14	162.9
2105.211	162.9
2109.278	163.9
2113.342	154.9
2117.401	157.9
2121.457	154.9
2125.509	150.9
2129.558	158.9
2133.602	149.9
2137.643	149.9
2141.681	149.9
2145.714	153.9
2149.744	152.9
2153.77	150.9
2157.793	153.9
2161.812	159.9
2165.827	154.9
2169.838	145.9
2173.846	149.9
2177.851	142.9
2181.851	143.9
2185.848	145.9
2189.841	143.9
2193.831	143.9
2197.817	135.9
2201.799	138.9
2205.778	134.9
2209.753	142.9
2213.725	134.9
2217.693	140.9
2221.657	135.9
2225.618	129.9
2229.575	123.9
2233.529	132.9
2237.479	127.9
2241.425	124.9
2245.368	127.9
2249.307	130.9
2253.243	124.9
2257.175	122.9
2261.104	117.9
2265.029	121.9
2268.95	118.9
2272.868	120.9
2276.783	115.9
2280.694	104.9
2284.601	106.9
2288.505	109.9
2292.405	110.9
2296.302	102.9
2300.195	105.9
2304.085	101.9
2307.971	105.9
2311.854	92.9
2315.734	98.9
2319.609	103.9
2323.482	106.9
2327.351	101.9
2331.216	113.9
2335.078	126.9
2338.937	112.9
2342.792	108.9
2346.643	95.9
2350.492	104.9
2354.336	97.9
2358.178	98.9
2362.015	97.9
2365.85	94.9
2369.681	99.9
2373.508	105.9
2377.333	105.9
2381.153	99.9
2384.971	97.9
2388.785	99.9
2392.595	98.9
2396.402	104.9
2400.206	106.9
2404.007	94.9
2407.804	90.9
2411.597	96.9
2415.388	91.9
2419.174	98.9
2422.958	97.9
2426.738	90.9
2430.515	95.9
2434.289	87.9
2438.059	87.9
2441.825	87.9
2445.589	93.9
2449.349	74.9
2453.106	88.9
2456.859	83.9
2460.61	82.9
2464.356	85.9
2468.1	88.9
2471.84	76.9
2475.577	71.9
2479.311	81.9
2483.041	79.9
2486.768	75.9
2490.492	76.9
2494.213	79.9
2497.93	73.9
2501.644	73.9
2505.355	66.9
2509.062	75.9
2512.766	75.9
2516.467	71.9
2520.165	66.9
2523.859	77.9
2527.551	69.9
2531.239	69.9
2534.923	62.9
2538.605	61.9
2542.283	61.9
2545.958	60.9
2549.63	61.9
2553.299	56.9
2556.964	50.9
2560.626	64.9
2564.285	60.9
2567.941	47.9
2571.594	53.9
2575.243	61.9
2578.89	55.9
2582.533	50.9
2586.173	48.9
2589.809	52.9
2593.443	61.9
2597.073	48.9
2600.701	46.9
2604.325	44.9
2607.946	37.9
2611.564	44.9
2615.178	50.9
2618.79	45.9
2622.398	44.9
2626.004	38.9
2629.606	40.9
2633.205	41.9
2636.801	41.9
2640.394	43.9
2643.983	40.9
2647.57	41.9
2651.153	32.9
2654.734	40.9
2658.311	41.9
2661.885	42.9
2665.456	40.9
2669.025	43.9
2672.589	31.9
2676.151	29.9
2679.71	27.9
2683.266	24.9
2686.819	36.9
2690.368	37.9
2693.915	30.9
2697.458	32.9
2700.999	32.9
2704.536	28.9
2708.071	34.9
2711.602	25.9
2715.13	15.9
2718.656	29.9
2722.178	23.9
2725.697	25.9
2729.214	18.9
2732.727	28.9
2736.237	25.9
2739.744	16.9
2743.249	17.9
2746.75	19.9
2750.248	21.9
2753.743	19.9
2757.236	19.9
2760.725	17.9
2764.211	19.9
2767.695	11.9
2771.175	7.9
2774.652	11.9
2778.127	14.9
2781.598	16.9
2785.067	9.9
2788.532	12.9
2791.995	12.9
2795.455	10.9
2798.911	16.9
2802.365	15.9
2805.816	14.9
2809.264	18.9
2812.709	6.9
2816.151	14.9
2819.59	26.9
2823.026	14.9
2826.46	19.9
2829.89	16.9
2833.318	6.9
2836.742	18.9
2840.164	18.9
2843.583	8.9
2846.999	22.9
2850.412	17.9
2853.822	15.9
2857.229	20.9
2860.634	12.9
2864.035	14.9
2867.434	20.9
2870.83	27.9
2874.223	16.9
2877.613	23.9
2881	27.9
2884.385	35.9
2887.766	27.9
2891.145	22.9
2894.521	28.9
2897.894	28.9
2901.264	27.9
2904.631	22.9
2907.996	26.9
2911.358	30.9
2914.717	27.9
2918.073	31.9
2921.426	29.9
2924.777	37.9
2928.124	33.9
2931.469	39.9
2934.811	43.9
2938.15	42.9
2941.487	50.9
2944.821	42.9
2948.152	47.9
2951.48	39.9
2954.805	41.9
2958.128	37.9
2961.447	37.9
2964.765	32.9
2968.079	33.9
2971.39	35.9
2974.699	36.9
2978.005	40.9
2981.308	36.9
2984.609	33.9
2987.907	37.9
2991.202	36.9
2994.494	35.9
2997.784	34.9
3001.07	36.9
3004.355	44.9
3007.636	44.9
3010.915	42.9
3014.191	37.9
3017.464	52.9
3020.734	47.9
3024.002	43.9
3027.267	47.9
3030.53	53.9
3033.789	46.9
3037.046	43.9
3040.301	40.9
3043.552	49.9
3046.801	54.9
3050.048	54.9
3053.291	56.9
3056.532	61.9
3059.771	56.9
3063.006	69.9
3066.239	70.9
3069.469	81.9
3072.697	75.9
3075.922	86.9
3079.144	82.9
3082.364	86.9
3085.581	86.9
3088.795	89.9
3092.007	92.9
3095.216	94.9
3098.423	92.9
3101.627	86.9
3104.828	98.9
3108.026	103.9
3111.222	103.9
3114.416	110.9
3117.607	105.9
3120.795	105.9
3123.98	115.9
3127.163	121.9
3130.344	115.9
3133.521	127.9
3136.696	116.9
3139.869	134.9
3143.039	129.9
3146.206	133.9
3149.371	135.9
3152.533	148.9
3155.693	141.9
3158.85	137.9
3162.005	149.9
3165.157	141.9
3168.306	139.9
3171.453	138.9
3174.597	142.9
3177.739	145.9
3180.878	146.9
3184.014	140.9
3187.149	140.9
3190.28	142.9
3193.409	150.9
3196.536	143.9
3199.659	154.9
3202.781	146.9
3205.9	147.9
3209.016	148.9
3212.13	148.9
3215.241	145.9
3218.35	143.9
3221.456	150.9
3224.56	136.9
3227.661	133.9
3230.76	122.9
3233.856	136.9
3236.95	125.9
3240.041	123.9
3243.13	128.9
3246.216	117.9
3249.3	124.9
3252.382	123.9
3255.46	126.9
3258.537	117.9
3261.611	113.9
3264.682	112.9
3267.751	112.9
3270.818	102.9
3273.882	114.9
3276.943	104.9
3280.002	108.9
3283.059	108.9
3286.113	101.9
3289.165	101.9
3292.214	105.9
3295.261	103.9
3298.306	102.9
3301.348	96.9
3304.387	97.9
3307.425	93.9
3310.459	96.9
3313.492	100.9
3316.521	96.9
3319.549	102.9
3322.574	93.9
3325.597	91.9
3328.617	98.9
3331.635	98.9
3334.65	96.9
3337.663	80.9
3340.674	90.9
3343.682	96.9
3346.688	95.9
3349.691	99.9
3352.692	97.9
3355.691	100.9
3358.687	98.9
3361.681	89.9
3364.673	92.9
3367.662	92.9
3370.649	96.9
3373.633	89.9
3376.615	82.9
3379.595	83.9
3382.572	81.9
3385.547	80.9
3388.52	85.9
3391.49	77.9
3394.458	65.9
3397.424	76.9
3400.387	71.9
3403.348	66.9
3406.307	70.9
3409.263	74.9
3412.217	66.9
3415.168	74.9
3418.118	69.9
3421.065	56.9
3424.009	62.9
3426.951	63.9
3429.891	60.9
3432.829	56.9
3435.764	63.9
3438.697	54.9
3441.628	39.9
3444.557	49.9
3447.483	39.9
3450.407	31.9
3453.328	41.9
3456.247	33.9
3459.164	36.9
3462.079	27.9
3464.991	30.9
3467.902	23.9
3470.809	26.9
3473.715	17.9
3476.618	19.9
3479.519	12.9
3482.418	9.9
3485.315	12.9
3488.209	2.9
3491.101	10.9
3493.99	6.9
3496.878	-2.1
3499.763	-2.1
3502.646	4.9
3505.527	0.9
3508.405	2.9
3511.281	5.9
3514.155	0.9
3517.027	-6.1
3519.897	-3.1
3522.764	-6.1
3525.629	-11.1
3528.492	-10.1
3531.352	-18.1
3534.211	-17.1
3537.067	-15.1
3539.921	-16.1
3542.773	-22.1
3545.622	-19.1
3548.469	-22.1
3551.315	-16.1
3554.157	-28.1
3556.998	-25.1
3559.837	-24.1
3562.673	-26.1
3565.507	-24.1
3568.339	-22.1
3571.169	-27.1
3573.996	-20.1
3576.822	-36.1
3579.645	-33.1
3582.466	-32.1
3585.285	-34.1
3588.101	-37.1
3590.916	-33.1
3593.728	-33.1
3596.538	-35.1
3599.346	-41.1
3602.152	-43.1
3604.956	-34.1
3607.757	-31.1
3610.556	-37.1
3613.354	-39.1
3616.149	-38.1
3618.942	-36.1
3621.732	-36.1
3624.521	-42.1
3627.307	-35.1
3630.092	-39.1
3632.874	-44.1
3635.654	-44.1
3638.432	-42.1
3641.208	-45.1
3643.982	-37.1
3646.753	-45.1
3649.523	-43.1
3652.29	-45.1
3655.055	-45.1
3657.818	-47.1
3660.579	-43.1
3663.338	-42.1
3666.095	-46.1
3668.849	-47.1
3671.602	-51.1
3674.352	-41.1
3677.101	-50.1
3679.847	-50.1
3682.591	-50.1
3685.333	-49.1
3688.073	-52.1
3690.811	-53.1
3693.547	-53.1
3696.281	-46.1
3699.013	-52.1
3701.742	-52.1
3704.47	-44.1
3707.195	-53.1
3709.919	-51.1
3712.64	-47.1
3715.359	-47.1
3718.076	-55.1
3720.792	-55.1
3723.505	-47.1
3726.216	-45.1
3728.925	-57.1
3731.632	-53.1
3734.336	-56.1
3737.039	-51.1
3739.74	-56.1
3742.439	-57.1
3745.136	-55.1
3747.83	-51.1
3750.523	-53.1
3753.213	-56.1
3755.902	-55.1
3758.589	-57.1
3761.273	-52.1
3763.956	-54.1
3766.636	-54.1
3769.315	-54.1
3771.991	-52.1
3774.665	-60.1
3777.338	-53.1
3780.008	-56.1
3782.677	-59.1
3785.343	-56.1
3788.007	-55.1
3790.67	-57.1
3793.33	-56.1
3795.989	-53.1
3798.645	-59.1
3801.299	-50.1
3803.952	-51.1
3806.602	-55.1
3809.251	-58.1
3811.897	-65.1
3814.542	-62.1
3817.184	-56.1
3819.825	-54.1
3822.463	-58.1
3825.1	-55.1
3827.735	-61.1
3830.367	-60.1
3832.998	-59.1
3835.627	-57.1
3838.253	-50.1
3840.878	-52.1
3843.501	-52.1
3846.122	-59.1
3848.741	-56.1
3851.358	-55.1
3853.973	-48.1
3856.586	-59.1
3859.197	-59.1
3861.806	-60.1
3864.414	-58.1
3867.019	-62.1
3869.622	-46.1
3872.224	-49.1
3874.823	-34.1
3877.421	-32.1
3880.016	-19.1
3882.61	-3.1
3885.202	-3.1
3887.792	-8.1
3890.38	-27.1
3892.966	-38.1
3895.55	-48.1
3898.132	-55.1
3900.713	-58.1
3903.291	-61.1
3905.868	-55.1
3908.442	-56.1
3911.015	-58.1
3913.586	-62.1
3916.155	-61.1
3918.722	-59.1
3921.287	-53.1
3923.85	-53.1
3926.411	-61.1
3928.971	-64.1
3931.528	-58.1
3934.084	-56.1
3936.638	-53.1
3939.19	-56.1
3941.74	-56.1
3944.288	-59.1
3946.834	-57.1
3949.378	-60.1
3951.921	-65.1
3954.462	-60.1
3957	-53.1
3959.537	-53.1
3962.072	-52.1
3964.606	-57.1
3967.137	-53.1
3969.667	-57.1
3972.194	-59.1
3974.72	-54.1
3977.244	-49.1
3979.766	-60.1
3982.286	-57.1
3984.805	-68.1
3987.321	-57.1
3989.836	-57.1
3992.349	-56.1
3994.86	-61.1
3997.369	-57.1
3999.877	-57.1
4002.382	-56.1
4004.886	-54.1
4007.388	-59.1
4009.888	-50.1
4012.386	-62.1
4014.883	-52.1
4017.377	-52.1
4019.87	-55.1
4022.361	-55.1
4024.85	-56.1
4027.338	-58.1
4029.823	-57.1
4032.307	-62.1
4034.789	-54.1
4037.269	-61.1
4039.747	-56.1
4042.224	-58.1
4044.699	-60.1
4047.172	-59.1
4049.643	-62.1
4052.112	-50.1
4054.58	-57.1
4057.046	-55.1
4059.51	-60.1
4061.972	-60.1
4064.432	-56.1
4066.891	-50.1
4069.348	-54.1
4071.803	-51.1
4074.256	-53.1
4076.708	-54.1
4079.158	-63.1
4081.606	-59.1
4084.052	-59.1
4086.497	-54.1
4088.939	-52.1
4091.38	-57.1
4093.819	-59.1
4096.257	-58.1
4098.693	-57.1
4101.127	-51.1
4103.559	-59.1
4105.989	24.9
4108.418	15.9
4110.845	5.9
4113.27	13.9
4115.694	15.9
4118.115	11.9
4120.535	-60.1
4122.954	-53.1
4125.37	-56.1
4127.785	-52.1
4130.198	-55.1
4132.609	-57.1
4135.019	-55.1
4137.427	-61.1
4139.833	-59.1
4142.237	-63.1
