Data from 2018-3-7_conc=4_n=3_RamanShift_01.txt Node
Date: Wed Mar 07 11:54:52 IST 2018
User: aro
Spectrometer: QEPB0276
Trigger mode: 0
Integration Time (sec): 3.000000E1
Scans to average: 1
Electric dark correction enabled: true
Nonlinearity correction enabled: false
Boxcar width: 0
XAxis mode: Raman Shifts
Number of Pixels in Spectrum: 1044
>>>>>Begin Spectral Data<<<<<
160.701	18.1
166.742	27.1
172.777	51.1
178.805	137.1
184.826	355.1
190.841	764.1
196.849	1235.1
202.85	1610.1
208.845	1755.1
214.833	1763.1
220.815	1741.1
226.789	1751.1
232.758	1749.1
238.719	1739.1
244.674	1750.1
250.623	1733.1
256.565	1700.1
262.5	1677.1
268.429	1663.1
274.351	1649.1
280.267	1635.1
286.176	1638.1
292.079	1640.1
297.975	1622.1
303.865	1638.1
309.748	1628.1
315.625	1641.1
321.495	1628.1
327.359	1636.1
333.217	1647.1
339.068	1645.1
344.912	1636.1
350.751	1643.1
356.583	1639.1
362.408	1643.1
368.227	1658.1
374.04	1661.1
379.847	1671.1
385.647	1677.1
391.44	1683.1
397.228	1681.1
403.009	1721.1
408.784	1710.1
414.553	1727.1
420.315	1713.1
426.071	1726.1
431.821	1722.1
437.565	1719.1
443.302	1693.1
449.033	1718.1
454.758	1707.1
460.477	1684.1
466.189	1667.1
471.896	1663.1
477.596	1658.1
483.29	1652.1
488.978	1631.1
494.66	1633.1
500.335	1596.1
506.005	1547.1
511.668	1477.1
517.325	1414.1
522.977	1380.1
528.622	1351.1
534.261	1309.1
539.894	1303.1
545.521	1283.1
551.141	1272.1
556.756	1266.1
562.365	1250.1
567.968	1249.1
573.565	1238.1
579.155	1214.1
584.74	1218.1
590.319	1219.1
595.892	1224.1
601.459	1208.1
607.02	1201.1
612.575	1201.1
618.124	1198.1
623.667	1177.1
629.204	1158.1
634.735	1148.1
640.261	1135.1
645.781	1131.1
651.294	1133.1
656.802	1122.1
662.304	1107.1
667.8	1120.1
673.29	1112.1
678.775	1115.1
684.254	1121.1
689.726	1111.1
695.193	1086.1
700.655	1093.1
706.11	1089.1
711.56	1087.1
717.004	1075.1
722.442	1056.1
727.874	1058.1
733.301	1061.1
738.722	1037.1
744.137	1061.1
749.547	1046.1
754.951	1037.1
760.349	1046.1
765.741	1040.1
771.128	1055.1
776.509	1076.1
781.885	1074.1
787.254	1074.1
792.618	1073.1
797.977	1086.1
803.33	1068.1
808.677	1056.1
814.019	1050.1
819.355	1043.1
824.686	1032.1
830.011	1031.1
835.33	1024.1
840.644	1021.1
845.952	1019.1
851.255	1001.1
856.552	1004.1
861.844	992.1
867.13	981.1
872.41	983.1
877.686	969.1
882.955	978.1
888.219	965.1
893.478	954.1
898.731	927.1
903.979	918.1
909.221	912.1
914.458	918.1
919.69	912.1
924.916	922.1
930.136	907.1
935.351	907.1
940.561	919.1
945.766	930.1
950.965	917.1
956.158	892.1
961.347	898.1
966.529	883.1
971.707	864.1
976.879	858.1
982.046	839.1
987.208	850.1
992.364	836.1
997.515	859.1
1002.66	842.1
1007.801	859.1
1012.936	883.1
1018.066	880.1
1023.19	861.1
1028.309	866.1
1033.423	861.1
1038.532	851.1
1043.636	855.1
1048.734	866.1
1053.827	844.1
1058.915	830.1
1063.998	817.1
1069.075	818.1
1074.147	823.1
1079.214	823.1
1084.276	839.1
1089.333	825.1
1094.385	824.1
1099.431	831.1
1104.472	834.1
1109.509	824.1
1114.54	804.1
1119.565	794.1
1124.586	789.1
1129.602	775.1
1134.613	773.1
1139.618	778.1
1144.619	767.1
1149.614	780.1
1154.604	770.1
1159.589	772.1
1164.57	781.1
1169.545	777.1
1174.515	783.1
1179.48	764.1
1184.44	767.1
1189.395	756.1
1194.345	746.1
1199.29	738.1
1204.23	754.1
1209.165	748.1
1214.095	758.1
1219.021	760.1
1223.941	766.1
1228.856	770.1
1233.766	763.1
1238.672	764.1
1243.572	757.1
1248.467	778.1
1253.358	745.1
1258.244	744.1
1263.124	721.1
1268	705.1
1272.871	703.1
1277.737	696.1
1282.599	704.1
1287.455	687.1
1292.306	684.1
1297.153	687.1
1301.995	699.1
1306.832	704.1
1311.664	715.1
1316.491	716.1
1321.314	707.1
1326.132	701.1
1330.945	689.1
1335.753	670.1
1340.556	656.1
1345.354	652.1
1350.148	636.1
1354.937	622.1
1359.722	616.1
1364.501	597.1
1369.276	581.1
1374.046	578.1
1378.811	577.1
1383.572	584.1
1388.327	562.1
1393.079	566.1
1397.825	572.1
1402.567	578.1
1407.304	581.1
1412.036	583.1
1416.764	582.1
1421.487	572.1
1426.205	578.1
1430.919	583.1
1435.628	586.1
1440.333	602.1
1445.032	593.1
1449.727	608.1
1454.418	603.1
1459.104	588.1
1463.785	587.1
1468.462	582.1
1473.134	568.1
1477.802	542.1
1482.465	538.1
1487.123	522.1
1491.777	510.1
1496.426	508.1
1501.071	498.1
1505.711	499.1
1510.347	506.1
1514.978	488.1
1519.604	492.1
1524.226	490.1
1528.844	488.1
1533.457	484.1
1538.065	476.1
1542.669	473.1
1547.269	474.1
1551.864	485.1
1556.454	494.1
1561.041	499.1
1565.622	508.1
1570.199	503.1
1574.772	495.1
1579.34	517.1
1583.904	525.1
1588.464	538.1
1593.019	536.1
1597.569	520.1
1602.115	533.1
1606.657	533.1
1611.195	523.1
1615.728	529.1
1620.256	521.1
1624.78	514.1
1629.3	516.1
1633.816	520.1
1638.327	533.1
1642.834	510.1
1647.336	517.1
1651.834	524.1
1656.328	523.1
1660.817	517.1
1665.302	504.1
1669.783	503.1
1674.259	496.1
1678.732	481.1
1683.199	462.1
1687.663	446.1
1692.122	413.1
1696.577	410.1
1701.028	389.1
1705.474	370.1
1709.917	363.1
1714.355	347.1
1718.788	345.1
1723.218	351.1
1727.643	347.1
1732.064	355.1
1736.481	354.1
1740.893	338.1
1745.301	342.1
1749.705	325.1
1754.105	315.1
1758.501	304.1
1762.893	304.1
1767.28	303.1
1771.663	293.1
1776.042	289.1
1780.417	284.1
1784.787	280.1
1789.154	283.1
1793.516	265.1
1797.874	266.1
1802.228	264.1
1806.578	257.1
1810.924	251.1
1815.266	250.1
1819.603	253.1
1823.937	265.1
1828.266	258.1
1832.591	266.1
1836.913	257.1
1841.23	261.1
1845.543	257.1
1849.852	270.1
1854.156	265.1
1858.457	267.1
1862.754	263.1
1867.047	264.1
1871.335	276.1
1875.62	263.1
1879.9	262.1
1884.177	254.1
1888.449	251.1
1892.718	251.1
1896.982	246.1
1901.243	235.1
1905.499	242.1
1909.752	221.1
1914	231.1
1918.245	226.1
1922.485	224.1
1926.722	216.1
1930.954	212.1
1935.183	210.1
1939.408	225.1
1943.628	212.1
1947.845	207.1
1952.058	211.1
1956.267	200.1
1960.472	198.1
1964.673	192.1
1968.87	196.1
1973.063	201.1
1977.252	204.1
1981.438	206.1
1985.619	199.1
1989.797	195.1
1993.971	206.1
1998.14	204.1
2002.306	208.1
2006.469	210.1
2010.627	205.1
2014.781	203.1
2018.932	205.1
2023.078	198.1
2027.221	206.1
2031.36	195.1
2035.495	192.1
2039.627	182.1
2043.754	189.1
2047.878	182.1
2051.998	178.1
2056.114	179.1
2060.226	176.1
2064.334	177.1
2068.439	175.1
2072.54	180.1
2076.637	184.1
2080.73	180.1
2084.82	174.1
2088.906	169.1
2092.988	176.1
2097.066	168.1
2101.14	173.1
2105.211	161.1
2109.278	161.1
2113.342	157.1
2117.401	157.1
2121.457	151.1
2125.509	157.1
2129.558	158.1
2133.602	151.1
2137.643	166.1
2141.681	155.1
2145.714	158.1
2149.744	146.1
2153.77	158.1
2157.793	161.1
2161.812	165.1
2165.827	155.1
2169.838	150.1
2173.846	149.1
2177.851	147.1
2181.851	134.1
2185.848	144.1
2189.841	143.1
2193.831	135.1
2197.817	137.1
2201.799	141.1
2205.778	136.1
2209.753	145.1
2213.725	134.1
2217.693	141.1
2221.657	139.1
2225.618	138.1
2229.575	132.1
2233.529	129.1
2237.479	136.1
2241.425	127.1
2245.368	130.1
2249.307	133.1
2253.243	123.1
2257.175	127.1
2261.104	114.1
2265.029	123.1
2268.95	115.1
2272.868	123.1
2276.783	111.1
2280.694	106.1
2284.601	110.1
2288.505	117.1
2292.405	115.1
2296.302	118.1
2300.195	103.1
2304.085	107.1
2307.971	106.1
2311.854	102.1
2315.734	98.1
2319.609	112.1
2323.482	99.1
2327.351	101.1
2331.216	110.1
2335.078	120.1
2338.937	123.1
2342.792	105.1
2346.643	100.1
2350.492	107.1
2354.336	101.1
2358.178	99.1
2362.015	102.1
2365.85	97.1
2369.681	106.1
2373.508	100.1
2377.333	103.1
2381.153	101.1
2384.971	97.1
2388.785	93.1
2392.595	90.1
2396.402	95.1
2400.206	95.1
2404.007	99.1
2407.804	98.1
2411.597	99.1
2415.388	91.1
2419.174	96.1
2422.958	99.1
2426.738	96.1
2430.515	94.1
2434.289	91.1
2438.059	89.1
2441.825	86.1
2445.589	90.1
2449.349	81.1
2453.106	88.1
2456.859	85.1
2460.61	79.1
2464.356	79.1
2468.1	83.1
2471.84	82.1
2475.577	75.1
2479.311	77.1
2483.041	79.1
2486.768	77.1
2490.492	78.1
2494.213	74.1
2497.93	74.1
2501.644	80.1
2505.355	64.1
2509.062	71.1
2512.766	70.1
2516.467	65.1
2520.165	64.1
2523.859	68.1
2527.551	67.1
2531.239	65.1
2534.923	60.1
2538.605	63.1
2542.283	60.1
2545.958	62.1
2549.63	58.1
2553.299	63.1
2556.964	55.1
2560.626	57.1
2564.285	54.1
2567.941	58.1
2571.594	54.1
2575.243	52.1
2578.89	57.1
2582.533	50.1
2586.173	47.1
2589.809	47.1
2593.443	65.1
2597.073	46.1
2600.701	54.1
2604.325	46.1
2607.946	37.1
2611.564	47.1
2615.178	47.1
2618.79	42.1
2622.398	51.1
2626.004	41.1
2629.606	38.1
2633.205	38.1
2636.801	37.1
2640.394	46.1
2643.983	46.1
2647.57	44.1
2651.153	34.1
2654.734	42.1
2658.311	46.1
2661.885	47.1
2665.456	48.1
2669.025	44.1
2672.589	39.1
2676.151	32.1
2679.71	31.1
2683.266	35.1
2686.819	34.1
2690.368	33.1
2693.915	34.1
2697.458	26.1
2700.999	35.1
2704.536	30.1
2708.071	37.1
2711.602	32.1
2715.13	26.1
2718.656	30.1
2722.178	22.1
2725.697	26.1
2729.214	25.1
2732.727	26.1
2736.237	27.1
2739.744	21.1
2743.249	21.1
2746.75	17.1
2750.248	16.1
2753.743	16.1
2757.236	13.1
2760.725	18.1
2764.211	16.1
2767.695	16.1
2771.175	11.1
2774.652	18.1
2778.127	15.1
2781.598	16.1
2785.067	15.1
2788.532	15.1
2791.995	14.1
2795.455	11.1
2798.911	13.1
2802.365	16.1
2805.816	17.1
2809.264	17.1
2812.709	10.1
2816.151	17.1
2819.59	25.1
2823.026	15.1
2826.46	17.1
2829.89	11.1
2833.318	18.1
2836.742	23.1
2840.164	17.1
2843.583	17.1
2846.999	21.1
2850.412	18.1
2853.822	17.1
2857.229	22.1
2860.634	14.1
2864.035	16.1
2867.434	20.1
2870.83	21.1
2874.223	20.1
2877.613	30.1
2881	25.1
2884.385	32.1
2887.766	27.1
2891.145	26.1
2894.521	32.1
2897.894	31.1
2901.264	34.1
2904.631	28.1
2907.996	30.1
2911.358	34.1
2914.717	26.1
2918.073	31.1
2921.426	28.1
2924.777	37.1
2928.124	34.1
2931.469	37.1
2934.811	38.1
2938.15	41.1
2941.487	42.1
2944.821	39.1
2948.152	48.1
2951.48	37.1
2954.805	44.1
2958.128	48.1
2961.447	40.1
2964.765	35.1
2968.079	33.1
2971.39	45.1
2974.699	36.1
2978.005	41.1
2981.308	30.1
2984.609	38.1
2987.907	37.1
2991.202	40.1
2994.494	36.1
2997.784	35.1
3001.07	36.1
3004.355	41.1
3007.636	44.1
3010.915	44.1
3014.191	41.1
3017.464	49.1
3020.734	44.1
3024.002	44.1
3027.267	48.1
3030.53	51.1
3033.789	48.1
3037.046	48.1
3040.301	48.1
3043.552	54.1
3046.801	54.1
3050.048	54.1
3053.291	54.1
3056.532	53.1
3059.771	67.1
3063.006	66.1
3066.239	72.1
3069.469	74.1
3072.697	84.1
3075.922	85.1
3079.144	73.1
3082.364	86.1
3085.581	86.1
3088.795	95.1
3092.007	99.1
3095.216	95.1
3098.423	92.1
3101.627	96.1
3104.828	99.1
3108.026	100.1
3111.222	101.1
3114.416	111.1
3117.607	115.1
3120.795	107.1
3123.98	110.1
3127.163	127.1
3130.344	121.1
3133.521	128.1
3136.696	122.1
3139.869	137.1
3143.039	129.1
3146.206	161.1
3149.371	556.1
3152.533	266.1
3155.693	160.1
3158.85	147.1
3162.005	146.1
3165.157	149.1
3168.306	147.1
3171.453	138.1
3174.597	147.1
3177.739	146.1
3180.878	141.1
3184.014	142.1
3187.149	145.1
3190.28	150.1
3193.409	147.1
3196.536	148.1
3199.659	154.1
3202.781	158.1
3205.9	144.1
3209.016	141.1
3212.13	148.1
3215.241	147.1
3218.35	141.1
3221.456	145.1
3224.56	144.1
3227.661	138.1
3230.76	138.1
3233.856	133.1
3236.95	127.1
3240.041	128.1
3243.13	132.1
3246.216	124.1
3249.3	117.1
3252.382	125.1
3255.46	132.1
3258.537	122.1
3261.611	116.1
3264.682	117.1
3267.751	117.1
3270.818	104.1
3273.882	111.1
3276.943	110.1
3280.002	110.1
3283.059	110.1
3286.113	106.1
3289.165	108.1
3292.214	105.1
3295.261	106.1
3298.306	101.1
3301.348	110.1
3304.387	102.1
3307.425	99.1
3310.459	96.1
3313.492	99.1
3316.521	101.1
3319.549	102.1
3322.574	96.1
3325.597	99.1
3328.617	93.1
3331.635	97.1
3334.65	108.1
3337.663	90.1
3340.674	89.1
3343.682	96.1
3346.688	89.1
3349.691	104.1
3352.692	92.1
3355.691	106.1
3358.687	94.1
3361.681	98.1
3364.673	99.1
3367.662	99.1
3370.649	96.1
3373.633	84.1
3376.615	81.1
3379.595	92.1
3382.572	76.1
3385.547	86.1
3388.52	77.1
3391.49	74.1
3394.458	78.1
3397.424	79.1
3400.387	77.1
3403.348	66.1
3406.307	67.1
3409.263	67.1
3412.217	67.1
3415.168	75.1
3418.118	71.1
3421.065	64.1
3424.009	59.1
3426.951	56.1
3429.891	58.1
3432.829	59.1
3435.764	58.1
3438.697	60.1
3441.628	53.1
3444.557	46.1
3447.483	39.1
3450.407	35.1
3453.328	39.1
3456.247	41.1
3459.164	44.1
3462.079	26.1
3464.991	37.1
3467.902	27.1
3470.809	27.1
3473.715	26.1
3476.618	25.1
3479.519	19.1
3482.418	24.1
3485.315	20.1
3488.209	8.1
3491.101	15.1
3493.99	14.1
3496.878	7.1
3499.763	-1.9
3502.646	0.1
3505.527	4.1
3508.405	-1.9
3511.281	0.1
3514.155	1.1
3517.027	-9.9
3519.897	-1.9
3522.764	-6.9
3525.629	-6.9
3528.492	-8.9
3531.352	-16.9
3534.211	-15.9
3537.067	-16.9
3539.921	-11.9
3542.773	-24.9
3545.622	-16.9
3548.469	-16.9
3551.315	-23.9
3554.157	-23.9
3556.998	-26.9
3559.837	-21.9
3562.673	-28.9
3565.507	-21.9
3568.339	-23.9
3571.169	-26.9
3573.996	-20.9
3576.822	-31.9
3579.645	-30.9
3582.466	-28.9
3585.285	-30.9
3588.101	-36.9
3590.916	-33.9
3593.728	-39.9
3596.538	-35.9
3599.346	-35.9
3602.152	-42.9
3604.956	-32.9
3607.757	-31.9
3610.556	-34.9
3613.354	-40.9
3616.149	-35.9
3618.942	-40.9
3621.732	-38.9
3624.521	-34.9
3627.307	-39.9
3630.092	-41.9
3632.874	-39.9
3635.654	-45.9
3638.432	-41.9
3641.208	-44.9
3643.982	-39.9
3646.753	-46.9
3649.523	-45.9
3652.29	-49.9
3655.055	-41.9
3657.818	-50.9
3660.579	-46.9
3663.338	-44.9
3666.095	-45.9
3668.849	-45.9
3671.602	-40.9
3674.352	-41.9
3677.101	-41.9
3679.847	-44.9
3682.591	-50.9
3685.333	-50.9
3688.073	-49.9
3690.811	-48.9
3693.547	-53.9
3696.281	-52.9
3699.013	-51.9
3701.742	-49.9
3704.47	-43.9
3707.195	-51.9
3709.919	-47.9
3712.64	-47.9
3715.359	-50.9
3718.076	-53.9
3720.792	-48.9
3723.505	-48.9
3726.216	-46.9
3728.925	-55.9
3731.632	-49.9
3734.336	-54.9
3737.039	-46.9
3739.74	-56.9
3742.439	-58.9
3745.136	-54.9
3747.83	-53.9
3750.523	-52.9
3753.213	-54.9
3755.902	-54.9
3758.589	-52.9
3761.273	-53.9
3763.956	-51.9
3766.636	-47.9
3769.315	-54.9
3771.991	-52.9
3774.665	-58.9
3777.338	-58.9
3780.008	-55.9
3782.677	-58.9
3785.343	-59.9
3788.007	-58.9
3790.67	-57.9
3793.33	-56.9
3795.989	-56.9
3798.645	-58.9
3801.299	-55.9
3803.952	-51.9
3806.602	-58.9
3809.251	-60.9
3811.897	-59.9
3814.542	-59.9
3817.184	-58.9
3819.825	-53.9
3822.463	-58.9
3825.1	-54.9
3827.735	-65.9
3830.367	-58.9
3832.998	-57.9
3835.627	-57.9
3838.253	-53.9
3840.878	-50.9
3843.501	-50.9
3846.122	-55.9
3848.741	-57.9
3851.358	-55.9
3853.973	-48.9
3856.586	-53.9
3859.197	-54.9
3861.806	-56.9
3864.414	-57.9
3867.019	-58.9
3869.622	-52.9
3872.224	-43.9
3874.823	-37.9
3877.421	-36.9
3880.016	-16.9
3882.61	4.1
3885.202	5.1
3887.792	-5.9
3890.38	-25.9
3892.966	-40.9
3895.55	-44.9
3898.132	-53.9
3900.713	-54.9
3903.291	-60.9
3905.868	-52.9
3908.442	-59.9
3911.015	-53.9
3913.586	-63.9
3916.155	-56.9
3918.722	-57.9
3921.287	-57.9
3923.85	-49.9
3926.411	-54.9
3928.971	-63.9
3931.528	-57.9
3934.084	-54.9
3936.638	-51.9
3939.19	-64.9
3941.74	-56.9
3944.288	-54.9
3946.834	-54.9
3949.378	-61.9
3951.921	-57.9
3954.462	-57.9
3957	-55.9
3959.537	-46.9
3962.072	-55.9
3964.606	-57.9
3967.137	-54.9
3969.667	-53.9
3972.194	-52.9
3974.72	-48.9
3977.244	-49.9
3979.766	-57.9
3982.286	-59.9
3984.805	-60.9
3987.321	-49.9
3989.836	-47.9
3992.349	-56.9
3994.86	-58.9
3997.369	-58.9
3999.877	-56.9
4002.382	-54.9
4004.886	-51.9
4007.388	-59.9
4009.888	-55.9
4012.386	-58.9
4014.883	-55.9
4017.377	-45.9
4019.87	-56.9
4022.361	-61.9
4024.85	-52.9
4027.338	-51.9
4029.823	-55.9
4032.307	-55.9
4034.789	-51.9
4037.269	-60.9
4039.747	-56.9
4042.224	-56.9
4044.699	-59.9
4047.172	-60.9
4049.643	-56.9
4052.112	-53.9
4054.58	-55.9
4057.046	-53.9
4059.51	-60.9
4061.972	-56.9
4064.432	-51.9
4066.891	-47.9
4069.348	-53.9
4071.803	-50.9
4074.256	-53.9
4076.708	-53.9
4079.158	-59.9
4081.606	-52.9
4084.052	-59.9
4086.497	-53.9
4088.939	-53.9
4091.38	-58.9
4093.819	-63.9
4096.257	-57.9
4098.693	-59.9
4101.127	-53.9
4103.559	-65.9
4105.989	22.1
4108.418	17.1
4110.845	13.1
4113.27	14.1
4115.694	16.1
4118.115	21.1
4120.535	-54.9
4122.954	-52.9
4125.37	-56.9
4127.785	-53.9
4130.198	-51.9
4132.609	-54.9
4135.019	-55.9
4137.427	-60.9
4139.833	-57.9
4142.237	-58.9
