Data from 2018-3-7_conc=6_n=3_RamanShift_04.txt Node
Date: Wed Mar 07 13:04:22 IST 2018
User: aro
Spectrometer: QEPB0276
Trigger mode: 0
Integration Time (sec): 3.000000E1
Scans to average: 1
Electric dark correction enabled: true
Nonlinearity correction enabled: false
Boxcar width: 0
XAxis mode: Raman Shifts
Number of Pixels in Spectrum: 1044
>>>>>Begin Spectral Data<<<<<
160.701	4.2
166.742	23.2
172.777	45.2
178.805	153.2
184.826	400.2
190.841	857.2
196.849	1448.2
202.85	1887.2
208.845	2099.2
214.833	2095.2
220.815	2052.2
226.789	2029.2
232.758	2050.2
238.719	2052.2
244.674	2042.2
250.623	2014.2
256.565	1991.2
262.5	1955.2
268.429	1939.2
274.351	1930.2
280.267	1900.2
286.176	1901.2
292.079	1896.2
297.975	1887.2
303.865	1890.2
309.748	1883.2
315.625	1880.2
321.495	1873.2
327.359	1870.2
333.217	1871.2
339.068	1876.2
344.912	1865.2
350.751	1862.2
356.583	1873.2
362.408	1885.2
368.227	1916.2
374.04	1901.2
379.847	1906.2
385.647	1902.2
391.44	1923.2
397.228	1906.2
403.009	1926.2
408.784	1945.2
414.553	1947.2
420.315	1934.2
426.071	1958.2
431.821	1930.2
437.565	1955.2
443.302	1941.2
449.033	1933.2
454.758	1932.2
460.477	1910.2
466.189	1886.2
471.896	1887.2
477.596	1892.2
483.29	1879.2
488.978	1872.2
494.66	1866.2
500.335	1841.2
506.005	1784.2
511.668	1716.2
517.325	1685.2
522.977	1648.2
528.622	1593.2
534.261	1567.2
539.894	1540.2
545.521	1547.2
551.141	1529.2
556.756	1512.2
562.365	1499.2
567.968	1494.2
573.565	1504.2
579.155	1492.2
584.74	1476.2
590.319	1466.2
595.892	1473.2
601.459	1449.2
607.02	1455.2
612.575	1450.2
618.124	1426.2
623.667	1406.2
629.204	1404.2
634.735	1387.2
640.261	1392.2
645.781	1374.2
651.294	1389.2
656.802	1374.2
662.304	1369.2
667.8	1367.2
673.29	1366.2
678.775	1362.2
684.254	1364.2
689.726	1325.2
695.193	1335.2
700.655	1332.2
706.11	1316.2
711.56	1322.2
717.004	1304.2
722.442	1294.2
727.874	1290.2
733.301	1307.2
738.722	1292.2
744.137	1282.2
749.547	1280.2
754.951	1282.2
760.349	1295.2
765.741	1293.2
771.128	1286.2
776.509	1305.2
781.885	1309.2
787.254	1310.2
792.618	1306.2
797.977	1310.2
803.33	1287.2
808.677	1274.2
814.019	1292.2
819.355	1271.2
824.686	1255.2
830.011	1269.2
835.33	1240.2
840.644	1237.2
845.952	1248.2
851.255	1244.2
856.552	1259.2
861.844	1225.2
867.13	1267.2
872.41	1236.2
877.686	1217.2
882.955	1215.2
888.219	1197.2
893.478	1174.2
898.731	1174.2
903.979	1137.2
909.221	1141.2
914.458	1130.2
919.69	1134.2
924.916	1141.2
930.136	1134.2
935.351	1142.2
940.561	1145.2
945.766	1128.2
950.965	1128.2
956.158	1121.2
961.347	1107.2
966.529	1105.2
971.707	1067.2
976.879	1069.2
982.046	1065.2
987.208	1072.2
992.364	1054.2
997.515	1044.2
1002.66	1060.2
1007.801	1090.2
1012.936	1083.2
1018.066	1104.2
1023.19	1089.2
1028.309	1086.2
1033.423	1085.2
1038.532	1074.2
1043.636	1075.2
1048.734	1061.2
1053.827	1050.2
1058.915	1022.2
1063.998	1029.2
1069.075	1007.2
1074.147	1009.2
1079.214	1028.2
1084.276	1043.2
1089.333	1037.2
1094.385	1053.2
1099.431	1029.2
1104.472	1046.2
1109.509	1022.2
1114.54	1016.2
1119.565	1011.2
1124.586	987.2
1129.602	977.2
1134.613	970.2
1139.618	958.2
1144.619	953.2
1149.614	969.2
1154.604	964.2
1159.589	957.2
1164.57	970.2
1169.545	948.2
1174.515	964.2
1179.48	977.2
1184.44	976.2
1189.395	947.2
1194.345	942.2
1199.29	937.2
1204.23	944.2
1209.165	940.2
1214.095	949.2
1219.021	944.2
1223.941	954.2
1228.856	955.2
1233.766	971.2
1238.672	963.2
1243.572	959.2
1248.467	954.2
1253.358	946.2
1258.244	928.2
1263.124	908.2
1268	892.2
1272.871	889.2
1277.737	888.2
1282.599	882.2
1287.455	878.2
1292.306	882.2
1297.153	889.2
1301.995	902.2
1306.832	890.2
1311.664	903.2
1316.491	914.2
1321.314	902.2
1326.132	890.2
1330.945	878.2
1335.753	872.2
1340.556	844.2
1345.354	839.2
1350.148	814.2
1354.937	800.2
1359.722	780.2
1364.501	768.2
1369.276	750.2
1374.046	720.2
1378.811	728.2
1383.572	723.2
1388.327	722.2
1393.079	711.2
1397.825	717.2
1402.567	719.2
1407.304	740.2
1412.036	730.2
1416.764	739.2
1421.487	744.2
1426.205	731.2
1430.919	741.2
1435.628	745.2
1440.333	766.2
1445.032	743.2
1449.727	770.2
1454.418	786.2
1459.104	761.2
1463.785	741.2
1468.462	733.2
1473.134	715.2
1477.802	703.2
1482.465	681.2
1487.123	668.2
1491.777	657.2
1496.426	653.2
1501.071	634.2
1505.711	636.2
1510.347	622.2
1514.978	619.2
1519.604	608.2
1524.226	616.2
1528.844	610.2
1533.457	596.2
1538.065	603.2
1542.669	592.2
1547.269	603.2
1551.864	599.2
1556.454	616.2
1561.041	626.2
1565.622	623.2
1570.199	622.2
1574.772	638.2
1579.34	649.2
1583.904	654.2
1588.464	675.2
1593.019	666.2
1597.569	673.2
1602.115	668.2
1606.657	671.2
1611.195	670.2
1615.728	670.2
1620.256	651.2
1624.78	656.2
1629.3	671.2
1633.816	665.2
1638.327	666.2
1642.834	670.2
1647.336	662.2
1651.834	668.2
1656.328	667.2
1660.817	662.2
1665.302	648.2
1669.783	634.2
1674.259	619.2
1678.732	616.2
1683.199	579.2
1687.663	559.2
1692.122	537.2
1696.577	514.2
1701.028	489.2
1705.474	457.2
1709.917	445.2
1714.355	442.2
1718.788	440.2
1723.218	429.2
1727.643	437.2
1732.064	445.2
1736.481	445.2
1740.893	423.2
1745.301	415.2
1749.705	418.2
1754.105	404.2
1758.501	389.2
1762.893	385.2
1767.28	379.2
1771.663	385.2
1776.042	373.2
1780.417	352.2
1784.787	358.2
1789.154	347.2
1793.516	339.2
1797.874	332.2
1802.228	334.2
1806.578	320.2
1810.924	321.2
1815.266	318.2
1819.603	321.2
1823.937	328.2
1828.266	323.2
1832.591	327.2
1836.913	330.2
1841.23	335.2
1845.543	333.2
1849.852	344.2
1854.156	343.2
1858.457	343.2
1862.754	351.2
1867.047	338.2
1871.335	337.2
1875.62	338.2
1879.9	335.2
1884.177	324.2
1888.449	324.2
1892.718	331.2
1896.982	313.2
1901.243	307.2
1905.499	300.2
1909.752	303.2
1914	297.2
1918.245	283.2
1922.485	273.2
1926.722	279.2
1930.954	266.2
1935.183	274.2
1939.408	275.2
1943.628	263.2
1947.845	261.2
1952.058	258.2
1956.267	248.2
1960.472	259.2
1964.673	239.2
1968.87	246.2
1973.063	258.2
1977.252	249.2
1981.438	254.2
1985.619	246.2
1989.797	248.2
1993.971	260.2
1998.14	265.2
2002.306	265.2
2006.469	256.2
2010.627	263.2
2014.781	262.2
2018.932	267.2
2023.078	267.2
2027.221	257.2
2031.36	259.2
2035.495	263.2
2039.627	250.2
2043.754	245.2
2047.878	243.2
2051.998	251.2
2056.114	234.2
2060.226	229.2
2064.334	234.2
2068.439	229.2
2072.54	226.2
2076.637	227.2
2080.73	223.2
2084.82	235.2
2088.906	223.2
2092.988	210.2
2097.066	222.2
2101.14	212.2
2105.211	219.2
2109.278	207.2
2113.342	204.2
2117.401	205.2
2121.457	212.2
2125.509	197.2
2129.558	198.2
2133.602	203.2
2137.643	202.2
2141.681	203.2
2145.714	199.2
2149.744	204.2
2153.77	205.2
2157.793	206.2
2161.812	203.2
2165.827	201.2
2169.838	196.2
2173.846	196.2
2177.851	196.2
2181.851	200.2
2185.848	181.2
2189.841	192.2
2193.831	190.2
2197.817	188.2
2201.799	189.2
2205.778	190.2
2209.753	195.2
2213.725	182.2
2217.693	196.2
2221.657	188.2
2225.618	180.2
2229.575	187.2
2233.529	176.2
2237.479	183.2
2241.425	181.2
2245.368	182.2
2249.307	180.2
2253.243	173.2
2257.175	168.2
2261.104	158.2
2265.029	165.2
2268.95	168.2
2272.868	166.2
2276.783	164.2
2280.694	155.2
2284.601	154.2
2288.505	159.2
2292.405	162.2
2296.302	166.2
2300.195	152.2
2304.085	149.2
2307.971	152.2
2311.854	142.2
2315.734	143.2
2319.609	144.2
2323.482	144.2
2327.351	153.2
2331.216	147.2
2335.078	165.2
2338.937	159.2
2342.792	148.2
2346.643	152.2
2350.492	142.2
2354.336	145.2
2358.178	147.2
2362.015	144.2
2365.85	140.2
2369.681	150.2
2373.508	146.2
2377.333	148.2
2381.153	150.2
2384.971	143.2
2388.785	149.2
2392.595	150.2
2396.402	147.2
2400.206	149.2
2404.007	144.2
2407.804	146.2
2411.597	140.2
2415.388	139.2
2419.174	148.2
2422.958	143.2
2426.738	147.2
2430.515	140.2
2434.289	140.2
2438.059	140.2
2441.825	134.2
2445.589	140.2
2449.349	129.2
2453.106	134.2
2456.859	131.2
2460.61	126.2
2464.356	130.2
2468.1	129.2
2471.84	116.2
2475.577	120.2
2479.311	125.2
2483.041	123.2
2486.768	117.2
2490.492	125.2
2494.213	118.2
2497.93	119.2
2501.644	113.2
2505.355	114.2
2509.062	115.2
2512.766	106.2
2516.467	107.2
2520.165	109.2
2523.859	115.2
2527.551	108.2
2531.239	101.2
2534.923	97.2
2538.605	93.2
2542.283	99.2
2545.958	98.2
2549.63	95.2
2553.299	97.2
2556.964	89.2
2560.626	95.2
2564.285	97.2
2567.941	90.2
2571.594	84.2
2575.243	94.2
2578.89	90.2
2582.533	82.2
2586.173	81.2
2589.809	91.2
2593.443	88.2
2597.073	81.2
2600.701	81.2
2604.325	73.2
2607.946	74.2
2611.564	80.2
2615.178	80.2
2618.79	74.2
2622.398	81.2
2626.004	75.2
2629.606	72.2
2633.205	71.2
2636.801	72.2
2640.394	79.2
2643.983	72.2
2647.57	75.2
2651.153	73.2
2654.734	77.2
2658.311	70.2
2661.885	72.2
2665.456	74.2
2669.025	74.2
2672.589	69.2
2676.151	67.2
2679.71	66.2
2683.266	62.2
2686.819	63.2
2690.368	59.2
2693.915	62.2
2697.458	59.2
2700.999	70.2
2704.536	67.2
2708.071	57.2
2711.602	52.2
2715.13	48.2
2718.656	60.2
2722.178	53.2
2725.697	50.2
2729.214	51.2
2732.727	52.2
2736.237	52.2
2739.744	45.2
2743.249	49.2
2746.75	49.2
2750.248	43.2
2753.743	41.2
2757.236	37.2
2760.725	33.2
2764.211	34.2
2767.695	36.2
2771.175	30.2
2774.652	30.2
2778.127	34.2
2781.598	31.2
2785.067	36.2
2788.532	34.2
2791.995	36.2
2795.455	29.2
2798.911	38.2
2802.365	41.2
2805.816	38.2
2809.264	32.2
2812.709	37.2
2816.151	41.2
2819.59	52.2
2823.026	38.2
2826.46	38.2
2829.89	37.2
2833.318	35.2
2836.742	43.2
2840.164	40.2
2843.583	39.2
2846.999	42.2
2850.412	40.2
2853.822	42.2
2857.229	38.2
2860.634	35.2
2864.035	39.2
2867.434	44.2
2870.83	53.2
2874.223	52.2
2877.613	52.2
2881	53.2
2884.385	49.2
2887.766	50.2
2891.145	48.2
2894.521	57.2
2897.894	52.2
2901.264	46.2
2904.631	47.2
2907.996	50.2
2911.358	59.2
2914.717	50.2
2918.073	50.2
2921.426	51.2
2924.777	53.2
2928.124	63.2
2931.469	63.2
2934.811	73.2
2938.15	75.2
2941.487	78.2
2944.821	71.2
2948.152	75.2
2951.48	66.2
2954.805	69.2
2958.128	66.2
2961.447	67.2
2964.765	62.2
2968.079	58.2
2971.39	64.2
2974.699	59.2
2978.005	61.2
2981.308	64.2
2984.609	59.2
2987.907	61.2
2991.202	66.2
2994.494	58.2
2997.784	55.2
3001.07	65.2
3004.355	71.2
3007.636	65.2
3010.915	66.2
3014.191	70.2
3017.464	68.2
3020.734	72.2
3024.002	75.2
3027.267	73.2
3030.53	78.2
3033.789	72.2
3037.046	73.2
3040.301	76.2
3043.552	79.2
3046.801	80.2
3050.048	83.2
3053.291	86.2
3056.532	89.2
3059.771	99.2
3063.006	103.2
3066.239	111.2
3069.469	113.2
3072.697	109.2
3075.922	119.2
3079.144	118.2
3082.364	125.2
3085.581	118.2
3088.795	128.2
3092.007	132.2
3095.216	137.2
3098.423	132.2
3101.627	129.2
3104.828	139.2
3108.026	141.2
3111.222	144.2
3114.416	148.2
3117.607	158.2
3120.795	156.2
3123.98	168.2
3127.163	175.2
3130.344	175.2
3133.521	177.2
3136.696	176.2
3139.869	183.2
3143.039	187.2
3146.206	191.2
3149.371	192.2
3152.533	203.2
3155.693	191.2
3158.85	191.2
3162.005	198.2
3165.157	192.2
3168.306	188.2
3171.453	197.2
3174.597	186.2
3177.739	196.2
3180.878	201.2
3184.014	193.2
3187.149	194.2
3190.28	199.2
3193.409	201.2
3196.536	196.2
3199.659	202.2
3202.781	200.2
3205.9	204.2
3209.016	203.2
3212.13	198.2
3215.241	197.2
3218.35	206.2
3221.456	199.2
3224.56	189.2
3227.661	192.2
3230.76	188.2
3233.856	189.2
3236.95	182.2
3240.041	173.2
3243.13	176.2
3246.216	171.2
3249.3	161.2
3252.382	172.2
3255.46	167.2
3258.537	158.2
3261.611	160.2
3264.682	153.2
3267.751	164.2
3270.818	151.2
3273.882	154.2
3276.943	153.2
3280.002	154.2
3283.059	155.2
3286.113	152.2
3289.165	150.2
3292.214	150.2
3295.261	146.2
3298.306	141.2
3301.348	144.2
3304.387	146.2
3307.425	139.2
3310.459	135.2
3313.492	137.2
3316.521	142.2
3319.549	145.2
3322.574	133.2
3325.597	135.2
3328.617	135.2
3331.635	138.2
3334.65	140.2
3337.663	119.2
3340.674	132.2
3343.682	134.2
3346.688	134.2
3349.691	136.2
3352.692	135.2
3355.691	138.2
3358.687	130.2
3361.681	131.2
3364.673	133.2
3367.662	130.2
3370.649	132.2
3373.633	129.2
3376.615	131.2
3379.595	123.2
3382.572	117.2
3385.547	126.2
3388.52	121.2
3391.49	110.2
3394.458	111.2
3397.424	109.2
3400.387	111.2
3403.348	103.2
3406.307	95.2
3409.263	104.2
3412.217	102.2
3415.168	107.2
3418.118	95.2
3421.065	91.2
3424.009	90.2
3426.951	93.2
3429.891	92.2
3432.829	92.2
3435.764	100.2
3438.697	85.2
3441.628	75.2
3444.557	83.2
3447.483	78.2
3450.407	63.2
3453.328	74.2
3456.247	62.2
3459.164	67.2
3462.079	56.2
3464.991	58.2
3467.902	49.2
3470.809	46.2
3473.715	51.2
3476.618	42.2
3479.519	43.2
3482.418	35.2
3485.315	40.2
3488.209	32.2
3491.101	28.2
3493.99	39.2
3496.878	25.2
3499.763	21.2
3502.646	27.2
3505.527	26.2
3508.405	21.2
3511.281	22.2
3514.155	15.2
3517.027	8.2
3519.897	16.2
3522.764	9.2
3525.629	11.2
3528.492	-1.8
3531.352	3.2
3534.211	-2.8
3537.067	-2.8
3539.921	1.2
3542.773	-13.8
3545.622	-10.8
3548.469	-9.8
3551.315	-7.8
3554.157	-10.8
3556.998	-11.8
3559.837	-12.8
3562.673	-18.8
3565.507	-13.8
3568.339	-11.8
3571.169	-19.8
3573.996	-14.8
3576.822	-23.8
3579.645	-23.8
3582.466	-16.8
3585.285	-16.8
3588.101	-25.8
3590.916	-20.8
3593.728	-28.8
3596.538	-29.8
3599.346	-31.8
3602.152	-27.8
3604.956	-29.8
3607.757	-24.8
3610.556	-30.8
3613.354	-35.8
3616.149	-35.8
3618.942	-37.8
3621.732	-32.8
3624.521	-25.8
3627.307	-37.8
3630.092	-34.8
3632.874	-34.8
3635.654	-31.8
3638.432	-34.8
3641.208	-34.8
3643.982	-25.8
3646.753	-40.8
3649.523	-31.8
3652.29	-38.8
3655.055	-33.8
3657.818	-41.8
3660.579	-44.8
3663.338	-35.8
3666.095	-39.8
3668.849	-40.8
3671.602	-40.8
3674.352	-40.8
3677.101	-43.8
3679.847	-41.8
3682.591	-44.8
3685.333	-40.8
3688.073	-49.8
3690.811	-40.8
3693.547	-41.8
3696.281	-41.8
3699.013	-42.8
3701.742	-43.8
3704.47	-35.8
3707.195	-39.8
3709.919	-39.8
3712.64	-42.8
3715.359	-48.8
3718.076	-49.8
3720.792	-46.8
3723.505	-49.8
3726.216	-40.8
3728.925	-51.8
3731.632	-47.8
3734.336	-48.8
3737.039	-47.8
3739.74	-51.8
3742.439	-54.8
3745.136	-47.8
3747.83	-49.8
3750.523	-49.8
3753.213	-57.8
3755.902	-50.8
3758.589	-45.8
3761.273	-47.8
3763.956	-49.8
3766.636	-39.8
3769.315	-40.8
3771.991	-50.8
3774.665	-51.8
3777.338	-48.8
3780.008	-49.8
3782.677	-57.8
3785.343	-50.8
3788.007	-52.8
3790.67	-51.8
3793.33	-54.8
3795.989	-50.8
3798.645	-56.8
3801.299	-50.8
3803.952	-45.8
3806.602	-50.8
3809.251	-56.8
3811.897	-54.8
3814.542	-54.8
3817.184	-51.8
3819.825	-44.8
3822.463	-47.8
3825.1	-48.8
3827.735	-53.8
3830.367	-50.8
3832.998	-49.8
3835.627	-51.8
3838.253	-45.8
3840.878	-45.8
3843.501	-45.8
3846.122	-56.8
3848.741	-48.8
3851.358	-53.8
3853.973	-52.8
3856.586	-47.8
3859.197	-50.8
3861.806	-55.8
3864.414	-54.8
3867.019	-52.8
3869.622	-40.8
3872.224	-44.8
3874.823	-31.8
3877.421	-27.8
3880.016	-22.8
3882.61	-3.8
3885.202	-12.8
3887.792	-7.8
3890.38	-22.8
3892.966	-39.8
3895.55	-49.8
3898.132	-52.8
3900.713	-57.8
3903.291	-55.8
3905.868	-52.8
3908.442	-54.8
3911.015	-49.8
3913.586	-56.8
3916.155	-49.8
3918.722	-51.8
3921.287	-50.8
3923.85	-41.8
3926.411	-54.8
3928.971	-51.8
3931.528	-56.8
3934.084	-46.8
3936.638	-53.8
3939.19	-56.8
3941.74	-49.8
3944.288	-52.8
3946.834	-54.8
3949.378	-51.8
3951.921	-56.8
3954.462	-49.8
3957	-50.8
3959.537	-47.8
3962.072	-52.8
3964.606	-50.8
3967.137	-51.8
3969.667	-51.8
3972.194	-50.8
3974.72	-46.8
3977.244	-49.8
3979.766	-48.8
3982.286	-49.8
3984.805	-59.8
3987.321	-50.8
3989.836	-45.8
3992.349	-49.8
3994.86	-51.8
3997.369	-56.8
3999.877	-51.8
4002.382	-48.8
4004.886	-50.8
4007.388	-52.8
4009.888	-53.8
4012.386	-52.8
4014.883	-49.8
4017.377	-49.8
4019.87	-47.8
4022.361	-52.8
4024.85	-48.8
4027.338	-52.8
4029.823	-52.8
4032.307	-57.8
4034.789	-47.8
4037.269	-47.8
4039.747	-49.8
4042.224	-53.8
4044.699	-53.8
4047.172	-51.8
4049.643	-56.8
4052.112	-53.8
4054.58	-52.8
4057.046	-48.8
4059.51	-55.8
4061.972	-54.8
4064.432	-51.8
4066.891	-49.8
4069.348	-50.8
4071.803	-45.8
4074.256	-50.8
4076.708	-50.8
4079.158	-54.8
4081.606	-48.8
4084.052	-52.8
4086.497	-43.8
4088.939	-46.8
4091.38	-52.8
4093.819	-51.8
4096.257	-52.8
4098.693	-56.8
4101.127	-46.8
4103.559	-57.8
4105.989	2.2
4108.418	2.2
4110.845	-4.8
4113.27	-2.8
4115.694	4.2
4118.115	1.2
4120.535	-48.8
4122.954	-48.8
4125.37	-51.8
4127.785	-50.8
4130.198	-49.8
4132.609	-56.8
4135.019	-55.8
4137.427	-58.8
4139.833	-55.8
4142.237	-55.8
