Data from 2018-3-7_conc=2_n=1_RamanShift_05.txt Node
Date: Wed Mar 07 10:41:22 IST 2018
User: aro
Spectrometer: QEPB0276
Trigger mode: 0
Integration Time (sec): 3.000000E1
Scans to average: 1
Electric dark correction enabled: true
Nonlinearity correction enabled: false
Boxcar width: 0
XAxis mode: Raman Shifts
Number of Pixels in Spectrum: 1044
>>>>>Begin Spectral Data<<<<<
160.701	5.9
166.742	20.9
172.777	53.9
178.805	164.9
184.826	413.9
190.841	888.9
196.849	1455.9
202.85	1892.9
208.845	2072.9
214.833	2086.9
220.815	2073.9
226.789	2074.9
232.758	2082.9
238.719	2059.9
244.674	2077.9
250.623	2071.9
256.565	2046.9
262.5	2029.9
268.429	2025.9
274.351	2006.9
280.267	2000.9
286.176	1998.9
292.079	1992.9
297.975	1992.9
303.865	2005.9
309.748	2008.9
315.625	2013.9
321.495	2013.9
327.359	2025.9
333.217	2029.9
339.068	2027.9
344.912	2038.9
350.751	2047.9
356.583	2039.9
362.408	2050.9
368.227	2060.9
374.04	2066.9
379.847	2090.9
385.647	2083.9
391.44	2082.9
397.228	2114.9
403.009	2137.9
408.784	2129.9
414.553	2157.9
420.315	2133.9
426.071	2165.9
431.821	2159.9
437.565	2166.9
443.302	2130.9
449.033	2156.9
454.758	2119.9
460.477	2106.9
466.189	2090.9
471.896	2072.9
477.596	2072.9
483.29	2048.9
488.978	2016.9
494.66	2028.9
500.335	1976.9
506.005	1907.9
511.668	1812.9
517.325	1748.9
522.977	1664.9
528.622	1634.9
534.261	1601.9
539.894	1569.9
545.521	1563.9
551.141	1533.9
556.756	1519.9
562.365	1505.9
567.968	1487.9
573.565	1480.9
579.155	1473.9
584.74	1465.9
590.319	1451.9
595.892	1468.9
601.459	1458.9
607.02	1448.9
612.575	1435.9
618.124	1411.9
623.667	1401.9
629.204	1369.9
634.735	1351.9
640.261	1336.9
645.781	1342.9
651.294	1336.9
656.802	1349.9
662.304	1336.9
667.8	1341.9
673.29	1334.9
678.775	1328.9
684.254	1325.9
689.726	1319.9
695.193	1304.9
700.655	1299.9
706.11	1293.9
711.56	1290.9
717.004	1268.9
722.442	1246.9
727.874	1246.9
733.301	1241.9
738.722	1246.9
744.137	1242.9
749.547	1260.9
754.951	1239.9
760.349	1243.9
765.741	1250.9
771.128	1261.9
776.509	1268.9
781.885	1287.9
787.254	1290.9
792.618	1311.9
797.977	1287.9
803.33	1284.9
808.677	1266.9
814.019	1275.9
819.355	1263.9
824.686	1225.9
830.011	1235.9
835.33	1227.9
840.644	1222.9
845.952	1220.9
851.255	1208.9
856.552	1208.9
861.844	1188.9
867.13	1166.9
872.41	1184.9
877.686	1192.9
882.955	1177.9
888.219	1154.9
893.478	1142.9
898.731	1098.9
903.979	1100.9
909.221	1088.9
914.458	1077.9
919.69	1081.9
924.916	1074.9
930.136	1093.9
935.351	1085.9
940.561	1082.9
945.766	1076.9
950.965	1080.9
956.158	1075.9
961.347	1070.9
966.529	1051.9
971.707	1027.9
976.879	1002.9
982.046	1005.9
987.208	1004.9
992.364	998.9
997.515	1002.9
1002.66	1003.9
1007.801	1024.9
1012.936	1046.9
1018.066	1044.9
1023.19	1034.9
1028.309	1041.9
1033.423	1030.9
1038.532	1029.9
1043.636	1041.9
1048.734	1029.9
1053.827	1025.9
1058.915	990.9
1063.998	990.9
1069.075	982.9
1074.147	987.9
1079.214	990.9
1084.276	994.9
1089.333	1003.9
1094.385	1007.9
1099.431	996.9
1104.472	981.9
1109.509	978.9
1114.54	966.9
1119.565	957.9
1124.586	942.9
1129.602	925.9
1134.613	920.9
1139.618	907.9
1144.619	909.9
1149.614	922.9
1154.604	919.9
1159.589	918.9
1164.57	919.9
1169.545	935.9
1174.515	923.9
1179.48	924.9
1184.44	918.9
1189.395	917.9
1194.345	901.9
1199.29	874.9
1204.23	894.9
1209.165	892.9
1214.095	887.9
1219.021	892.9
1223.941	903.9
1228.856	907.9
1233.766	914.9
1238.672	914.9
1243.572	909.9
1248.467	906.9
1253.358	895.9
1258.244	882.9
1263.124	861.9
1268	847.9
1272.871	837.9
1277.737	835.9
1282.599	827.9
1287.455	810.9
1292.306	837.9
1297.153	811.9
1301.995	838.9
1306.832	840.9
1311.664	843.9
1316.491	834.9
1321.314	848.9
1326.132	843.9
1330.945	821.9
1335.753	805.9
1340.556	780.9
1345.354	764.9
1350.148	765.9
1354.937	742.9
1359.722	725.9
1364.501	701.9
1369.276	693.9
1374.046	702.9
1378.811	682.9
1383.572	664.9
1388.327	679.9
1393.079	679.9
1397.825	681.9
1402.567	688.9
1407.304	699.9
1412.036	691.9
1416.764	692.9
1421.487	692.9
1426.205	696.9
1430.919	691.9
1435.628	705.9
1440.333	705.9
1445.032	718.9
1449.727	714.9
1454.418	718.9
1459.104	712.9
1463.785	693.9
1468.462	686.9
1473.134	669.9
1477.802	637.9
1482.465	627.9
1487.123	612.9
1491.777	590.9
1496.426	598.9
1501.071	585.9
1505.711	583.9
1510.347	569.9
1514.978	580.9
1519.604	567.9
1524.226	572.9
1528.844	565.9
1533.457	565.9
1538.065	557.9
1542.669	554.9
1547.269	564.9
1551.864	567.9
1556.454	586.9
1561.041	600.9
1565.622	604.9
1570.199	596.9
1574.772	596.9
1579.34	604.9
1583.904	604.9
1588.464	616.9
1593.019	624.9
1597.569	617.9
1602.115	617.9
1606.657	616.9
1611.195	611.9
1615.728	610.9
1620.256	601.9
1624.78	598.9
1629.3	614.9
1633.816	609.9
1638.327	599.9
1642.834	603.9
1647.336	595.9
1651.834	598.9
1656.328	596.9
1660.817	606.9
1665.302	582.9
1669.783	576.9
1674.259	575.9
1678.732	545.9
1683.199	525.9
1687.663	504.9
1692.122	480.9
1696.577	461.9
1701.028	445.9
1705.474	415.9
1709.917	418.9
1714.355	408.9
1718.788	395.9
1723.218	405.9
1727.643	400.9
1732.064	403.9
1736.481	404.9
1740.893	388.9
1745.301	384.9
1749.705	376.9
1754.105	365.9
1758.501	365.9
1762.893	357.9
1767.28	351.9
1771.663	352.9
1776.042	329.9
1780.417	327.9
1784.787	317.9
1789.154	314.9
1793.516	304.9
1797.874	295.9
1802.228	311.9
1806.578	304.9
1810.924	299.9
1815.266	300.9
1819.603	291.9
1823.937	302.9
1828.266	289.9
1832.591	306.9
1836.913	305.9
1841.23	311.9
1845.543	309.9
1849.852	315.9
1854.156	313.9
1858.457	314.9
1862.754	306.9
1867.047	292.9
1871.335	308.9
1875.62	295.9
1879.9	297.9
1884.177	292.9
1888.449	294.9
1892.718	279.9
1896.982	279.9
1901.243	268.9
1905.499	271.9
1909.752	252.9
1914	248.9
1918.245	258.9
1922.485	253.9
1926.722	232.9
1930.954	238.9
1935.183	245.9
1939.408	244.9
1943.628	238.9
1947.845	230.9
1952.058	228.9
1956.267	234.9
1960.472	231.9
1964.673	217.9
1968.87	229.9
1973.063	223.9
1977.252	231.9
1981.438	223.9
1985.619	225.9
1989.797	225.9
1993.971	238.9
1998.14	227.9
2002.306	237.9
2006.469	236.9
2010.627	239.9
2014.781	234.9
2018.932	227.9
2023.078	234.9
2027.221	226.9
2031.36	241.9
2035.495	223.9
2039.627	221.9
2043.754	214.9
2047.878	212.9
2051.998	213.9
2056.114	205.9
2060.226	204.9
2064.334	202.9
2068.439	203.9
2072.54	200.9
2076.637	211.9
2080.73	199.9
2084.82	203.9
2088.906	197.9
2092.988	185.9
2097.066	181.9
2101.14	182.9
2105.211	185.9
2109.278	182.9
2113.342	178.9
2117.401	181.9
2121.457	177.9
2125.509	178.9
2129.558	175.9
2133.602	178.9
2137.643	181.9
2141.681	176.9
2145.714	179.9
2149.744	171.9
2153.77	187.9
2157.793	179.9
2161.812	178.9
2165.827	181.9
2169.838	179.9
2173.846	177.9
2177.851	175.9
2181.851	171.9
2185.848	169.9
2189.841	162.9
2193.831	161.9
2197.817	164.9
2201.799	166.9
2205.778	162.9
2209.753	172.9
2213.725	164.9
2217.693	163.9
2221.657	164.9
2225.618	156.9
2229.575	148.9
2233.529	161.9
2237.479	156.9
2241.425	157.9
2245.368	151.9
2249.307	156.9
2253.243	152.9
2257.175	149.9
2261.104	143.9
2265.029	140.9
2268.95	141.9
2272.868	138.9
2276.783	131.9
2280.694	127.9
2284.601	128.9
2288.505	141.9
2292.405	135.9
2296.302	139.9
2300.195	136.9
2304.085	132.9
2307.971	125.9
2311.854	118.9
2315.734	113.9
2319.609	127.9
2323.482	123.9
2327.351	137.9
2331.216	136.9
2335.078	159.9
2338.937	143.9
2342.792	125.9
2346.643	131.9
2350.492	127.9
2354.336	126.9
2358.178	120.9
2362.015	118.9
2365.85	118.9
2369.681	128.9
2373.508	131.9
2377.333	129.9
2381.153	123.9
2384.971	120.9
2388.785	120.9
2392.595	124.9
2396.402	131.9
2400.206	130.9
2404.007	120.9
2407.804	124.9
2411.597	114.9
2415.388	121.9
2419.174	120.9
2422.958	119.9
2426.738	120.9
2430.515	115.9
2434.289	111.9
2438.059	112.9
2441.825	106.9
2445.589	116.9
2449.349	104.9
2453.106	111.9
2456.859	97.9
2460.61	111.9
2464.356	109.9
2468.1	96.9
2471.84	98.9
2475.577	97.9
2479.311	93.9
2483.041	101.9
2486.768	91.9
2490.492	103.9
2494.213	91.9
2497.93	90.9
2501.644	95.9
2505.355	87.9
2509.062	89.9
2512.766	89.9
2516.467	89.9
2520.165	86.9
2523.859	86.9
2527.551	81.9
2531.239	78.9
2534.923	77.9
2538.605	76.9
2542.283	72.9
2545.958	71.9
2549.63	79.9
2553.299	73.9
2556.964	73.9
2560.626	71.9
2564.285	71.9
2567.941	69.9
2571.594	62.9
2575.243	65.9
2578.89	67.9
2582.533	64.9
2586.173	60.9
2589.809	72.9
2593.443	73.9
2597.073	64.9
2600.701	67.9
2604.325	58.9
2607.946	56.9
2611.564	61.9
2615.178	62.9
2618.79	54.9
2622.398	62.9
2626.004	56.9
2629.606	58.9
2633.205	57.9
2636.801	57.9
2640.394	61.9
2643.983	54.9
2647.57	55.9
2651.153	45.9
2654.734	50.9
2658.311	53.9
2661.885	54.9
2665.456	56.9
2669.025	59.9
2672.589	51.9
2676.151	52.9
2679.71	40.9
2683.266	49.9
2686.819	51.9
2690.368	47.9
2693.915	43.9
2697.458	37.9
2700.999	41.9
2704.536	48.9
2708.071	46.9
2711.602	35.9
2715.13	32.9
2718.656	44.9
2722.178	36.9
2725.697	32.9
2729.214	37.9
2732.727	37.9
2736.237	45.9
2739.744	30.9
2743.249	30.9
2746.75	29.9
2750.248	23.9
2753.743	31.9
2757.236	23.9
2760.725	26.9
2764.211	21.9
2767.695	18.9
2771.175	17.9
2774.652	21.9
2778.127	22.9
2781.598	14.9
2785.067	25.9
2788.532	20.9
2791.995	23.9
2795.455	23.9
2798.911	24.9
2802.365	25.9
2805.816	28.9
2809.264	22.9
2812.709	25.9
2816.151	21.9
2819.59	40.9
2823.026	22.9
2826.46	28.9
2829.89	21.9
2833.318	19.9
2836.742	27.9
2840.164	26.9
2843.583	28.9
2846.999	28.9
2850.412	25.9
2853.822	24.9
2857.229	28.9
2860.634	23.9
2864.035	26.9
2867.434	26.9
2870.83	38.9
2874.223	33.9
2877.613	37.9
2881	36.9
2884.385	44.9
2887.766	42.9
2891.145	41.9
2894.521	33.9
2897.894	40.9
2901.264	42.9
2904.631	35.9
2907.996	38.9
2911.358	46.9
2914.717	41.9
2918.073	41.9
2921.426	43.9
2924.777	55.9
2928.124	45.9
2931.469	46.9
2934.811	57.9
2938.15	56.9
2941.487	64.9
2944.821	52.9
2948.152	62.9
2951.48	54.9
2954.805	54.9
2958.128	50.9
2961.447	59.9
2964.765	44.9
2968.079	45.9
2971.39	46.9
2974.699	45.9
2978.005	49.9
2981.308	42.9
2984.609	44.9
2987.907	53.9
2991.202	53.9
2994.494	49.9
2997.784	37.9
3001.07	47.9
3004.355	51.9
3007.636	48.9
3010.915	53.9
3014.191	44.9
3017.464	52.9
3020.734	54.9
3024.002	57.9
3027.267	55.9
3030.53	57.9
3033.789	55.9
3037.046	57.9
3040.301	52.9
3043.552	66.9
3046.801	65.9
3050.048	66.9
3053.291	73.9
3056.532	82.9
3059.771	77.9
3063.006	77.9
3066.239	81.9
3069.469	92.9
3072.697	96.9
3075.922	93.9
3079.144	94.9
3082.364	99.9
3085.581	89.9
3088.795	109.9
3092.007	107.9
3095.216	110.9
3098.423	102.9
3101.627	112.9
3104.828	113.9
3108.026	118.9
3111.222	119.9
3114.416	118.9
3117.607	123.9
3120.795	120.9
3123.98	124.9
3127.163	134.9
3130.344	140.9
3133.521	143.9
3136.696	143.9
3139.869	147.9
3143.039	145.9
3146.206	158.9
3149.371	156.9
3152.533	161.9
3155.693	158.9
3158.85	171.9
3162.005	162.9
3165.157	154.9
3168.306	158.9
3171.453	155.9
3174.597	159.9
3177.739	160.9
3180.878	161.9
3184.014	150.9
3187.149	158.9
3190.28	162.9
3193.409	163.9
3196.536	157.9
3199.659	173.9
3202.781	160.9
3205.9	164.9
3209.016	159.9
3212.13	162.9
3215.241	158.9
3218.35	155.9
3221.456	158.9
3224.56	153.9
3227.661	149.9
3230.76	144.9
3233.856	144.9
3236.95	139.9
3240.041	144.9
3243.13	143.9
3246.216	130.9
3249.3	127.9
3252.382	132.9
3255.46	121.9
3258.537	123.9
3261.611	124.9
3264.682	124.9
3267.751	126.9
3270.818	120.9
3273.882	124.9
3276.943	115.9
3280.002	121.9
3283.059	117.9
3286.113	108.9
3289.165	116.9
3292.214	113.9
3295.261	111.9
3298.306	118.9
3301.348	112.9
3304.387	112.9
3307.425	105.9
3310.459	101.9
3313.492	105.9
3316.521	106.9
3319.549	104.9
3322.574	105.9
3325.597	102.9
3328.617	99.9
3331.635	114.9
3334.65	117.9
3337.663	100.9
3340.674	105.9
3343.682	104.9
3346.688	100.9
3349.691	107.9
3352.692	112.9
3355.691	108.9
3358.687	102.9
3361.681	109.9
3364.673	107.9
3367.662	96.9
3370.649	98.9
3373.633	90.9
3376.615	95.9
3379.595	87.9
3382.572	86.9
3385.547	87.9
3388.52	82.9
3391.49	83.9
3394.458	80.9
3397.424	91.9
3400.387	83.9
3403.348	70.9
3406.307	69.9
3409.263	72.9
3412.217	77.9
3415.168	75.9
3418.118	71.9
3421.065	69.9
3424.009	70.9
3426.951	70.9
3429.891	64.9
3432.829	60.9
3435.764	63.9
3438.697	59.9
3441.628	48.9
3444.557	45.9
3447.483	53.9
3450.407	43.9
3453.328	41.9
3456.247	47.9
3459.164	40.9
3462.079	31.9
3464.991	27.9
3467.902	33.9
3470.809	28.9
3473.715	23.9
3476.618	16.9
3479.519	20.9
3482.418	13.9
3485.315	15.9
3488.209	7.9
3491.101	15.9
3493.99	23.9
3496.878	5.9
3499.763	2.9
3502.646	3.9
3505.527	5.9
3508.405	-0.1
3511.281	-3.1
3514.155	-7.1
3517.027	-9.1
3519.897	-3.1
3522.764	-0.1
3525.629	-7.1
3528.492	-11.1
3531.352	-24.1
3534.211	-15.1
3537.067	-25.1
3539.921	-16.1
3542.773	-25.1
3545.622	-21.1
3548.469	-23.1
3551.315	-20.1
3554.157	-24.1
3556.998	-26.1
3559.837	-30.1
3562.673	-26.1
3565.507	-29.1
3568.339	-28.1
3571.169	-36.1
3573.996	-26.1
3576.822	-34.1
3579.645	-33.1
3582.466	-29.1
3585.285	-33.1
3588.101	-36.1
3590.916	-32.1
3593.728	-36.1
3596.538	-41.1
3599.346	-40.1
3602.152	-43.1
3604.956	-39.1
3607.757	-30.1
3610.556	-31.1
3613.354	-42.1
3616.149	-41.1
3618.942	-41.1
3621.732	-45.1
3624.521	-37.1
3627.307	-41.1
3630.092	-46.1
3632.874	-47.1
3635.654	-47.1
3638.432	-49.1
3641.208	-41.1
3643.982	-44.1
3646.753	-47.1
3649.523	-46.1
3652.29	-46.1
3655.055	-48.1
3657.818	-51.1
3660.579	-50.1
3663.338	-47.1
3666.095	-54.1
3668.849	-48.1
3671.602	-48.1
3674.352	-39.1
3677.101	-53.1
3679.847	-48.1
3682.591	-56.1
3685.333	-53.1
3688.073	-62.1
3690.811	-52.1
3693.547	-58.1
3696.281	-46.1
3699.013	-51.1
3701.742	-55.1
3704.47	-50.1
3707.195	-50.1
3709.919	-53.1
3712.64	-50.1
3715.359	-55.1
3718.076	-57.1
3720.792	-50.1
3723.505	-58.1
3726.216	-53.1
3728.925	-59.1
3731.632	-58.1
3734.336	-52.1
3737.039	-52.1
3739.74	-54.1
3742.439	-55.1
3745.136	-56.1
3747.83	-54.1
3750.523	-59.1
3753.213	-59.1
3755.902	-57.1
3758.589	-53.1
3761.273	-57.1
3763.956	-59.1
3766.636	-53.1
3769.315	-52.1
3771.991	-58.1
3774.665	-63.1
3777.338	-54.1
3780.008	-57.1
3782.677	-59.1
3785.343	-60.1
3788.007	-60.1
3790.67	-60.1
3793.33	-57.1
3795.989	-61.1
3798.645	-62.1
3801.299	-51.1
3803.952	-55.1
3806.602	-58.1
3809.251	-58.1
3811.897	-66.1
3814.542	-63.1
3817.184	-65.1
3819.825	-58.1
3822.463	-59.1
3825.1	-52.1
3827.735	-62.1
3830.367	-58.1
3832.998	-61.1
3835.627	-62.1
3838.253	-57.1
3840.878	-55.1
3843.501	-53.1
3846.122	-61.1
3848.741	-62.1
3851.358	-59.1
3853.973	-55.1
3856.586	-55.1
3859.197	-60.1
3861.806	-55.1
3864.414	-59.1
3867.019	-59.1
3869.622	-54.1
3872.224	-51.1
3874.823	-41.1
3877.421	-36.1
3880.016	-26.1
3882.61	-8.1
3885.202	-7.1
3887.792	-9.1
3890.38	-33.1
3892.966	-44.1
3895.55	-50.1
3898.132	-54.1
3900.713	-58.1
3903.291	-59.1
3905.868	-55.1
3908.442	-62.1
3911.015	-60.1
3913.586	-65.1
3916.155	-60.1
3918.722	-56.1
3921.287	-66.1
3923.85	-55.1
3926.411	-63.1
3928.971	-65.1
3931.528	-61.1
3934.084	-57.1
3936.638	-61.1
3939.19	-65.1
3941.74	-58.1
3944.288	-60.1
3946.834	-59.1
3949.378	-60.1
3951.921	-62.1
3954.462	-56.1
3957	-53.1
3959.537	-50.1
3962.072	-53.1
3964.606	-57.1
3967.137	-62.1
3969.667	-61.1
3972.194	-57.1
3974.72	-54.1
3977.244	-53.1
3979.766	-57.1
3982.286	-62.1
3984.805	-68.1
3987.321	-58.1
3989.836	-53.1
3992.349	-60.1
3994.86	-60.1
3997.369	-62.1
3999.877	-61.1
4002.382	-60.1
4004.886	-59.1
4007.388	-54.1
4009.888	-50.1
4012.386	-56.1
4014.883	-55.1
4017.377	-55.1
4019.87	-59.1
4022.361	-67.1
4024.85	-57.1
4027.338	-64.1
4029.823	-61.1
4032.307	-58.1
4034.789	-55.1
4037.269	-58.1
4039.747	-55.1
4042.224	-61.1
4044.699	-59.1
4047.172	-62.1
4049.643	-59.1
4052.112	-62.1
4054.58	-57.1
4057.046	-59.1
4059.51	-60.1
4061.972	-61.1
4064.432	-60.1
4066.891	-51.1
4069.348	-58.1
4071.803	-54.1
4074.256	-54.1
4076.708	-57.1
4079.158	-63.1
4081.606	-61.1
4084.052	-56.1
4086.497	-57.1
4088.939	-59.1
4091.38	-59.1
4093.819	-60.1
4096.257	-60.1
4098.693	-65.1
4101.127	-56.1
4103.559	-64.1
4105.989	9.9
4108.418	4.9
4110.845	1.9
4113.27	-0.1
4115.694	4.9
4118.115	10.9
4120.535	-62.1
4122.954	-56.1
4125.37	-60.1
4127.785	-56.1
4130.198	-60.1
4132.609	-62.1
4135.019	-61.1
4137.427	-64.1
4139.833	-59.1
4142.237	-61.1
