Data from 2018-3-7_conc=3_n=7_RamanShift_02.txt Node
Date: Wed Mar 07 11:35:22 IST 2018
User: aro
Spectrometer: QEPB0276
Trigger mode: 0
Integration Time (sec): 3.000000E1
Scans to average: 1
Electric dark correction enabled: true
Nonlinearity correction enabled: false
Boxcar width: 0
XAxis mode: Raman Shifts
Number of Pixels in Spectrum: 1044
>>>>>Begin Spectral Data<<<<<
160.701	17.1
166.742	26.1
172.777	55.1
178.805	132.1
184.826	345.1
190.841	723.1
196.849	1198.1
202.85	1541.1
208.845	1689.1
214.833	1706.1
220.815	1673.1
226.789	1676.1
232.758	1675.1
238.719	1698.1
244.674	1662.1
250.623	1676.1
256.565	1649.1
262.5	1616.1
268.429	1607.1
274.351	1616.1
280.267	1603.1
286.176	1596.1
292.079	1602.1
297.975	1609.1
303.865	1585.1
309.748	1594.1
315.625	1609.1
321.495	1584.1
327.359	1604.1
333.217	1604.1
339.068	1601.1
344.912	1604.1
350.751	1621.1
356.583	1600.1
362.408	1601.1
368.227	1630.1
374.04	1624.1
379.847	1651.1
385.647	1644.1
391.44	1651.1
397.228	1664.1
403.009	1668.1
408.784	1683.1
414.553	1692.1
420.315	1682.1
426.071	1688.1
431.821	1676.1
437.565	1690.1
443.302	1694.1
449.033	1678.1
454.758	1675.1
460.477	1665.1
466.189	1659.1
471.896	1637.1
477.596	1623.1
483.29	1611.1
488.978	1598.1
494.66	1598.1
500.335	1562.1
506.005	1517.1
511.668	1450.1
517.325	1393.1
522.977	1332.1
528.622	1311.1
534.261	1270.1
539.894	1254.1
545.521	1255.1
551.141	1222.1
556.756	1230.1
562.365	1206.1
567.968	1214.1
573.565	1192.1
579.155	1190.1
584.74	1192.1
590.319	1173.1
595.892	1197.1
601.459	1179.1
607.02	1156.1
612.575	1153.1
618.124	1141.1
623.667	1141.1
629.204	1120.1
634.735	1113.1
640.261	1114.1
645.781	1085.1
651.294	1089.1
656.802	1076.1
662.304	1074.1
667.8	1073.1
673.29	1073.1
678.775	1069.1
684.254	1082.1
689.726	1056.1
695.193	1063.1
700.655	1047.1
706.11	1035.1
711.56	1035.1
717.004	1024.1
722.442	1019.1
727.874	1007.1
733.301	1024.1
738.722	1008.1
744.137	1011.1
749.547	1025.1
754.951	1005.1
760.349	1010.1
765.741	1021.1
771.128	1020.1
776.509	1028.1
781.885	1032.1
787.254	1047.1
792.618	1046.1
797.977	1041.1
803.33	1031.1
808.677	1036.1
814.019	1021.1
819.355	1007.1
824.686	1004.1
830.011	1003.1
835.33	997.1
840.644	993.1
845.952	983.1
851.255	995.1
856.552	977.1
861.844	952.1
867.13	960.1
872.41	948.1
877.686	947.1
882.955	935.1
888.219	950.1
893.478	932.1
898.731	901.1
903.979	884.1
909.221	891.1
914.458	893.1
919.69	892.1
924.916	888.1
930.136	901.1
935.351	876.1
940.561	888.1
945.766	891.1
950.965	889.1
956.158	883.1
961.347	864.1
966.529	854.1
971.707	832.1
976.879	826.1
982.046	813.1
987.208	828.1
992.364	812.1
997.515	807.1
1002.66	823.1
1007.801	826.1
1012.936	847.1
1018.066	853.1
1023.19	835.1
1028.309	839.1
1033.423	838.1
1038.532	825.1
1043.636	838.1
1048.734	833.1
1053.827	823.1
1058.915	805.1
1063.998	799.1
1069.075	775.1
1074.147	812.1
1079.214	796.1
1084.276	796.1
1089.333	810.1
1094.385	799.1
1099.431	805.1
1104.472	812.1
1109.509	794.1
1114.54	782.1
1119.565	767.1
1124.586	771.1
1129.602	747.1
1134.613	746.1
1139.618	734.1
1144.619	735.1
1149.614	725.1
1154.604	747.1
1159.589	748.1
1164.57	752.1
1169.545	748.1
1174.515	744.1
1179.48	740.1
1184.44	732.1
1189.395	736.1
1194.345	728.1
1199.29	708.1
1204.23	722.1
1209.165	729.1
1214.095	738.1
1219.021	727.1
1223.941	722.1
1228.856	739.1
1233.766	735.1
1238.672	743.1
1243.572	741.1
1248.467	741.1
1253.358	720.1
1258.244	721.1
1263.124	698.1
1268	687.1
1272.871	677.1
1277.737	672.1
1282.599	672.1
1287.455	662.1
1292.306	671.1
1297.153	664.1
1301.995	670.1
1306.832	677.1
1311.664	680.1
1316.491	682.1
1321.314	681.1
1326.132	685.1
1330.945	676.1
1335.753	659.1
1340.556	629.1
1345.354	642.1
1350.148	630.1
1354.937	608.1
1359.722	584.1
1364.501	573.1
1369.276	559.1
1374.046	564.1
1378.811	559.1
1383.572	554.1
1388.327	552.1
1393.079	537.1
1397.825	563.1
1402.567	562.1
1407.304	567.1
1412.036	570.1
1416.764	552.1
1421.487	562.1
1426.205	561.1
1430.919	557.1
1435.628	565.1
1440.333	579.1
1445.032	567.1
1449.727	584.1
1454.418	575.1
1459.104	574.1
1463.785	567.1
1468.462	566.1
1473.134	552.1
1477.802	526.1
1482.465	518.1
1487.123	508.1
1491.777	491.1
1496.426	498.1
1501.071	481.1
1505.711	486.1
1510.347	474.1
1514.978	469.1
1519.604	478.1
1524.226	479.1
1528.844	467.1
1533.457	469.1
1538.065	457.1
1542.669	469.1
1547.269	476.1
1551.864	484.1
1556.454	474.1
1561.041	481.1
1565.622	491.1
1570.199	487.1
1574.772	489.1
1579.34	500.1
1583.904	492.1
1588.464	520.1
1593.019	504.1
1597.569	509.1
1602.115	501.1
1606.657	502.1
1611.195	498.1
1615.728	509.1
1620.256	508.1
1624.78	505.1
1629.3	511.1
1633.816	499.1
1638.327	517.1
1642.834	498.1
1647.336	509.1
1651.834	500.1
1656.328	502.1
1660.817	501.1
1665.302	485.1
1669.783	472.1
1674.259	467.1
1678.732	451.1
1683.199	449.1
1687.663	427.1
1692.122	404.1
1696.577	392.1
1701.028	371.1
1705.474	349.1
1709.917	357.1
1714.355	340.1
1718.788	336.1
1723.218	341.1
1727.643	332.1
1732.064	341.1
1736.481	334.1
1740.893	328.1
1745.301	323.1
1749.705	318.1
1754.105	301.1
1758.501	299.1
1762.893	296.1
1767.28	281.1
1771.663	286.1
1776.042	291.1
1780.417	278.1
1784.787	275.1
1789.154	271.1
1793.516	256.1
1797.874	251.1
1802.228	255.1
1806.578	245.1
1810.924	242.1
1815.266	243.1
1819.603	245.1
1823.937	251.1
1828.266	253.1
1832.591	258.1
1836.913	252.1
1841.23	253.1
1845.543	245.1
1849.852	265.1
1854.156	257.1
1858.457	252.1
1862.754	254.1
1867.047	257.1
1871.335	255.1
1875.62	255.1
1879.9	247.1
1884.177	249.1
1888.449	241.1
1892.718	250.1
1896.982	236.1
1901.243	223.1
1905.499	229.1
1909.752	222.1
1914	223.1
1918.245	217.1
1922.485	211.1
1926.722	209.1
1930.954	210.1
1935.183	201.1
1939.408	203.1
1943.628	201.1
1947.845	202.1
1952.058	198.1
1956.267	196.1
1960.472	199.1
1964.673	191.1
1968.87	189.1
1973.063	196.1
1977.252	198.1
1981.438	197.1
1985.619	192.1
1989.797	194.1
1993.971	194.1
1998.14	199.1
2002.306	189.1
2006.469	205.1
2010.627	196.1
2014.781	191.1
2018.932	191.1
2023.078	191.1
2027.221	190.1
2031.36	189.1
2035.495	182.1
2039.627	182.1
2043.754	182.1
2047.878	179.1
2051.998	176.1
2056.114	174.1
2060.226	175.1
2064.334	173.1
2068.439	169.1
2072.54	166.1
2076.637	181.1
2080.73	174.1
2084.82	170.1
2088.906	156.1
2092.988	156.1
2097.066	162.1
2101.14	163.1
2105.211	160.1
2109.278	161.1
2113.342	153.1
2117.401	149.1
2121.457	155.1
2125.509	149.1
2129.558	145.1
2133.602	149.1
2137.643	149.1
2141.681	145.1
2145.714	154.1
2149.744	148.1
2153.77	150.1
2157.793	146.1
2161.812	148.1
2165.827	147.1
2169.838	140.1
2173.846	138.1
2177.851	134.1
2181.851	144.1
2185.848	137.1
2189.841	141.1
2193.831	136.1
2197.817	140.1
2201.799	136.1
2205.778	130.1
2209.753	141.1
2213.725	140.1
2217.693	138.1
2221.657	131.1
2225.618	127.1
2229.575	129.1
2233.529	125.1
2237.479	127.1
2241.425	120.1
2245.368	127.1
2249.307	123.1
2253.243	117.1
2257.175	120.1
2261.104	109.1
2265.029	115.1
2268.95	119.1
2272.868	112.1
2276.783	111.1
2280.694	110.1
2284.601	105.1
2288.505	113.1
2292.405	105.1
2296.302	112.1
2300.195	103.1
2304.085	100.1
2307.971	100.1
2311.854	91.1
2315.734	104.1
2319.609	109.1
2323.482	102.1
2327.351	105.1
2331.216	114.1
2335.078	125.1
2338.937	114.1
2342.792	105.1
2346.643	105.1
2350.492	100.1
2354.336	93.1
2358.178	100.1
2362.015	96.1
2365.85	92.1
2369.681	97.1
2373.508	103.1
2377.333	100.1
2381.153	97.1
2384.971	99.1
2388.785	86.1
2392.595	93.1
2396.402	92.1
2400.206	94.1
2404.007	91.1
2407.804	94.1
2411.597	85.1
2415.388	86.1
2419.174	94.1
2422.958	91.1
2426.738	94.1
2430.515	91.1
2434.289	90.1
2438.059	87.1
2441.825	81.1
2445.589	95.1
2449.349	83.1
2453.106	85.1
2456.859	90.1
2460.61	84.1
2464.356	79.1
2468.1	81.1
2471.84	73.1
2475.577	66.1
2479.311	76.1
2483.041	73.1
2486.768	70.1
2490.492	77.1
2494.213	73.1
2497.93	68.1
2501.644	76.1
2505.355	67.1
2509.062	67.1
2512.766	69.1
2516.467	66.1
2520.165	71.1
2523.859	67.1
2527.551	62.1
2531.239	63.1
2534.923	57.1
2538.605	53.1
2542.283	52.1
2545.958	56.1
2549.63	58.1
2553.299	57.1
2556.964	55.1
2560.626	51.1
2564.285	58.1
2567.941	53.1
2571.594	56.1
2575.243	50.1
2578.89	56.1
2582.533	57.1
2586.173	49.1
2589.809	49.1
2593.443	51.1
2597.073	56.1
2600.701	47.1
2604.325	39.1
2607.946	39.1
2611.564	46.1
2615.178	46.1
2618.79	44.1
2622.398	48.1
2626.004	46.1
2629.606	41.1
2633.205	45.1
2636.801	42.1
2640.394	53.1
2643.983	39.1
2647.57	42.1
2651.153	33.1
2654.734	38.1
2658.311	40.1
2661.885	34.1
2665.456	47.1
2669.025	40.1
2672.589	37.1
2676.151	36.1
2679.71	33.1
2683.266	33.1
2686.819	43.1
2690.368	35.1
2693.915	38.1
2697.458	27.1
2700.999	35.1
2704.536	36.1
2708.071	33.1
2711.602	27.1
2715.13	22.1
2718.656	21.1
2722.178	21.1
2725.697	19.1
2729.214	22.1
2732.727	28.1
2736.237	30.1
2739.744	23.1
2743.249	24.1
2746.75	25.1
2750.248	16.1
2753.743	18.1
2757.236	14.1
2760.725	21.1
2764.211	18.1
2767.695	12.1
2771.175	12.1
2774.652	15.1
2778.127	18.1
2781.598	14.1
2785.067	12.1
2788.532	17.1
2791.995	13.1
2795.455	14.1
2798.911	15.1
2802.365	18.1
2805.816	21.1
2809.264	15.1
2812.709	15.1
2816.151	17.1
2819.59	27.1
2823.026	28.1
2826.46	18.1
2829.89	15.1
2833.318	9.1
2836.742	19.1
2840.164	15.1
2843.583	16.1
2846.999	20.1
2850.412	16.1
2853.822	17.1
2857.229	26.1
2860.634	22.1
2864.035	19.1
2867.434	20.1
2870.83	25.1
2874.223	20.1
2877.613	27.1
2881	24.1
2884.385	21.1
2887.766	24.1
2891.145	22.1
2894.521	32.1
2897.894	23.1
2901.264	28.1
2904.631	26.1
2907.996	32.1
2911.358	30.1
2914.717	25.1
2918.073	26.1
2921.426	28.1
2924.777	34.1
2928.124	30.1
2931.469	35.1
2934.811	42.1
2938.15	34.1
2941.487	45.1
2944.821	40.1
2948.152	48.1
2951.48	32.1
2954.805	46.1
2958.128	40.1
2961.447	43.1
2964.765	39.1
2968.079	32.1
2971.39	37.1
2974.699	28.1
2978.005	39.1
2981.308	28.1
2984.609	32.1
2987.907	31.1
2991.202	35.1
2994.494	35.1
2997.784	29.1
3001.07	35.1
3004.355	40.1
3007.636	40.1
3010.915	44.1
3014.191	37.1
3017.464	43.1
3020.734	48.1
3024.002	43.1
3027.267	45.1
3030.53	46.1
3033.789	47.1
3037.046	42.1
3040.301	46.1
3043.552	49.1
3046.801	53.1
3050.048	51.1
3053.291	56.1
3056.532	58.1
3059.771	57.1
3063.006	63.1
3066.239	67.1
3069.469	76.1
3072.697	72.1
3075.922	84.1
3079.144	72.1
3082.364	80.1
3085.581	77.1
3088.795	79.1
3092.007	84.1
3095.216	82.1
3098.423	84.1
3101.627	77.1
3104.828	93.1
3108.026	97.1
3111.222	97.1
3114.416	104.1
3117.607	101.1
3120.795	104.1
3123.98	101.1
3127.163	119.1
3130.344	118.1
3133.521	112.1
3136.696	117.1
3139.869	121.1
3143.039	119.1
3146.206	132.1
3149.371	121.1
3152.533	136.1
3155.693	129.1
3158.85	127.1
3162.005	137.1
3165.157	133.1
3168.306	132.1
3171.453	137.1
3174.597	133.1
3177.739	139.1
3180.878	134.1
3184.014	131.1
3187.149	129.1
3190.28	133.1
3193.409	139.1
3196.536	132.1
3199.659	142.1
3202.781	137.1
3205.9	135.1
3209.016	133.1
3212.13	139.1
3215.241	138.1
3218.35	133.1
3221.456	134.1
3224.56	128.1
3227.661	122.1
3230.76	123.1
3233.856	120.1
3236.95	114.1
3240.041	122.1
3243.13	114.1
3246.216	114.1
3249.3	104.1
3252.382	101.1
3255.46	114.1
3258.537	105.1
3261.611	105.1
3264.682	111.1
3267.751	114.1
3270.818	95.1
3273.882	106.1
3276.943	99.1
3280.002	96.1
3283.059	106.1
3286.113	92.1
3289.165	91.1
3292.214	94.1
3295.261	92.1
3298.306	100.1
3301.348	95.1
3304.387	96.1
3307.425	87.1
3310.459	88.1
3313.492	92.1
3316.521	88.1
3319.549	93.1
3322.574	87.1
3325.597	79.1
3328.617	89.1
3331.635	92.1
3334.65	91.1
3337.663	76.1
3340.674	89.1
3343.682	80.1
3346.688	82.1
3349.691	85.1
3352.692	87.1
3355.691	88.1
3358.687	88.1
3361.681	89.1
3364.673	89.1
3367.662	85.1
3370.649	88.1
3373.633	76.1
3376.615	80.1
3379.595	74.1
3382.572	73.1
3385.547	72.1
3388.52	71.1
3391.49	66.1
3394.458	63.1
3397.424	67.1
3400.387	68.1
3403.348	58.1
3406.307	60.1
3409.263	67.1
3412.217	64.1
3415.168	62.1
3418.118	56.1
3421.065	52.1
3424.009	52.1
3426.951	56.1
3429.891	55.1
3432.829	46.1
3435.764	54.1
3438.697	47.1
3441.628	40.1
3444.557	45.1
3447.483	44.1
3450.407	35.1
3453.328	34.1
3456.247	31.1
3459.164	33.1
3462.079	30.1
3464.991	28.1
3467.902	22.1
3470.809	22.1
3473.715	25.1
3476.618	18.1
3479.519	13.1
3482.418	14.1
3485.315	12.1
3488.209	5.1
3491.101	-0.9
3493.99	10.1
3496.878	3.1
3499.763	-0.9
3502.646	-0.9
3505.527	4.1
3508.405	0.1
3511.281	4.1
3514.155	-5.9
3517.027	-2.9
3519.897	-3.9
3522.764	-3.9
3525.629	-3.9
3528.492	-10.9
3531.352	-13.9
3534.211	-16.9
3537.067	-14.9
3539.921	-12.9
3542.773	-27.9
3545.622	-14.9
3548.469	-16.9
3551.315	-19.9
3554.157	-22.9
3556.998	-20.9
3559.837	-24.9
3562.673	-22.9
3565.507	-23.9
3568.339	-21.9
3571.169	-28.9
3573.996	-19.9
3576.822	-34.9
3579.645	-32.9
3582.466	-28.9
3585.285	-35.9
3588.101	-37.9
3590.916	-26.9
3593.728	-33.9
3596.538	-30.9
3599.346	-36.9
3602.152	-34.9
3604.956	-30.9
3607.757	-26.9
3610.556	-28.9
3613.354	-38.9
3616.149	-40.9
3618.942	-37.9
3621.732	-35.9
3624.521	-35.9
3627.307	-35.9
3630.092	-41.9
3632.874	-40.9
3635.654	-39.9
3638.432	-45.9
3641.208	-40.9
3643.982	-40.9
3646.753	-41.9
3649.523	-39.9
3652.29	-43.9
3655.055	-37.9
3657.818	-46.9
3660.579	-40.9
3663.338	-41.9
3666.095	-47.9
3668.849	-41.9
3671.602	-46.9
3674.352	-40.9
3677.101	-46.9
3679.847	-46.9
3682.591	-48.9
3685.333	-45.9
3688.073	-54.9
3690.811	-47.9
3693.547	-51.9
3696.281	-43.9
3699.013	-45.9
3701.742	-49.9
3704.47	-48.9
3707.195	-46.9
3709.919	-48.9
3712.64	-41.9
3715.359	-43.9
3718.076	-50.9
3720.792	-51.9
3723.505	-49.9
3726.216	-47.9
3728.925	-49.9
3731.632	-50.9
3734.336	-52.9
3737.039	-47.9
3739.74	-48.9
3742.439	-54.9
3745.136	-53.9
3747.83	-43.9
3750.523	-52.9
3753.213	-63.9
3755.902	-48.9
3758.589	-53.9
3761.273	-49.9
3763.956	-52.9
3766.636	-51.9
3769.315	-49.9
3771.991	-51.9
3774.665	-54.9
3777.338	-48.9
3780.008	-52.9
3782.677	-60.9
3785.343	-56.9
3788.007	-52.9
3790.67	-50.9
3793.33	-49.9
3795.989	-49.9
3798.645	-50.9
3801.299	-48.9
3803.952	-52.9
3806.602	-51.9
3809.251	-54.9
3811.897	-55.9
3814.542	-53.9
3817.184	-50.9
3819.825	-45.9
3822.463	-55.9
3825.1	-55.9
3827.735	-53.9
3830.367	-56.9
3832.998	-53.9
3835.627	-50.9
3838.253	-45.9
3840.878	-47.9
3843.501	-46.9
3846.122	-49.9
3848.741	-52.9
3851.358	-51.9
3853.973	-55.9
3856.586	-52.9
3859.197	-54.9
3861.806	-51.9
3864.414	-57.9
3867.019	-54.9
3869.622	-45.9
3872.224	-38.9
3874.823	-28.9
3877.421	-24.9
3880.016	-10.9
3882.61	11.1
3885.202	15.1
3887.792	10.1
3890.38	-14.9
3892.966	-38.9
3895.55	-46.9
3898.132	-48.9
3900.713	-52.9
3903.291	-53.9
3905.868	-52.9
3908.442	-48.9
3911.015	-51.9
3913.586	-57.9
3916.155	-56.9
3918.722	-55.9
3921.287	-52.9
3923.85	-45.9
3926.411	-55.9
3928.971	-62.9
3931.528	-52.9
3934.084	-52.9
3936.638	-53.9
3939.19	-55.9
3941.74	-55.9
3944.288	-56.9
3946.834	-54.9
3949.378	-55.9
3951.921	-58.9
3954.462	-56.9
3957	-49.9
3959.537	-43.9
3962.072	-48.9
3964.606	-49.9
3967.137	-47.9
3969.667	-52.9
3972.194	-54.9
3974.72	-46.9
3977.244	-45.9
3979.766	-55.9
3982.286	-54.9
3984.805	-65.9
3987.321	-47.9
3989.836	-49.9
3992.349	-53.9
3994.86	-53.9
3997.369	-54.9
3999.877	-53.9
4002.382	-51.9
4004.886	-50.9
4007.388	-55.9
4009.888	-48.9
4012.386	-56.9
4014.883	-49.9
4017.377	-49.9
4019.87	-49.9
4022.361	-58.9
4024.85	-53.9
4027.338	-52.9
4029.823	-57.9
4032.307	-56.9
4034.789	-50.9
4037.269	-52.9
4039.747	-51.9
4042.224	-54.9
4044.699	-56.9
4047.172	-57.9
4049.643	-53.9
4052.112	-52.9
4054.58	-50.9
4057.046	-51.9
4059.51	-52.9
4061.972	-58.9
4064.432	-53.9
4066.891	-50.9
4069.348	-48.9
4071.803	-49.9
4074.256	-52.9
4076.708	-52.9
4079.158	-59.9
4081.606	-54.9
4084.052	-53.9
4086.497	-44.9
4088.939	-49.9
4091.38	-58.9
4093.819	-57.9
4096.257	-53.9
4098.693	-53.9
4101.127	-50.9
4103.559	-55.9
4105.989	31.1
4108.418	23.1
4110.845	24.1
4113.27	19.1
4115.694	22.1
4118.115	23.1
4120.535	-56.9
4122.954	-47.9
4125.37	-53.9
4127.785	-46.9
4130.198	-52.9
4132.609	-58.9
4135.019	-55.9
4137.427	-60.9
4139.833	-56.9
4142.237	-56.9
