Data from 2018-3-7_conc=5_n=10_RamanShift_02.txt Node
Date: Wed Mar 07 12:53:52 IST 2018
User: aro
Spectrometer: QEPB0276
Trigger mode: 0
Integration Time (sec): 3.000000E1
Scans to average: 1
Electric dark correction enabled: true
Nonlinearity correction enabled: false
Boxcar width: 0
XAxis mode: Raman Shifts
Number of Pixels in Spectrum: 1044
>>>>>Begin Spectral Data<<<<<
160.701	-5.9
166.742	21.1
172.777	80.1
178.805	264.1
184.826	696.1
190.841	1538.1
196.849	2582.1
202.85	3432.1
208.845	3745.1
214.833	3708.1
220.815	3658.1
226.789	3639.1
232.758	3646.1
238.719	3617.1
244.674	3612.1
250.623	3542.1
256.565	3530.1
262.5	3433.1
268.429	3390.1
274.351	3358.1
280.267	3309.1
286.176	3279.1
292.079	3286.1
297.975	3264.1
303.865	3238.1
309.748	3223.1
315.625	3218.1
321.495	3201.1
327.359	3189.1
333.217	3211.1
339.068	3222.1
344.912	3196.1
350.751	3189.1
356.583	3200.1
362.408	3197.1
368.227	3177.1
374.04	3194.1
379.847	3221.1
385.647	3211.1
391.44	3237.1
397.228	3254.1
403.009	3256.1
408.784	3265.1
414.553	3282.1
420.315	3313.1
426.071	3285.1
431.821	3270.1
437.565	3261.1
443.302	3260.1
449.033	3257.1
454.758	3259.1
460.477	3226.1
466.189	3215.1
471.896	3227.1
477.596	3205.1
483.29	3200.1
488.978	3196.1
494.66	3174.1
500.335	3157.1
506.005	3093.1
511.668	3007.1
517.325	2951.1
522.977	2905.1
528.622	2901.1
534.261	2861.1
539.894	2829.1
545.521	2834.1
551.141	2821.1
556.756	2797.1
562.365	2794.1
567.968	2777.1
573.565	2740.1
579.155	2751.1
584.74	2728.1
590.319	2702.1
595.892	2682.1
601.459	2687.1
607.02	2696.1
612.575	2661.1
618.124	2631.1
623.667	2613.1
629.204	2582.1
634.735	2572.1
640.261	2560.1
645.781	2579.1
651.294	2553.1
656.802	2536.1
662.304	2539.1
667.8	2546.1
673.29	2548.1
678.775	2528.1
684.254	2516.1
689.726	2503.1
695.193	2483.1
700.655	2463.1
706.11	2461.1
711.56	2439.1
717.004	2423.1
722.442	2399.1
727.874	2405.1
733.301	2423.1
738.722	2388.1
744.137	2393.1
749.547	2397.1
754.951	2391.1
760.349	2401.1
765.741	2389.1
771.128	2404.1
776.509	2413.1
781.885	2429.1
787.254	2422.1
792.618	2384.1
797.977	2387.1
803.33	2364.1
808.677	2376.1
814.019	2337.1
819.355	2333.1
824.686	2317.1
830.011	2325.1
835.33	2308.1
840.644	2323.1
845.952	2296.1
851.255	2319.1
856.552	2332.1
861.844	2292.1
867.13	2265.1
872.41	2291.1
877.686	2266.1
882.955	2250.1
888.219	2232.1
893.478	2204.1
898.731	2172.1
903.979	2153.1
909.221	2122.1
914.458	2111.1
919.69	2132.1
924.916	2126.1
930.136	2142.1
935.351	2133.1
940.561	2144.1
945.766	2168.1
950.965	2129.1
956.158	2104.1
961.347	2089.1
966.529	2064.1
971.707	2039.1
976.879	2018.1
982.046	1987.1
987.208	1990.1
992.364	1959.1
997.515	1974.1
1002.66	2008.1
1007.801	2022.1
1012.936	2034.1
1018.066	2032.1
1023.19	2031.1
1028.309	2043.1
1033.423	2014.1
1038.532	2013.1
1043.636	1995.1
1048.734	1987.1
1053.827	1947.1
1058.915	1929.1
1063.998	1929.1
1069.075	1896.1
1074.147	1900.1
1079.214	1920.1
1084.276	1918.1
1089.333	1935.1
1094.385	1953.1
1099.431	1939.1
1104.472	1939.1
1109.509	1920.1
1114.54	1889.1
1119.565	1877.1
1124.586	1852.1
1129.602	1825.1
1134.613	1829.1
1139.618	1811.1
1144.619	1790.1
1149.614	1804.1
1154.604	1806.1
1159.589	1813.1
1164.57	1819.1
1169.545	1815.1
1174.515	1823.1
1179.48	1812.1
1184.44	1787.1
1189.395	1780.1
1194.345	1755.1
1199.29	1756.1
1204.23	1768.1
1209.165	1741.1
1214.095	1770.1
1219.021	1794.1
1223.941	1791.1
1228.856	1785.1
1233.766	1803.1
1238.672	1797.1
1243.572	1797.1
1248.467	1805.1
1253.358	1760.1
1258.244	1762.1
1263.124	1699.1
1268	1695.1
1272.871	1662.1
1277.737	1653.1
1282.599	1650.1
1287.455	1636.1
1292.306	1638.1
1297.153	1661.1
1301.995	1681.1
1306.832	1671.1
1311.664	1688.1
1316.491	1699.1
1321.314	1686.1
1326.132	1685.1
1330.945	1646.1
1335.753	1621.1
1340.556	1571.1
1345.354	1586.1
1350.148	1510.1
1354.937	1482.1
1359.722	1437.1
1364.501	1373.1
1369.276	1359.1
1374.046	1305.1
1378.811	1306.1
1383.572	1327.1
1388.327	1331.1
1393.079	1343.1
1397.825	1353.1
1402.567	1371.1
1407.304	1383.1
1412.036	1385.1
1416.764	1395.1
1421.487	1380.1
1426.205	1392.1
1430.919	1393.1
1435.628	1400.1
1440.333	1424.1
1445.032	1392.1
1449.727	1437.1
1454.418	1438.1
1459.104	1418.1
1463.785	1404.1
1468.462	1356.1
1473.134	1330.1
1477.802	1286.1
1482.465	1248.1
1487.123	1218.1
1491.777	1188.1
1496.426	1182.1
1501.071	1149.1
1505.711	1133.1
1510.347	1116.1
1514.978	1105.1
1519.604	1112.1
1524.226	1115.1
1528.844	1111.1
1533.457	1100.1
1538.065	1109.1
1542.669	1110.1
1547.269	1113.1
1551.864	1132.1
1556.454	1122.1
1561.041	1162.1
1565.622	1163.1
1570.199	1189.1
1574.772	1184.1
1579.34	1224.1
1583.904	1216.1
1588.464	1248.1
1593.019	1267.1
1597.569	1257.1
1602.115	1235.1
1606.657	1244.1
1611.195	1232.1
1615.728	1246.1
1620.256	1240.1
1624.78	1235.1
1629.3	1242.1
1633.816	1241.1
1638.327	1255.1
1642.834	1244.1
1647.336	1235.1
1651.834	1243.1
1656.328	1239.1
1660.817	1230.1
1665.302	1192.1
1669.783	1168.1
1674.259	1131.1
1678.732	1102.1
1683.199	1064.1
1687.663	1018.1
1692.122	941.1
1696.577	889.1
1701.028	831.1
1705.474	780.1
1709.917	763.1
1714.355	755.1
1718.788	769.1
1723.218	786.1
1727.643	784.1
1732.064	800.1
1736.481	769.1
1740.893	769.1
1745.301	765.1
1749.705	746.1
1754.105	733.1
1758.501	707.1
1762.893	691.1
1767.28	672.1
1771.663	672.1
1776.042	662.1
1780.417	634.1
1784.787	624.1
1789.154	603.1
1793.516	581.1
1797.874	567.1
1802.228	542.1
1806.578	549.1
1810.924	552.1
1815.266	557.1
1819.603	572.1
1823.937	574.1
1828.266	581.1
1832.591	590.1
1836.913	595.1
1841.23	593.1
1845.543	602.1
1849.852	593.1
1854.156	610.1
1858.457	608.1
1862.754	606.1
1867.047	596.1
1871.335	595.1
1875.62	594.1
1879.9	588.1
1884.177	573.1
1888.449	565.1
1892.718	570.1
1896.982	550.1
1901.243	525.1
1905.499	528.1
1909.752	500.1
1914	487.1
1918.245	481.1
1922.485	469.1
1926.722	458.1
1930.954	451.1
1935.183	444.1
1939.408	444.1
1943.628	435.1
1947.845	430.1
1952.058	432.1
1956.267	421.1
1960.472	429.1
1964.673	421.1
1968.87	426.1
1973.063	428.1
1977.252	442.1
1981.438	429.1
1985.619	437.1
1989.797	442.1
1993.971	451.1
1998.14	458.1
2002.306	463.1
2006.469	474.1
2010.627	462.1
2014.781	463.1
2018.932	455.1
2023.078	465.1
2027.221	449.1
2031.36	459.1
2035.495	449.1
2039.627	429.1
2043.754	433.1
2047.878	428.1
2051.998	419.1
2056.114	416.1
2060.226	407.1
2064.334	402.1
2068.439	397.1
2072.54	394.1
2076.637	393.1
2080.73	385.1
2084.82	388.1
2088.906	375.1
2092.988	374.1
2097.066	357.1
2101.14	371.1
2105.211	363.1
2109.278	341.1
2113.342	340.1
2117.401	343.1
2121.457	348.1
2125.509	336.1
2129.558	348.1
2133.602	339.1
2137.643	349.1
2141.681	350.1
2145.714	353.1
2149.744	356.1
2153.77	359.1
2157.793	356.1
2161.812	364.1
2165.827	363.1
2169.838	355.1
2173.846	351.1
2177.851	346.1
2181.851	341.1
2185.848	348.1
2189.841	328.1
2193.831	337.1
2197.817	335.1
2201.799	344.1
2205.778	334.1
2209.753	340.1
2213.725	342.1
2217.693	343.1
2221.657	339.1
2225.618	328.1
2229.575	329.1
2233.529	328.1
2237.479	328.1
2241.425	321.1
2245.368	322.1
2249.307	319.1
2253.243	301.1
2257.175	308.1
2261.104	299.1
2265.029	298.1
2268.95	298.1
2272.868	297.1
2276.783	283.1
2280.694	292.1
2284.601	285.1
2288.505	283.1
2292.405	286.1
2296.302	284.1
2300.195	278.1
2304.085	266.1
2307.971	267.1
2311.854	265.1
2315.734	261.1
2319.609	263.1
2323.482	263.1
2327.351	268.1
2331.216	269.1
2335.078	282.1
2338.937	274.1
2342.792	258.1
2346.643	269.1
2350.492	275.1
2354.336	264.1
2358.178	260.1
2362.015	270.1
2365.85	262.1
2369.681	269.1
2373.508	279.1
2377.333	272.1
2381.153	268.1
2384.971	271.1
2388.785	262.1
2392.595	263.1
2396.402	270.1
2400.206	264.1
2404.007	265.1
2407.804	263.1
2411.597	258.1
2415.388	260.1
2419.174	273.1
2422.958	256.1
2426.738	269.1
2430.515	264.1
2434.289	258.1
2438.059	252.1
2441.825	250.1
2445.589	247.1
2449.349	254.1
2453.106	249.1
2456.859	237.1
2460.61	235.1
2464.356	232.1
2468.1	239.1
2471.84	222.1
2475.577	234.1
2479.311	227.1
2483.041	222.1
2486.768	226.1
2490.492	220.1
2494.213	216.1
2497.93	221.1
2501.644	224.1
2505.355	201.1
2509.062	210.1
2512.766	209.1
2516.467	205.1
2520.165	192.1
2523.859	207.1
2527.551	180.1
2531.239	184.1
2534.923	184.1
2538.605	177.1
2542.283	170.1
2545.958	179.1
2549.63	165.1
2553.299	170.1
2556.964	157.1
2560.626	171.1
2564.285	162.1
2567.941	164.1
2571.594	155.1
2575.243	157.1
2578.89	156.1
2582.533	154.1
2586.173	161.1
2589.809	152.1
2593.443	152.1
2597.073	145.1
2600.701	147.1
2604.325	137.1
2607.946	135.1
2611.564	148.1
2615.178	145.1
2618.79	138.1
2622.398	148.1
2626.004	141.1
2629.606	140.1
2633.205	140.1
2636.801	145.1
2640.394	147.1
2643.983	132.1
2647.57	131.1
2651.153	124.1
2654.734	134.1
2658.311	133.1
2661.885	140.1
2665.456	144.1
2669.025	126.1
2672.589	127.1
2676.151	122.1
2679.71	122.1
2683.266	121.1
2686.819	133.1
2690.368	115.1
2693.915	126.1
2697.458	108.1
2700.999	113.1
2704.536	115.1
2708.071	107.1
2711.602	104.1
2715.13	103.1
2718.656	104.1
2722.178	102.1
2725.697	100.1
2729.214	100.1
2732.727	95.1
2736.237	96.1
2739.744	80.1
2743.249	81.1
2746.75	90.1
2750.248	77.1
2753.743	73.1
2757.236	74.1
2760.725	59.1
2764.211	64.1
2767.695	65.1
2771.175	61.1
2774.652	60.1
2778.127	61.1
2781.598	63.1
2785.067	58.1
2788.532	69.1
2791.995	69.1
2795.455	57.1
2798.911	72.1
2802.365	74.1
2805.816	74.1
2809.264	71.1
2812.709	67.1
2816.151	69.1
2819.59	85.1
2823.026	73.1
2826.46	77.1
2829.89	80.1
2833.318	71.1
2836.742	77.1
2840.164	68.1
2843.583	76.1
2846.999	75.1
2850.412	80.1
2853.822	78.1
2857.229	88.1
2860.634	75.1
2864.035	84.1
2867.434	86.1
2870.83	93.1
2874.223	85.1
2877.613	92.1
2881	92.1
2884.385	106.1
2887.766	104.1
2891.145	100.1
2894.521	106.1
2897.894	100.1
2901.264	102.1
2904.631	104.1
2907.996	107.1
2911.358	115.1
2914.717	120.1
2918.073	110.1
2921.426	109.1
2924.777	116.1
2928.124	125.1
2931.469	122.1
2934.811	134.1
2938.15	140.1
2941.487	145.1
2944.821	134.1
2948.152	137.1
2951.48	135.1
2954.805	137.1
2958.128	135.1
2961.447	129.1
2964.765	127.1
2968.079	125.1
2971.39	127.1
2974.699	121.1
2978.005	134.1
2981.308	122.1
2984.609	122.1
2987.907	121.1
2991.202	128.1
2994.494	125.1
2997.784	119.1
3001.07	124.1
3004.355	128.1
3007.636	139.1
3010.915	138.1
3014.191	132.1
3017.464	138.1
3020.734	140.1
3024.002	150.1
3027.267	147.1
3030.53	156.1
3033.789	158.1
3037.046	159.1
3040.301	153.1
3043.552	169.1
3046.801	176.1
3050.048	179.1
3053.291	187.1
3056.532	200.1
3059.771	194.1
3063.006	217.1
3066.239	224.1
3069.469	225.1
3072.697	224.1
3075.922	235.1
3079.144	236.1
3082.364	241.1
3085.581	245.1
3088.795	262.1
3092.007	266.1
3095.216	261.1
3098.423	263.1
3101.627	267.1
3104.828	280.1
3108.026	291.1
3111.222	294.1
3114.416	302.1
3117.607	303.1
3120.795	309.1
3123.98	307.1
3127.163	328.1
3130.344	328.1
3133.521	345.1
3136.696	350.1
3139.869	351.1
3143.039	358.1
3146.206	366.1
3149.371	363.1
3152.533	370.1
3155.693	380.1
3158.85	367.1
3162.005	380.1
3165.157	382.1
3168.306	382.1
3171.453	388.1
3174.597	378.1
3177.739	395.1
3180.878	391.1
3184.014	384.1
3187.149	389.1
3190.28	388.1
3193.409	406.1
3196.536	397.1
3199.659	400.1
3202.781	410.1
3205.9	402.1
3209.016	402.1
3212.13	398.1
3215.241	393.1
3218.35	392.1
3221.456	393.1
3224.56	376.1
3227.661	371.1
3230.76	373.1
3233.856	360.1
3236.95	347.1
3240.041	338.1
3243.13	337.1
3246.216	330.1
3249.3	321.1
3252.382	323.1
3255.46	326.1
3258.537	319.1
3261.611	308.1
3264.682	317.1
3267.751	316.1
3270.818	308.1
3273.882	301.1
3276.943	310.1
3280.002	308.1
3283.059	300.1
3286.113	302.1
3289.165	291.1
3292.214	290.1
3295.261	298.1
3298.306	286.1
3301.348	285.1
3304.387	286.1
3307.425	283.1
3310.459	277.1
3313.492	281.1
3316.521	285.1
3319.549	283.1
3322.574	277.1
3325.597	278.1
3328.617	275.1
3331.635	289.1
3334.65	277.1
3337.663	279.1
3340.674	286.1
3343.682	283.1
3346.688	274.1
3349.691	288.1
3352.692	285.1
3355.691	283.1
3358.687	276.1
3361.681	272.1
3364.673	276.1
3367.662	258.1
3370.649	262.1
3373.633	257.1
3376.615	251.1
3379.595	247.1
3382.572	248.1
3385.547	249.1
3388.52	228.1
3391.49	230.1
3394.458	234.1
3397.424	224.1
3400.387	224.1
3403.348	216.1
3406.307	214.1
3409.263	211.1
3412.217	209.1
3415.168	211.1
3418.118	198.1
3421.065	196.1
3424.009	194.1
3426.951	190.1
3429.891	188.1
3432.829	178.1
3435.764	177.1
3438.697	178.1
3441.628	166.1
3444.557	163.1
3447.483	162.1
3450.407	144.1
3453.328	144.1
3456.247	142.1
3459.164	134.1
3462.079	120.1
3464.991	120.1
3467.902	107.1
3470.809	102.1
3473.715	108.1
3476.618	93.1
3479.519	89.1
3482.418	80.1
3485.315	77.1
3488.209	69.1
3491.101	66.1
3493.99	71.1
3496.878	62.1
3499.763	49.1
3502.646	55.1
3505.527	51.1
3508.405	45.1
3511.281	42.1
3514.155	40.1
3517.027	28.1
3519.897	29.1
3522.764	28.1
3525.629	20.1
3528.492	18.1
3531.352	13.1
3534.211	6.1
3537.067	7.1
3539.921	7.1
3542.773	-2.9
3545.622	-7.9
3548.469	-4.9
3551.315	-6.9
3554.157	-11.9
3556.998	-13.9
3559.837	-11.9
3562.673	-13.9
3565.507	-24.9
3568.339	-19.9
3571.169	-20.9
3573.996	-21.9
3576.822	-29.9
3579.645	-25.9
3582.466	-30.9
3585.285	-32.9
3588.101	-34.9
3590.916	-31.9
3593.728	-39.9
3596.538	-42.9
3599.346	-40.9
3602.152	-49.9
3604.956	-39.9
3607.757	-37.9
3610.556	-43.9
3613.354	-52.9
3616.149	-49.9
3618.942	-47.9
3621.732	-51.9
3624.521	-48.9
3627.307	-48.9
3630.092	-53.9
3632.874	-51.9
3635.654	-54.9
3638.432	-53.9
3641.208	-55.9
3643.982	-50.9
3646.753	-56.9
3649.523	-55.9
3652.29	-60.9
3655.055	-56.9
3657.818	-63.9
3660.579	-61.9
3663.338	-59.9
3666.095	-65.9
3668.849	-63.9
3671.602	-65.9
3674.352	-61.9
3677.101	-60.9
3679.847	-66.9
3682.591	-68.9
3685.333	-61.9
3688.073	-70.9
3690.811	-71.9
3693.547	-67.9
3696.281	-69.9
3699.013	-71.9
3701.742	-73.9
3704.47	-71.9
3707.195	-69.9
3709.919	-74.9
3712.64	-70.9
3715.359	-70.9
3718.076	-79.9
3720.792	-69.9
3723.505	-77.9
3726.216	-69.9
3728.925	-80.9
3731.632	-69.9
3734.336	-75.9
3737.039	-71.9
3739.74	-77.9
3742.439	-81.9
3745.136	-75.9
3747.83	-75.9
3750.523	-78.9
3753.213	-84.9
3755.902	-82.9
3758.589	-78.9
3761.273	-80.9
3763.956	-83.9
3766.636	-80.9
3769.315	-77.9
3771.991	-78.9
3774.665	-85.9
3777.338	-82.9
3780.008	-79.9
3782.677	-89.9
3785.343	-78.9
3788.007	-80.9
3790.67	-79.9
3793.33	-80.9
3795.989	-78.9
3798.645	-77.9
3801.299	-80.9
3803.952	-80.9
3806.602	-78.9
3809.251	-83.9
3811.897	-83.9
3814.542	-88.9
3817.184	-80.9
3819.825	-78.9
3822.463	-81.9
3825.1	-81.9
3827.735	-85.9
3830.367	-84.9
3832.998	-85.9
3835.627	-86.9
3838.253	-79.9
3840.878	-76.9
3843.501	-77.9
3846.122	-82.9
3848.741	-84.9
3851.358	-82.9
3853.973	-75.9
3856.586	-77.9
3859.197	-82.9
3861.806	-81.9
3864.414	-81.9
3867.019	-80.9
3869.622	-75.9
3872.224	-73.9
3874.823	-64.9
3877.421	-63.9
3880.016	-55.9
3882.61	-35.9
3885.202	-39.9
3887.792	-41.9
3890.38	-58.9
3892.966	-71.9
3895.55	-77.9
3898.132	-76.9
3900.713	-80.9
3903.291	-86.9
3905.868	-82.9
3908.442	-83.9
3911.015	-81.9
3913.586	-89.9
3916.155	-82.9
3918.722	-83.9
3921.287	-82.9
3923.85	-81.9
3926.411	-86.9
3928.971	-93.9
3931.528	-83.9
3934.084	-83.9
3936.638	-83.9
3939.19	-91.9
3941.74	-81.9
3944.288	-87.9
3946.834	-83.9
3949.378	-81.9
3951.921	-89.9
3954.462	-86.9
3957	-81.9
3959.537	-77.9
3962.072	-79.9
3964.606	-81.9
3967.137	-82.9
3969.667	-86.9
3972.194	-79.9
3974.72	-79.9
3977.244	-74.9
3979.766	-74.9
3982.286	-83.9
3984.805	-90.9
3987.321	-82.9
3989.836	-82.9
3992.349	-85.9
3994.86	-85.9
3997.369	-85.9
3999.877	-84.9
4002.382	-89.9
4004.886	-81.9
4007.388	-82.9
4009.888	-84.9
4012.386	-82.9
4014.883	-86.9
4017.377	-82.9
4019.87	-84.9
4022.361	-87.9
4024.85	-81.9
4027.338	-85.9
4029.823	-87.9
4032.307	-82.9
4034.789	-77.9
4037.269	-81.9
4039.747	-84.9
4042.224	-83.9
4044.699	-82.9
4047.172	-88.9
4049.643	-85.9
4052.112	-80.9
4054.58	-81.9
4057.046	-79.9
4059.51	-83.9
4061.972	-91.9
4064.432	-87.9
4066.891	-80.9
4069.348	-82.9
4071.803	-77.9
4074.256	-86.9
4076.708	-83.9
4079.158	-87.9
4081.606	-81.9
4084.052	-82.9
4086.497	-76.9
4088.939	-80.9
4091.38	-85.9
4093.819	-89.9
4096.257	-88.9
4098.693	-91.9
4101.127	-83.9
4103.559	-91.9
4105.989	-18.9
4108.418	-16.9
4110.845	-23.9
4113.27	-18.9
4115.694	-4.9
4118.115	-7.9
4120.535	-86.9
4122.954	-79.9
4125.37	-83.9
4127.785	-83.9
4130.198	-82.9
4132.609	-92.9
4135.019	-90.9
4137.427	-92.9
4139.833	-84.9
4142.237	-90.9
