Data from 2018-3-7_conc=4_n=2_RamanShift_02.txt Node
Date: Wed Mar 07 11:52:22 IST 2018
User: aro
Spectrometer: QEPB0276
Trigger mode: 0
Integration Time (sec): 3.000000E1
Scans to average: 1
Electric dark correction enabled: true
Nonlinearity correction enabled: false
Boxcar width: 0
XAxis mode: Raman Shifts
Number of Pixels in Spectrum: 1044
>>>>>Begin Spectral Data<<<<<
160.701	17.6
166.742	26.6
172.777	55.6
178.805	142.6
184.826	351.6
190.841	727.6
196.849	1206.6
202.85	1570.6
208.845	1703.6
214.833	1702.6
220.815	1685.6
226.789	1708.6
232.758	1704.6
238.719	1704.6
244.674	1677.6
250.623	1682.6
256.565	1675.6
262.5	1651.6
268.429	1614.6
274.351	1623.6
280.267	1610.6
286.176	1605.6
292.079	1588.6
297.975	1602.6
303.865	1598.6
309.748	1600.6
315.625	1582.6
321.495	1586.6
327.359	1600.6
333.217	1616.6
339.068	1612.6
344.912	1625.6
350.751	1624.6
356.583	1616.6
362.408	1608.6
368.227	1635.6
374.04	1629.6
379.847	1635.6
385.647	1641.6
391.44	1648.6
397.228	1631.6
403.009	1665.6
408.784	1682.6
414.553	1664.6
420.315	1677.6
426.071	1692.6
431.821	1693.6
437.565	1672.6
443.302	1669.6
449.033	1674.6
454.758	1651.6
460.477	1652.6
466.189	1647.6
471.896	1626.6
477.596	1610.6
483.29	1597.6
488.978	1591.6
494.66	1590.6
500.335	1564.6
506.005	1516.6
511.668	1456.6
517.325	1388.6
522.977	1356.6
528.622	1310.6
534.261	1300.6
539.894	1289.6
545.521	1256.6
551.141	1250.6
556.756	1249.6
562.365	1223.6
567.968	1215.6
573.565	1214.6
579.155	1200.6
584.74	1192.6
590.319	1198.6
595.892	1193.6
601.459	1178.6
607.02	1185.6
612.575	1180.6
618.124	1174.6
623.667	1153.6
629.204	1125.6
634.735	1122.6
640.261	1135.6
645.781	1129.6
651.294	1114.6
656.802	1109.6
662.304	1094.6
667.8	1102.6
673.29	1102.6
678.775	1088.6
684.254	1092.6
689.726	1073.6
695.193	1086.6
700.655	1071.6
706.11	1055.6
711.56	1063.6
717.004	1047.6
722.442	1041.6
727.874	1042.6
733.301	1036.6
738.722	1034.6
744.137	1030.6
749.547	1019.6
754.951	1026.6
760.349	1034.6
765.741	1032.6
771.128	1029.6
776.509	1031.6
781.885	1045.6
787.254	1051.6
792.618	1062.6
797.977	1047.6
803.33	1032.6
808.677	1040.6
814.019	1027.6
819.355	1028.6
824.686	1015.6
830.011	1026.6
835.33	1007.6
840.644	999.6
845.952	997.6
851.255	991.6
856.552	998.6
861.844	987.6
867.13	959.6
872.41	968.6
877.686	967.6
882.955	970.6
888.219	945.6
893.478	934.6
898.731	926.6
903.979	907.6
909.221	911.6
914.458	898.6
919.69	905.6
924.916	897.6
930.136	891.6
935.351	893.6
940.561	901.6
945.766	917.6
950.965	899.6
956.158	891.6
961.347	882.6
966.529	872.6
971.707	858.6
976.879	841.6
982.046	841.6
987.208	830.6
992.364	828.6
997.515	840.6
1002.66	841.6
1007.801	849.6
1012.936	853.6
1018.066	860.6
1023.19	861.6
1028.309	851.6
1033.423	853.6
1038.532	852.6
1043.636	845.6
1048.734	839.6
1053.827	828.6
1058.915	829.6
1063.998	805.6
1069.075	808.6
1074.147	821.6
1079.214	811.6
1084.276	800.6
1089.333	821.6
1094.385	817.6
1099.431	798.6
1104.472	811.6
1109.509	804.6
1114.54	793.6
1119.565	786.6
1124.586	771.6
1129.602	767.6
1134.613	766.6
1139.618	750.6
1144.619	766.6
1149.614	753.6
1154.604	757.6
1159.589	758.6
1164.57	754.6
1169.545	755.6
1174.515	770.6
1179.48	762.6
1184.44	760.6
1189.395	741.6
1194.345	742.6
1199.29	719.6
1204.23	740.6
1209.165	737.6
1214.095	742.6
1219.021	744.6
1223.941	756.6
1228.856	748.6
1233.766	762.6
1238.672	764.6
1243.572	762.6
1248.467	755.6
1253.358	737.6
1258.244	718.6
1263.124	710.6
1268	703.6
1272.871	684.6
1277.737	690.6
1282.599	682.6
1287.455	677.6
1292.306	686.6
1297.153	688.6
1301.995	702.6
1306.832	693.6
1311.664	695.6
1316.491	698.6
1321.314	695.6
1326.132	690.6
1330.945	666.6
1335.753	653.6
1340.556	657.6
1345.354	652.6
1350.148	635.6
1354.937	620.6
1359.722	598.6
1364.501	594.6
1369.276	593.6
1374.046	578.6
1378.811	565.6
1383.572	562.6
1388.327	556.6
1393.079	570.6
1397.825	570.6
1402.567	573.6
1407.304	570.6
1412.036	572.6
1416.764	575.6
1421.487	579.6
1426.205	574.6
1430.919	577.6
1435.628	579.6
1440.333	581.6
1445.032	573.6
1449.727	602.6
1454.418	590.6
1459.104	592.6
1463.785	585.6
1468.462	558.6
1473.134	565.6
1477.802	546.6
1482.465	526.6
1487.123	513.6
1491.777	498.6
1496.426	509.6
1501.071	495.6
1505.711	494.6
1510.347	484.6
1514.978	486.6
1519.604	484.6
1524.226	473.6
1528.844	468.6
1533.457	464.6
1538.065	475.6
1542.669	460.6
1547.269	466.6
1551.864	476.6
1556.454	494.6
1561.041	488.6
1565.622	493.6
1570.199	491.6
1574.772	501.6
1579.34	509.6
1583.904	505.6
1588.464	521.6
1593.019	505.6
1597.569	512.6
1602.115	521.6
1606.657	511.6
1611.195	523.6
1615.728	517.6
1620.256	510.6
1624.78	502.6
1629.3	513.6
1633.816	518.6
1638.327	524.6
1642.834	508.6
1647.336	514.6
1651.834	501.6
1656.328	505.6
1660.817	512.6
1665.302	496.6
1669.783	489.6
1674.259	473.6
1678.732	457.6
1683.199	446.6
1687.663	438.6
1692.122	408.6
1696.577	393.6
1701.028	390.6
1705.474	363.6
1709.917	353.6
1714.355	353.6
1718.788	345.6
1723.218	336.6
1727.643	339.6
1732.064	343.6
1736.481	339.6
1740.893	334.6
1745.301	326.6
1749.705	323.6
1754.105	309.6
1758.501	295.6
1762.893	301.6
1767.28	292.6
1771.663	295.6
1776.042	284.6
1780.417	283.6
1784.787	276.6
1789.154	265.6
1793.516	255.6
1797.874	257.6
1802.228	257.6
1806.578	255.6
1810.924	249.6
1815.266	253.6
1819.603	251.6
1823.937	253.6
1828.266	252.6
1832.591	254.6
1836.913	251.6
1841.23	262.6
1845.543	255.6
1849.852	268.6
1854.156	260.6
1858.457	262.6
1862.754	266.6
1867.047	259.6
1871.335	260.6
1875.62	253.6
1879.9	260.6
1884.177	259.6
1888.449	245.6
1892.718	248.6
1896.982	246.6
1901.243	234.6
1905.499	232.6
1909.752	227.6
1914	231.6
1918.245	220.6
1922.485	210.6
1926.722	208.6
1930.954	201.6
1935.183	207.6
1939.408	205.6
1943.628	203.6
1947.845	202.6
1952.058	202.6
1956.267	193.6
1960.472	201.6
1964.673	190.6
1968.87	194.6
1973.063	198.6
1977.252	194.6
1981.438	201.6
1985.619	198.6
1989.797	196.6
1993.971	194.6
1998.14	191.6
2002.306	199.6
2006.469	203.6
2010.627	193.6
2014.781	196.6
2018.932	194.6
2023.078	194.6
2027.221	203.6
2031.36	183.6
2035.495	185.6
2039.627	182.6
2043.754	189.6
2047.878	184.6
2051.998	185.6
2056.114	176.6
2060.226	175.6
2064.334	173.6
2068.439	167.6
2072.54	175.6
2076.637	173.6
2080.73	177.6
2084.82	171.6
2088.906	162.6
2092.988	163.6
2097.066	164.6
2101.14	168.6
2105.211	158.6
2109.278	156.6
2113.342	160.6
2117.401	156.6
2121.457	151.6
2125.509	153.6
2129.558	149.6
2133.602	161.6
2137.643	156.6
2141.681	148.6
2145.714	155.6
2149.744	153.6
2153.77	145.6
2157.793	148.6
2161.812	154.6
2165.827	157.6
2169.838	147.6
2173.846	145.6
2177.851	141.6
2181.851	135.6
2185.848	139.6
2189.841	141.6
2193.831	134.6
2197.817	139.6
2201.799	129.6
2205.778	136.6
2209.753	133.6
2213.725	133.6
2217.693	139.6
2221.657	132.6
2225.618	127.6
2229.575	127.6
2233.529	125.6
2237.479	126.6
2241.425	124.6
2245.368	129.6
2249.307	122.6
2253.243	121.6
2257.175	120.6
2261.104	115.6
2265.029	113.6
2268.95	117.6
2272.868	113.6
2276.783	109.6
2280.694	104.6
2284.601	107.6
2288.505	111.6
2292.405	109.6
2296.302	117.6
2300.195	101.6
2304.085	104.6
2307.971	102.6
2311.854	96.6
2315.734	91.6
2319.609	98.6
2323.482	98.6
2327.351	105.6
2331.216	112.6
2335.078	124.6
2338.937	112.6
2342.792	100.6
2346.643	101.6
2350.492	97.6
2354.336	100.6
2358.178	90.6
2362.015	92.6
2365.85	93.6
2369.681	107.6
2373.508	109.6
2377.333	104.6
2381.153	96.6
2384.971	94.6
2388.785	92.6
2392.595	96.6
2396.402	101.6
2400.206	102.6
2404.007	98.6
2407.804	93.6
2411.597	92.6
2415.388	91.6
2419.174	95.6
2422.958	86.6
2426.738	94.6
2430.515	92.6
2434.289	89.6
2438.059	100.6
2441.825	83.6
2445.589	91.6
2449.349	81.6
2453.106	88.6
2456.859	86.6
2460.61	79.6
2464.356	85.6
2468.1	78.6
2471.84	76.6
2475.577	73.6
2479.311	72.6
2483.041	72.6
2486.768	68.6
2490.492	77.6
2494.213	72.6
2497.93	76.6
2501.644	76.6
2505.355	67.6
2509.062	71.6
2512.766	68.6
2516.467	57.6
2520.165	65.6
2523.859	73.6
2527.551	63.6
2531.239	56.6
2534.923	61.6
2538.605	54.6
2542.283	56.6
2545.958	57.6
2549.63	60.6
2553.299	61.6
2556.964	54.6
2560.626	60.6
2564.285	52.6
2567.941	57.6
2571.594	54.6
2575.243	50.6
2578.89	49.6
2582.533	45.6
2586.173	48.6
2589.809	50.6
2593.443	54.6
2597.073	40.6
2600.701	44.6
2604.325	39.6
2607.946	34.6
2611.564	43.6
2615.178	52.6
2618.79	51.6
2622.398	48.6
2626.004	43.6
2629.606	40.6
2633.205	37.6
2636.801	40.6
2640.394	45.6
2643.983	38.6
2647.57	33.6
2651.153	36.6
2654.734	33.6
2658.311	33.6
2661.885	40.6
2665.456	43.6
2669.025	42.6
2672.589	32.6
2676.151	41.6
2679.71	30.6
2683.266	34.6
2686.819	39.6
2690.368	37.6
2693.915	34.6
2697.458	22.6
2700.999	36.6
2704.536	33.6
2708.071	31.6
2711.602	25.6
2715.13	18.6
2718.656	22.6
2722.178	18.6
2725.697	22.6
2729.214	20.6
2732.727	27.6
2736.237	28.6
2739.744	16.6
2743.249	19.6
2746.75	19.6
2750.248	11.6
2753.743	17.6
2757.236	17.6
2760.725	14.6
2764.211	11.6
2767.695	7.6
2771.175	10.6
2774.652	7.6
2778.127	10.6
2781.598	12.6
2785.067	10.6
2788.532	13.6
2791.995	16.6
2795.455	8.6
2798.911	14.6
2802.365	18.6
2805.816	16.6
2809.264	16.6
2812.709	10.6
2816.151	15.6
2819.59	20.6
2823.026	9.6
2826.46	16.6
2829.89	10.6
2833.318	10.6
2836.742	17.6
2840.164	16.6
2843.583	9.6
2846.999	18.6
2850.412	20.6
2853.822	18.6
2857.229	22.6
2860.634	14.6
2864.035	14.6
2867.434	19.6
2870.83	21.6
2874.223	19.6
2877.613	22.6
2881	24.6
2884.385	21.6
2887.766	25.6
2891.145	27.6
2894.521	26.6
2897.894	20.6
2901.264	30.6
2904.631	21.6
2907.996	23.6
2911.358	34.6
2914.717	31.6
2918.073	32.6
2921.426	23.6
2924.777	32.6
2928.124	29.6
2931.469	31.6
2934.811	40.6
2938.15	38.6
2941.487	42.6
2944.821	37.6
2948.152	36.6
2951.48	39.6
2954.805	35.6
2958.128	39.6
2961.447	42.6
2964.765	29.6
2968.079	30.6
2971.39	33.6
2974.699	32.6
2978.005	40.6
2981.308	26.6
2984.609	36.6
2987.907	35.6
2991.202	33.6
2994.494	32.6
2997.784	24.6
3001.07	28.6
3004.355	35.6
3007.636	42.6
3010.915	38.6
3014.191	35.6
3017.464	37.6
3020.734	36.6
3024.002	47.6
3027.267	41.6
3030.53	44.6
3033.789	41.6
3037.046	42.6
3040.301	40.6
3043.552	45.6
3046.801	48.6
3050.048	44.6
3053.291	50.6
3056.532	53.6
3059.771	60.6
3063.006	60.6
3066.239	63.6
3069.469	67.6
3072.697	64.6
3075.922	82.6
3079.144	76.6
3082.364	81.6
3085.581	80.6
3088.795	83.6
3092.007	84.6
3095.216	86.6
3098.423	80.6
3101.627	88.6
3104.828	97.6
3108.026	89.6
3111.222	92.6
3114.416	96.6
3117.607	104.6
3120.795	95.6
3123.98	100.6
3127.163	117.6
3130.344	116.6
3133.521	118.6
3136.696	122.6
3139.869	121.6
3143.039	121.6
3146.206	130.6
3149.371	128.6
3152.533	135.6
3155.693	135.6
3158.85	122.6
3162.005	128.6
3165.157	129.6
3168.306	134.6
3171.453	133.6
3174.597	129.6
3177.739	137.6
3180.878	141.6
3184.014	130.6
3187.149	136.6
3190.28	136.6
3193.409	140.6
3196.536	128.6
3199.659	137.6
3202.781	136.6
3205.9	132.6
3209.016	132.6
3212.13	144.6
3215.241	132.6
3218.35	134.6
3221.456	132.6
3224.56	121.6
3227.661	121.6
3230.76	124.6
3233.856	122.6
3236.95	122.6
3240.041	109.6
3243.13	125.6
3246.216	115.6
3249.3	97.6
3252.382	109.6
3255.46	115.6
3258.537	106.6
3261.611	105.6
3264.682	107.6
3267.751	101.6
3270.818	94.6
3273.882	99.6
3276.943	94.6
3280.002	100.6
3283.059	95.6
3286.113	88.6
3289.165	98.6
3292.214	94.6
3295.261	91.6
3298.306	88.6
3301.348	94.6
3304.387	91.6
3307.425	93.6
3310.459	88.6
3313.492	89.6
3316.521	90.6
3319.549	92.6
3322.574	88.6
3325.597	87.6
3328.617	87.6
3331.635	89.6
3334.65	93.6
3337.663	76.6
3340.674	81.6
3343.682	80.6
3346.688	78.6
3349.691	86.6
3352.692	91.6
3355.691	96.6
3358.687	81.6
3361.681	85.6
3364.673	84.6
3367.662	85.6
3370.649	83.6
3373.633	76.6
3376.615	76.6
3379.595	76.6
3382.572	64.6
3385.547	73.6
3388.52	62.6
3391.49	70.6
3394.458	62.6
3397.424	64.6
3400.387	72.6
3403.348	59.6
3406.307	58.6
3409.263	64.6
3412.217	56.6
3415.168	71.6
3418.118	59.6
3421.065	58.6
3424.009	55.6
3426.951	53.6
3429.891	54.6
3432.829	45.6
3435.764	52.6
3438.697	52.6
3441.628	36.6
3444.557	41.6
3447.483	42.6
3450.407	31.6
3453.328	36.6
3456.247	35.6
3459.164	32.6
3462.079	21.6
3464.991	21.6
3467.902	22.6
3470.809	17.6
3473.715	18.6
3476.618	15.6
3479.519	13.6
3482.418	8.6
3485.315	12.6
3488.209	2.6
3491.101	0.6
3493.99	11.6
3496.878	0.6
3499.763	-7.4
3502.646	-1.4
3505.527	4.6
3508.405	-1.4
3511.281	-4.4
3514.155	-3.4
3517.027	-11.4
3519.897	-6.4
3522.764	-11.4
3525.629	-13.4
3528.492	-13.4
3531.352	-19.4
3534.211	-17.4
3537.067	-21.4
3539.921	-16.4
3542.773	-27.4
3545.622	-28.4
3548.469	-23.4
3551.315	-20.4
3554.157	-25.4
3556.998	-23.4
3559.837	-30.4
3562.673	-24.4
3565.507	-23.4
3568.339	-25.4
3571.169	-30.4
3573.996	-19.4
3576.822	-42.4
3579.645	-32.4
3582.466	-28.4
3585.285	-33.4
3588.101	-37.4
3590.916	-34.4
3593.728	-36.4
3596.538	-33.4
3599.346	-39.4
3602.152	-38.4
3604.956	-33.4
3607.757	-29.4
3610.556	-31.4
3613.354	-43.4
3616.149	-40.4
3618.942	-37.4
3621.732	-42.4
3624.521	-39.4
3627.307	-41.4
3630.092	-44.4
3632.874	-48.4
3635.654	-46.4
3638.432	-42.4
3641.208	-44.4
3643.982	-40.4
3646.753	-48.4
3649.523	-42.4
3652.29	-45.4
3655.055	-43.4
3657.818	-52.4
3660.579	-53.4
3663.338	-43.4
3666.095	-52.4
3668.849	-46.4
3671.602	-47.4
3674.352	-44.4
3677.101	-49.4
3679.847	-52.4
3682.591	-54.4
3685.333	-49.4
3688.073	-54.4
3690.811	-49.4
3693.547	-49.4
3696.281	-41.4
3699.013	-50.4
3701.742	-55.4
3704.47	-45.4
3707.195	-46.4
3709.919	-48.4
3712.64	-50.4
3715.359	-53.4
3718.076	-54.4
3720.792	-55.4
3723.505	-54.4
3726.216	-51.4
3728.925	-58.4
3731.632	-51.4
3734.336	-56.4
3737.039	-50.4
3739.74	-51.4
3742.439	-55.4
3745.136	-53.4
3747.83	-53.4
3750.523	-55.4
3753.213	-52.4
3755.902	-53.4
3758.589	-52.4
3761.273	-52.4
3763.956	-59.4
3766.636	-54.4
3769.315	-52.4
3771.991	-60.4
3774.665	-57.4
3777.338	-58.4
3780.008	-52.4
3782.677	-57.4
3785.343	-49.4
3788.007	-55.4
3790.67	-58.4
3793.33	-56.4
3795.989	-62.4
3798.645	-59.4
3801.299	-53.4
3803.952	-57.4
3806.602	-59.4
3809.251	-55.4
3811.897	-57.4
3814.542	-63.4
3817.184	-62.4
3819.825	-54.4
3822.463	-60.4
3825.1	-49.4
3827.735	-58.4
3830.367	-57.4
3832.998	-59.4
3835.627	-56.4
3838.253	-54.4
3840.878	-49.4
3843.501	-56.4
3846.122	-62.4
3848.741	-62.4
3851.358	-54.4
3853.973	-56.4
3856.586	-58.4
3859.197	-51.4
3861.806	-57.4
3864.414	-55.4
3867.019	-56.4
3869.622	-47.4
3872.224	-40.4
3874.823	-34.4
3877.421	-25.4
3880.016	-14.4
3882.61	5.6
3885.202	2.6
3887.792	-3.4
3890.38	-24.4
3892.966	-43.4
3895.55	-51.4
3898.132	-54.4
3900.713	-56.4
3903.291	-60.4
3905.868	-52.4
3908.442	-56.4
3911.015	-51.4
3913.586	-58.4
3916.155	-60.4
3918.722	-57.4
3921.287	-57.4
3923.85	-50.4
3926.411	-59.4
3928.971	-65.4
3931.528	-64.4
3934.084	-55.4
3936.638	-57.4
3939.19	-60.4
3941.74	-54.4
3944.288	-54.4
3946.834	-54.4
3949.378	-54.4
3951.921	-57.4
3954.462	-54.4
3957	-49.4
3959.537	-43.4
3962.072	-49.4
3964.606	-55.4
3967.137	-53.4
3969.667	-63.4
3972.194	-56.4
3974.72	-54.4
3977.244	-54.4
3979.766	-53.4
3982.286	-56.4
3984.805	-63.4
3987.321	-53.4
3989.836	-53.4
3992.349	-56.4
3994.86	-59.4
3997.369	-57.4
3999.877	-58.4
4002.382	-55.4
4004.886	-55.4
4007.388	-63.4
4009.888	-57.4
4012.386	-59.4
4014.883	-52.4
4017.377	-52.4
4019.87	-58.4
4022.361	-60.4
4024.85	-51.4
4027.338	-58.4
4029.823	-58.4
4032.307	-58.4
4034.789	-48.4
4037.269	-58.4
4039.747	-58.4
4042.224	-55.4
4044.699	-59.4
4047.172	-63.4
4049.643	-61.4
4052.112	-58.4
4054.58	-57.4
4057.046	-56.4
4059.51	-58.4
4061.972	-61.4
4064.432	-52.4
4066.891	-58.4
4069.348	-57.4
4071.803	-49.4
4074.256	-53.4
4076.708	-55.4
4079.158	-57.4
4081.606	-54.4
4084.052	-58.4
4086.497	-53.4
4088.939	-53.4
4091.38	-60.4
4093.819	-60.4
4096.257	-63.4
4098.693	-60.4
4101.127	-50.4
4103.559	-63.4
4105.989	28.6
4108.418	25.6
4110.845	19.6
4113.27	14.6
4115.694	22.6
4118.115	22.6
4120.535	-56.4
4122.954	-56.4
4125.37	-61.4
4127.785	-55.4
4130.198	-58.4
4132.609	-58.4
4135.019	-62.4
4137.427	-63.4
4139.833	-58.4
4142.237	-58.4
