Data from 2018-3-7_conc=4_n=4_RamanShift_04.txt Node
Date: Wed Mar 07 11:59:22 IST 2018
User: aro
Spectrometer: QEPB0276
Trigger mode: 0
Integration Time (sec): 3.000000E1
Scans to average: 1
Electric dark correction enabled: true
Nonlinearity correction enabled: false
Boxcar width: 0
XAxis mode: Raman Shifts
Number of Pixels in Spectrum: 1044
>>>>>Begin Spectral Data<<<<<
160.701	11.6
166.742	15.6
172.777	44.6
178.805	139.6
184.826	337.6
190.841	725.6
196.849	1183.6
202.85	1546.6
208.845	1701.6
214.833	1680.6
220.815	1672.6
226.789	1667.6
232.758	1672.6
238.719	1666.6
244.674	1677.6
250.623	1652.6
256.565	1654.6
262.5	1613.6
268.429	1606.6
274.351	1601.6
280.267	1592.6
286.176	1578.6
292.079	1593.6
297.975	1581.6
303.865	1590.6
309.748	1567.6
315.625	1585.6
321.495	1569.6
327.359	1591.6
333.217	1576.6
339.068	1576.6
344.912	1607.6
350.751	1590.6
356.583	1583.6
362.408	1595.6
368.227	1605.6
374.04	1598.6
379.847	1618.6
385.647	1609.6
391.44	1628.6
397.228	1639.6
403.009	1643.6
408.784	1641.6
414.553	1653.6
420.315	1646.6
426.071	1654.6
431.821	1665.6
437.565	1657.6
443.302	1664.6
449.033	1660.6
454.758	1658.6
460.477	1630.6
466.189	1614.6
471.896	1592.6
477.596	1591.6
483.29	1586.6
488.978	1589.6
494.66	1568.6
500.335	1558.6
506.005	1494.6
511.668	1430.6
517.325	1382.6
522.977	1321.6
528.622	1297.6
534.261	1293.6
539.894	1262.6
545.521	1255.6
551.141	1229.6
556.756	1228.6
562.365	1213.6
567.968	1203.6
573.565	1203.6
579.155	1196.6
584.74	1184.6
590.319	1188.6
595.892	1188.6
601.459	1180.6
607.02	1184.6
612.575	1171.6
618.124	1153.6
623.667	1147.6
629.204	1136.6
634.735	1110.6
640.261	1114.6
645.781	1099.6
651.294	1107.6
656.802	1100.6
662.304	1096.6
667.8	1093.6
673.29	1095.6
678.775	1081.6
684.254	1094.6
689.726	1085.6
695.193	1055.6
700.655	1047.6
706.11	1072.6
711.56	1049.6
717.004	1045.6
722.442	1031.6
727.874	1028.6
733.301	1033.6
738.722	1016.6
744.137	1018.6
749.547	1018.6
754.951	1030.6
760.349	1013.6
765.741	1024.6
771.128	1017.6
776.509	1035.6
781.885	1060.6
787.254	1043.6
792.618	1034.6
797.977	1046.6
803.33	1040.6
808.677	1042.6
814.019	1029.6
819.355	1036.6
824.686	1000.6
830.011	1003.6
835.33	1016.6
840.644	1000.6
845.952	1003.6
851.255	982.6
856.552	1001.6
861.844	978.6
867.13	967.6
872.41	962.6
877.686	964.6
882.955	957.6
888.219	949.6
893.478	933.6
898.731	909.6
903.979	916.6
909.221	907.6
914.458	892.6
919.69	890.6
924.916	908.6
930.136	913.6
935.351	899.6
940.561	895.6
945.766	893.6
950.965	882.6
956.158	886.6
961.347	873.6
966.529	880.6
971.707	842.6
976.879	838.6
982.046	825.6
987.208	839.6
992.364	824.6
997.515	841.6
1002.66	815.6
1007.801	857.6
1012.936	860.6
1018.066	863.6
1023.19	857.6
1028.309	868.6
1033.423	855.6
1038.532	848.6
1043.636	840.6
1048.734	846.6
1053.827	820.6
1058.915	818.6
1063.998	812.6
1069.075	812.6
1074.147	802.6
1079.214	811.6
1084.276	816.6
1089.333	814.6
1094.385	819.6
1099.431	813.6
1104.472	814.6
1109.509	812.6
1114.54	797.6
1119.565	787.6
1124.586	772.6
1129.602	753.6
1134.613	762.6
1139.618	750.6
1144.619	752.6
1149.614	770.6
1154.604	766.6
1159.589	765.6
1164.57	768.6
1169.545	757.6
1174.515	776.6
1179.48	760.6
1184.44	747.6
1189.395	745.6
1194.345	737.6
1199.29	726.6
1204.23	721.6
1209.165	728.6
1214.095	740.6
1219.021	743.6
1223.941	759.6
1228.856	761.6
1233.766	769.6
1238.672	760.6
1243.572	766.6
1248.467	748.6
1253.358	748.6
1258.244	731.6
1263.124	712.6
1268	701.6
1272.871	687.6
1277.737	682.6
1282.599	691.6
1287.455	675.6
1292.306	690.6
1297.153	678.6
1301.995	689.6
1306.832	700.6
1311.664	700.6
1316.491	699.6
1321.314	701.6
1326.132	696.6
1330.945	685.6
1335.753	674.6
1340.556	666.6
1345.354	653.6
1350.148	638.6
1354.937	599.6
1359.722	607.6
1364.501	587.6
1369.276	576.6
1374.046	568.6
1378.811	569.6
1383.572	567.6
1388.327	580.6
1393.079	562.6
1397.825	567.6
1402.567	571.6
1407.304	586.6
1412.036	576.6
1416.764	571.6
1421.487	583.6
1426.205	580.6
1430.919	576.6
1435.628	588.6
1440.333	597.6
1445.032	582.6
1449.727	596.6
1454.418	593.6
1459.104	580.6
1463.785	592.6
1468.462	564.6
1473.134	558.6
1477.802	540.6
1482.465	531.6
1487.123	518.6
1491.777	506.6
1496.426	508.6
1501.071	495.6
1505.711	493.6
1510.347	492.6
1514.978	494.6
1519.604	486.6
1524.226	480.6
1528.844	478.6
1533.457	470.6
1538.065	473.6
1542.669	466.6
1547.269	472.6
1551.864	472.6
1556.454	480.6
1561.041	500.6
1565.622	495.6
1570.199	499.6
1574.772	503.6
1579.34	517.6
1583.904	511.6
1588.464	513.6
1593.019	517.6
1597.569	526.6
1602.115	525.6
1606.657	531.6
1611.195	519.6
1615.728	507.6
1620.256	511.6
1624.78	518.6
1629.3	507.6
1633.816	505.6
1638.327	529.6
1642.834	510.6
1647.336	501.6
1651.834	508.6
1656.328	508.6
1660.817	517.6
1665.302	501.6
1669.783	486.6
1674.259	479.6
1678.732	465.6
1683.199	440.6
1687.663	436.6
1692.122	408.6
1696.577	402.6
1701.028	389.6
1705.474	367.6
1709.917	353.6
1714.355	346.6
1718.788	340.6
1723.218	346.6
1727.643	349.6
1732.064	335.6
1736.481	346.6
1740.893	347.6
1745.301	337.6
1749.705	318.6
1754.105	318.6
1758.501	301.6
1762.893	319.6
1767.28	300.6
1771.663	293.6
1776.042	291.6
1780.417	285.6
1784.787	286.6
1789.154	272.6
1793.516	260.6
1797.874	272.6
1802.228	260.6
1806.578	260.6
1810.924	261.6
1815.266	257.6
1819.603	255.6
1823.937	270.6
1828.266	262.6
1832.591	270.6
1836.913	263.6
1841.23	260.6
1845.543	270.6
1849.852	267.6
1854.156	268.6
1858.457	264.6
1862.754	265.6
1867.047	257.6
1871.335	257.6
1875.62	265.6
1879.9	264.6
1884.177	259.6
1888.449	259.6
1892.718	251.6
1896.982	249.6
1901.243	237.6
1905.499	245.6
1909.752	229.6
1914	233.6
1918.245	223.6
1922.485	219.6
1926.722	214.6
1930.954	215.6
1935.183	223.6
1939.408	211.6
1943.628	207.6
1947.845	205.6
1952.058	209.6
1956.267	199.6
1960.472	211.6
1964.673	198.6
1968.87	196.6
1973.063	200.6
1977.252	204.6
1981.438	205.6
1985.619	192.6
1989.797	192.6
1993.971	213.6
1998.14	209.6
2002.306	199.6
2006.469	212.6
2010.627	200.6
2014.781	210.6
2018.932	205.6
2023.078	210.6
2027.221	204.6
2031.36	196.6
2035.495	190.6
2039.627	186.6
2043.754	199.6
2047.878	195.6
2051.998	191.6
2056.114	189.6
2060.226	182.6
2064.334	183.6
2068.439	178.6
2072.54	178.6
2076.637	182.6
2080.73	179.6
2084.82	174.6
2088.906	177.6
2092.988	174.6
2097.066	166.6
2101.14	172.6
2105.211	162.6
2109.278	169.6
2113.342	154.6
2117.401	158.6
2121.457	155.6
2125.509	160.6
2129.558	152.6
2133.602	163.6
2137.643	161.6
2141.681	156.6
2145.714	163.6
2149.744	163.6
2153.77	163.6
2157.793	156.6
2161.812	153.6
2165.827	160.6
2169.838	159.6
2173.846	151.6
2177.851	150.6
2181.851	150.6
2185.848	147.6
2189.841	146.6
2193.831	142.6
2197.817	148.6
2201.799	149.6
2205.778	141.6
2209.753	153.6
2213.725	138.6
2217.693	148.6
2221.657	144.6
2225.618	137.6
2229.575	139.6
2233.529	138.6
2237.479	136.6
2241.425	129.6
2245.368	139.6
2249.307	139.6
2253.243	130.6
2257.175	126.6
2261.104	123.6
2265.029	123.6
2268.95	124.6
2272.868	122.6
2276.783	117.6
2280.694	117.6
2284.601	114.6
2288.505	116.6
2292.405	113.6
2296.302	117.6
2300.195	111.6
2304.085	110.6
2307.971	107.6
2311.854	109.6
2315.734	101.6
2319.609	110.6
2323.482	104.6
2327.351	116.6
2331.216	122.6
2335.078	135.6
2338.937	123.6
2342.792	116.6
2346.643	110.6
2350.492	108.6
2354.336	111.6
2358.178	97.6
2362.015	109.6
2365.85	99.6
2369.681	109.6
2373.508	109.6
2377.333	103.6
2381.153	104.6
2384.971	101.6
2388.785	103.6
2392.595	106.6
2396.402	113.6
2400.206	108.6
2404.007	109.6
2407.804	106.6
2411.597	102.6
2415.388	104.6
2419.174	108.6
2422.958	103.6
2426.738	98.6
2430.515	98.6
2434.289	98.6
2438.059	95.6
2441.825	91.6
2445.589	95.6
2449.349	92.6
2453.106	95.6
2456.859	85.6
2460.61	94.6
2464.356	97.6
2468.1	90.6
2471.84	84.6
2475.577	80.6
2479.311	85.6
2483.041	84.6
2486.768	79.6
2490.492	89.6
2494.213	80.6
2497.93	81.6
2501.644	83.6
2505.355	78.6
2509.062	73.6
2512.766	73.6
2516.467	72.6
2520.165	81.6
2523.859	83.6
2527.551	72.6
2531.239	73.6
2534.923	70.6
2538.605	69.6
2542.283	67.6
2545.958	69.6
2549.63	68.6
2553.299	66.6
2556.964	56.6
2560.626	62.6
2564.285	62.6
2567.941	59.6
2571.594	63.6
2575.243	61.6
2578.89	63.6
2582.533	65.6
2586.173	59.6
2589.809	58.6
2593.443	64.6
2597.073	57.6
2600.701	60.6
2604.325	55.6
2607.946	43.6
2611.564	50.6
2615.178	52.6
2618.79	48.6
2622.398	48.6
2626.004	41.6
2629.606	44.6
2633.205	53.6
2636.801	47.6
2640.394	53.6
2643.983	48.6
2647.57	49.6
2651.153	44.6
2654.734	49.6
2658.311	43.6
2661.885	47.6
2665.456	49.6
2669.025	48.6
2672.589	39.6
2676.151	45.6
2679.71	36.6
2683.266	35.6
2686.819	39.6
2690.368	39.6
2693.915	39.6
2697.458	36.6
2700.999	42.6
2704.536	45.6
2708.071	39.6
2711.602	35.6
2715.13	32.6
2718.656	36.6
2722.178	33.6
2725.697	35.6
2729.214	33.6
2732.727	38.6
2736.237	31.6
2739.744	25.6
2743.249	27.6
2746.75	20.6
2750.248	22.6
2753.743	22.6
2757.236	16.6
2760.725	19.6
2764.211	17.6
2767.695	15.6
2771.175	20.6
2774.652	21.6
2778.127	23.6
2781.598	17.6
2785.067	19.6
2788.532	18.6
2791.995	26.6
2795.455	19.6
2798.911	24.6
2802.365	27.6
2805.816	23.6
2809.264	21.6
2812.709	12.6
2816.151	26.6
2819.59	28.6
2823.026	27.6
2826.46	26.6
2829.89	25.6
2833.318	17.6
2836.742	25.6
2840.164	26.6
2843.583	19.6
2846.999	23.6
2850.412	23.6
2853.822	26.6
2857.229	24.6
2860.634	24.6
2864.035	19.6
2867.434	29.6
2870.83	32.6
2874.223	26.6
2877.613	33.6
2881	28.6
2884.385	27.6
2887.766	27.6
2891.145	35.6
2894.521	30.6
2897.894	27.6
2901.264	34.6
2904.631	19.6
2907.996	31.6
2911.358	38.6
2914.717	32.6
2918.073	31.6
2921.426	31.6
2924.777	40.6
2928.124	40.6
2931.469	38.6
2934.811	53.6
2938.15	46.6
2941.487	51.6
2944.821	41.6
2948.152	48.6
2951.48	43.6
2954.805	45.6
2958.128	40.6
2961.447	51.6
2964.765	36.6
2968.079	42.6
2971.39	42.6
2974.699	44.6
2978.005	48.6
2981.308	39.6
2984.609	40.6
2987.907	44.6
2991.202	41.6
2994.494	41.6
2997.784	41.6
3001.07	43.6
3004.355	40.6
3007.636	42.6
3010.915	45.6
3014.191	38.6
3017.464	40.6
3020.734	44.6
3024.002	48.6
3027.267	44.6
3030.53	48.6
3033.789	52.6
3037.046	49.6
3040.301	56.6
3043.552	54.6
3046.801	60.6
3050.048	54.6
3053.291	56.6
3056.532	63.6
3059.771	69.6
3063.006	67.6
3066.239	70.6
3069.469	83.6
3072.697	74.6
3075.922	82.6
3079.144	74.6
3082.364	85.6
3085.581	82.6
3088.795	88.6
3092.007	91.6
3095.216	94.6
3098.423	94.6
3101.627	91.6
3104.828	104.6
3108.026	100.6
3111.222	105.6
3114.416	114.6
3117.607	106.6
3120.795	105.6
3123.98	120.6
3127.163	127.6
3130.344	120.6
3133.521	116.6
3136.696	114.6
3139.869	123.6
3143.039	128.6
3146.206	136.6
3149.371	130.6
3152.533	138.6
3155.693	136.6
3158.85	139.6
3162.005	142.6
3165.157	143.6
3168.306	136.6
3171.453	141.6
3174.597	148.6
3177.739	141.6
3180.878	149.6
3184.014	139.6
3187.149	138.6
3190.28	142.6
3193.409	142.6
3196.536	141.6
3199.659	147.6
3202.781	141.6
3205.9	138.6
3209.016	141.6
3212.13	143.6
3215.241	143.6
3218.35	144.6
3221.456	143.6
3224.56	130.6
3227.661	126.6
3230.76	138.6
3233.856	129.6
3236.95	126.6
3240.041	122.6
3243.13	129.6
3246.216	113.6
3249.3	115.6
3252.382	112.6
3255.46	115.6
3258.537	115.6
3261.611	113.6
3264.682	112.6
3267.751	112.6
3270.818	102.6
3273.882	113.6
3276.943	114.6
3280.002	111.6
3283.059	102.6
3286.113	96.6
3289.165	103.6
3292.214	105.6
3295.261	99.6
3298.306	102.6
3301.348	97.6
3304.387	99.6
3307.425	92.6
3310.459	89.6
3313.492	104.6
3316.521	99.6
3319.549	101.6
3322.574	95.6
3325.597	98.6
3328.617	89.6
3331.635	101.6
3334.65	102.6
3337.663	90.6
3340.674	93.6
3343.682	87.6
3346.688	90.6
3349.691	97.6
3352.692	99.6
3355.691	94.6
3358.687	95.6
3361.681	90.6
3364.673	87.6
3367.662	92.6
3370.649	95.6
3373.633	81.6
3376.615	83.6
3379.595	90.6
3382.572	76.6
3385.547	81.6
3388.52	77.6
3391.49	74.6
3394.458	68.6
3397.424	71.6
3400.387	76.6
3403.348	60.6
3406.307	59.6
3409.263	66.6
3412.217	73.6
3415.168	69.6
3418.118	62.6
3421.065	56.6
3424.009	63.6
3426.951	62.6
3429.891	56.6
3432.829	58.6
3435.764	61.6
3438.697	58.6
3441.628	48.6
3444.557	52.6
3447.483	52.6
3450.407	39.6
3453.328	44.6
3456.247	36.6
3459.164	32.6
3462.079	29.6
3464.991	32.6
3467.902	24.6
3470.809	27.6
3473.715	26.6
3476.618	18.6
3479.519	21.6
3482.418	24.6
3485.315	22.6
3488.209	7.6
3491.101	11.6
3493.99	18.6
3496.878	4.6
3499.763	1.6
3502.646	8.6
3505.527	4.6
3508.405	5.6
3511.281	1.6
3514.155	-0.4
3517.027	-11.4
3519.897	-0.4
3522.764	-2.4
3525.629	-3.4
3528.492	-6.4
3531.352	-11.4
3534.211	-10.4
3537.067	-15.4
3539.921	-9.4
3542.773	-16.4
3545.622	-15.4
3548.469	-15.4
3551.315	-17.4
3554.157	-19.4
3556.998	-16.4
3559.837	-25.4
3562.673	-22.4
3565.507	-19.4
3568.339	-20.4
3571.169	-20.4
3573.996	-16.4
3576.822	-30.4
3579.645	-24.4
3582.466	-23.4
3585.285	-24.4
3588.101	-30.4
3590.916	-23.4
3593.728	-27.4
3596.538	-33.4
3599.346	-34.4
3602.152	-35.4
3604.956	-35.4
3607.757	-29.4
3610.556	-30.4
3613.354	-37.4
3616.149	-38.4
3618.942	-31.4
3621.732	-34.4
3624.521	-29.4
3627.307	-31.4
3630.092	-37.4
3632.874	-35.4
3635.654	-35.4
3638.432	-31.4
3641.208	-36.4
3643.982	-31.4
3646.753	-35.4
3649.523	-34.4
3652.29	-40.4
3655.055	-36.4
3657.818	-40.4
3660.579	-45.4
3663.338	-32.4
3666.095	-37.4
3668.849	-41.4
3671.602	-40.4
3674.352	-34.4
3677.101	-38.4
3679.847	-40.4
3682.591	-44.4
3685.333	-38.4
3688.073	-46.4
3690.811	-38.4
3693.547	-44.4
3696.281	-40.4
3699.013	-42.4
3701.742	-48.4
3704.47	-37.4
3707.195	-47.4
3709.919	-46.4
3712.64	-42.4
3715.359	-43.4
3718.076	-44.4
3720.792	-43.4
3723.505	-43.4
3726.216	-41.4
3728.925	-47.4
3731.632	-42.4
3734.336	-48.4
3737.039	-46.4
3739.74	-49.4
3742.439	-53.4
3745.136	-44.4
3747.83	-44.4
3750.523	-48.4
3753.213	-60.4
3755.902	-48.4
3758.589	-45.4
3761.273	-41.4
3763.956	-50.4
3766.636	-46.4
3769.315	-39.4
3771.991	-42.4
3774.665	-52.4
3777.338	-46.4
3780.008	-48.4
3782.677	-54.4
3785.343	-47.4
3788.007	-47.4
3790.67	-53.4
3793.33	-51.4
3795.989	-52.4
3798.645	-52.4
3801.299	-51.4
3803.952	-49.4
3806.602	-49.4
3809.251	-48.4
3811.897	-54.4
3814.542	-50.4
3817.184	-49.4
3819.825	-46.4
3822.463	-48.4
3825.1	-42.4
3827.735	-55.4
3830.367	-49.4
3832.998	-49.4
3835.627	-50.4
3838.253	-46.4
3840.878	-45.4
3843.501	-48.4
3846.122	-53.4
3848.741	-51.4
3851.358	-46.4
3853.973	-50.4
3856.586	-46.4
3859.197	-48.4
3861.806	-50.4
3864.414	-47.4
3867.019	-47.4
3869.622	-37.4
3872.224	-40.4
3874.823	-29.4
3877.421	-31.4
3880.016	-20.4
3882.61	-7.4
3885.202	-12.4
3887.792	-6.4
3890.38	-23.4
3892.966	-41.4
3895.55	-47.4
3898.132	-45.4
3900.713	-49.4
3903.291	-53.4
3905.868	-43.4
3908.442	-44.4
3911.015	-46.4
3913.586	-49.4
3916.155	-52.4
3918.722	-49.4
3921.287	-52.4
3923.85	-43.4
3926.411	-50.4
3928.971	-61.4
3931.528	-51.4
3934.084	-50.4
3936.638	-50.4
3939.19	-54.4
3941.74	-49.4
3944.288	-48.4
3946.834	-53.4
3949.378	-45.4
3951.921	-51.4
3954.462	-51.4
3957	-40.4
3959.537	-39.4
3962.072	-46.4
3964.606	-46.4
3967.137	-49.4
3969.667	-46.4
3972.194	-45.4
3974.72	-46.4
3977.244	-45.4
3979.766	-52.4
3982.286	-53.4
3984.805	-58.4
3987.321	-48.4
3989.836	-42.4
3992.349	-42.4
3994.86	-47.4
3997.369	-46.4
3999.877	-48.4
4002.382	-47.4
4004.886	-47.4
4007.388	-46.4
4009.888	-45.4
4012.386	-54.4
4014.883	-48.4
4017.377	-44.4
4019.87	-44.4
4022.361	-49.4
4024.85	-52.4
4027.338	-50.4
4029.823	-52.4
4032.307	-54.4
4034.789	-47.4
4037.269	-48.4
4039.747	-48.4
4042.224	-52.4
4044.699	-50.4
4047.172	-53.4
4049.643	-49.4
4052.112	-45.4
4054.58	-48.4
4057.046	-45.4
4059.51	-53.4
4061.972	-52.4
4064.432	-48.4
4066.891	-44.4
4069.348	-46.4
4071.803	-41.4
4074.256	-52.4
4076.708	-53.4
4079.158	-53.4
4081.606	-47.4
4084.052	-48.4
4086.497	-45.4
4088.939	-40.4
4091.38	-48.4
4093.819	-47.4
4096.257	-48.4
4098.693	-48.4
4101.127	-45.4
4103.559	-53.4
4105.989	15.6
4108.418	8.6
4110.845	5.6
4113.27	3.6
4115.694	7.6
4118.115	8.6
4120.535	-47.4
4122.954	-47.4
4125.37	-46.4
4127.785	-47.4
4130.198	-45.4
4132.609	-57.4
4135.019	-53.4
4137.427	-54.4
4139.833	-51.4
4142.237	-52.4
