Data from 2018-3-7_conc=5_n=1_RamanShift_02.txt Node
Date: Wed Mar 07 12:23:22 IST 2018
User: aro
Spectrometer: QEPB0276
Trigger mode: 0
Integration Time (sec): 3.000000E1
Scans to average: 1
Electric dark correction enabled: true
Nonlinearity correction enabled: false
Boxcar width: 0
XAxis mode: Raman Shifts
Number of Pixels in Spectrum: 1044
>>>>>Begin Spectral Data<<<<<
160.701	14.6
166.742	20.6
172.777	53.6
178.805	156.6
184.826	412.6
190.841	887.6
196.849	1463.6
202.85	1908.6
208.845	2086.6
214.833	2083.6
220.815	2058.6
226.789	2054.6
232.758	2052.6
238.719	2062.6
244.674	2064.6
250.623	2018.6
256.565	2005.6
262.5	1975.6
268.429	1960.6
274.351	1940.6
280.267	1918.6
286.176	1915.6
292.079	1935.6
297.975	1913.6
303.865	1907.6
309.748	1914.6
315.625	1909.6
321.495	1884.6
327.359	1917.6
333.217	1912.6
339.068	1910.6
344.912	1933.6
350.751	1934.6
356.583	1928.6
362.408	1904.6
368.227	1921.6
374.04	1935.6
379.847	1936.6
385.647	1951.6
391.44	1951.6
397.228	1950.6
403.009	1984.6
408.784	1996.6
414.553	1996.6
420.315	1984.6
426.071	2008.6
431.821	1976.6
437.565	1984.6
443.302	2005.6
449.033	1995.6
454.758	1960.6
460.477	1965.6
466.189	1936.6
471.896	1945.6
477.596	1926.6
483.29	1920.6
488.978	1925.6
494.66	1907.6
500.335	1859.6
506.005	1834.6
511.668	1755.6
517.325	1696.6
522.977	1631.6
528.622	1618.6
534.261	1593.6
539.894	1563.6
545.521	1559.6
551.141	1550.6
556.756	1539.6
562.365	1514.6
567.968	1498.6
573.565	1507.6
579.155	1490.6
584.74	1493.6
590.319	1461.6
595.892	1481.6
601.459	1452.6
607.02	1478.6
612.575	1450.6
618.124	1428.6
623.667	1432.6
629.204	1413.6
634.735	1392.6
640.261	1399.6
645.781	1396.6
651.294	1385.6
656.802	1367.6
662.304	1362.6
667.8	1376.6
673.29	1370.6
678.775	1350.6
684.254	1364.6
689.726	1345.6
695.193	1362.6
700.655	1336.6
706.11	1314.6
711.56	1317.6
717.004	1313.6
722.442	1286.6
727.874	1289.6
733.301	1289.6
738.722	1290.6
744.137	1286.6
749.547	1289.6
754.951	1282.6
760.349	1300.6
765.741	1280.6
771.128	1283.6
776.509	1316.6
781.885	1310.6
787.254	1326.6
792.618	1308.6
797.977	1310.6
803.33	1292.6
808.677	1298.6
814.019	1285.6
819.355	1245.6
824.686	1263.6
830.011	1262.6
835.33	1237.6
840.644	1250.6
845.952	1245.6
851.255	1222.6
856.552	1231.6
861.844	1209.6
867.13	1211.6
872.41	1214.6
877.686	1200.6
882.955	1204.6
888.219	1183.6
893.478	1184.6
898.731	1140.6
903.979	1140.6
909.221	1126.6
914.458	1128.6
919.69	1125.6
924.916	1120.6
930.136	1121.6
935.351	1132.6
940.561	1142.6
945.766	1131.6
950.965	1126.6
956.158	1118.6
961.347	1102.6
966.529	1101.6
971.707	1058.6
976.879	1063.6
982.046	1055.6
987.208	1041.6
992.364	1045.6
997.515	1040.6
1002.66	1042.6
1007.801	1061.6
1012.936	1069.6
1018.066	1074.6
1023.19	1082.6
1028.309	1087.6
1033.423	1071.6
1038.532	1057.6
1043.636	1058.6
1048.734	1044.6
1053.827	1039.6
1058.915	1042.6
1063.998	1021.6
1069.075	999.6
1074.147	1002.6
1079.214	1014.6
1084.276	1039.6
1089.333	1025.6
1094.385	1024.6
1099.431	1035.6
1104.472	1023.6
1109.509	1006.6
1114.54	984.6
1119.565	991.6
1124.586	965.6
1129.602	962.6
1134.613	952.6
1139.618	941.6
1144.619	945.6
1149.614	954.6
1154.604	954.6
1159.589	968.6
1164.57	957.6
1169.545	954.6
1174.515	981.6
1179.48	939.6
1184.44	954.6
1189.395	938.6
1194.345	929.6
1199.29	917.6
1204.23	927.6
1209.165	915.6
1214.095	935.6
1219.021	939.6
1223.941	954.6
1228.856	947.6
1233.766	950.6
1238.672	962.6
1243.572	942.6
1248.467	943.6
1253.358	924.6
1258.244	923.6
1263.124	894.6
1268	876.6
1272.871	865.6
1277.737	861.6
1282.599	867.6
1287.455	869.6
1292.306	863.6
1297.153	858.6
1301.995	873.6
1306.832	879.6
1311.664	879.6
1316.491	873.6
1321.314	870.6
1326.132	863.6
1330.945	850.6
1335.753	857.6
1340.556	826.6
1345.354	810.6
1350.148	791.6
1354.937	774.6
1359.722	753.6
1364.501	749.6
1369.276	729.6
1374.046	705.6
1378.811	715.6
1383.572	704.6
1388.327	706.6
1393.079	698.6
1397.825	702.6
1402.567	707.6
1407.304	715.6
1412.036	728.6
1416.764	713.6
1421.487	731.6
1426.205	715.6
1430.919	711.6
1435.628	736.6
1440.333	743.6
1445.032	730.6
1449.727	740.6
1454.418	758.6
1459.104	735.6
1463.785	725.6
1468.462	717.6
1473.134	703.6
1477.802	684.6
1482.465	651.6
1487.123	650.6
1491.777	637.6
1496.426	630.6
1501.071	620.6
1505.711	604.6
1510.347	600.6
1514.978	597.6
1519.604	589.6
1524.226	590.6
1528.844	589.6
1533.457	576.6
1538.065	587.6
1542.669	580.6
1547.269	583.6
1551.864	590.6
1556.454	607.6
1561.041	607.6
1565.622	612.6
1570.199	617.6
1574.772	626.6
1579.34	637.6
1583.904	636.6
1588.464	648.6
1593.019	641.6
1597.569	652.6
1602.115	653.6
1606.657	640.6
1611.195	646.6
1615.728	648.6
1620.256	631.6
1624.78	640.6
1629.3	637.6
1633.816	633.6
1638.327	650.6
1642.834	641.6
1647.336	657.6
1651.834	637.6
1656.328	645.6
1660.817	641.6
1665.302	636.6
1669.783	608.6
1674.259	601.6
1678.732	576.6
1683.199	565.6
1687.663	537.6
1692.122	513.6
1696.577	492.6
1701.028	470.6
1705.474	440.6
1709.917	426.6
1714.355	426.6
1718.788	418.6
1723.218	429.6
1727.643	425.6
1732.064	434.6
1736.481	425.6
1740.893	410.6
1745.301	405.6
1749.705	398.6
1754.105	382.6
1758.501	372.6
1762.893	370.6
1767.28	360.6
1771.663	361.6
1776.042	355.6
1780.417	343.6
1784.787	338.6
1789.154	330.6
1793.516	316.6
1797.874	315.6
1802.228	310.6
1806.578	309.6
1810.924	300.6
1815.266	313.6
1819.603	306.6
1823.937	314.6
1828.266	300.6
1832.591	322.6
1836.913	319.6
1841.23	324.6
1845.543	321.6
1849.852	317.6
1854.156	326.6
1858.457	328.6
1862.754	331.6
1867.047	318.6
1871.335	314.6
1875.62	309.6
1879.9	304.6
1884.177	316.6
1888.449	310.6
1892.718	321.6
1896.982	294.6
1901.243	290.6
1905.499	291.6
1909.752	281.6
1914	276.6
1918.245	268.6
1922.485	258.6
1926.722	255.6
1930.954	255.6
1935.183	253.6
1939.408	260.6
1943.628	244.6
1947.845	242.6
1952.058	239.6
1956.267	238.6
1960.472	232.6
1964.673	233.6
1968.87	229.6
1973.063	238.6
1977.252	239.6
1981.438	240.6
1985.619	235.6
1989.797	228.6
1993.971	240.6
1998.14	250.6
2002.306	247.6
2006.469	243.6
2010.627	247.6
2014.781	248.6
2018.932	242.6
2023.078	241.6
2027.221	237.6
2031.36	236.6
2035.495	229.6
2039.627	222.6
2043.754	230.6
2047.878	229.6
2051.998	230.6
2056.114	226.6
2060.226	215.6
2064.334	219.6
2068.439	209.6
2072.54	217.6
2076.637	214.6
2080.73	219.6
2084.82	203.6
2088.906	206.6
2092.988	211.6
2097.066	199.6
2101.14	203.6
2105.211	195.6
2109.278	192.6
2113.342	180.6
2117.401	186.6
2121.457	192.6
2125.509	190.6
2129.558	188.6
2133.602	185.6
2137.643	186.6
2141.681	181.6
2145.714	197.6
2149.744	194.6
2153.77	194.6
2157.793	184.6
2161.812	195.6
2165.827	195.6
2169.838	179.6
2173.846	178.6
2177.851	176.6
2181.851	171.6
2185.848	178.6
2189.841	173.6
2193.831	163.6
2197.817	173.6
2201.799	171.6
2205.778	175.6
2209.753	173.6
2213.725	173.6
2217.693	171.6
2221.657	166.6
2225.618	169.6
2229.575	161.6
2233.529	172.6
2237.479	166.6
2241.425	169.6
2245.368	164.6
2249.307	157.6
2253.243	154.6
2257.175	152.6
2261.104	143.6
2265.029	152.6
2268.95	139.6
2272.868	144.6
2276.783	145.6
2280.694	132.6
2284.601	142.6
2288.505	143.6
2292.405	139.6
2296.302	153.6
2300.195	138.6
2304.085	126.6
2307.971	137.6
2311.854	130.6
2315.734	128.6
2319.609	129.6
2323.482	128.6
2327.351	136.6
2331.216	136.6
2335.078	146.6
2338.937	139.6
2342.792	123.6
2346.643	128.6
2350.492	126.6
2354.336	132.6
2358.178	121.6
2362.015	128.6
2365.85	128.6
2369.681	134.6
2373.508	138.6
2377.333	134.6
2381.153	128.6
2384.971	130.6
2388.785	129.6
2392.595	128.6
2396.402	135.6
2400.206	130.6
2404.007	123.6
2407.804	124.6
2411.597	127.6
2415.388	122.6
2419.174	129.6
2422.958	130.6
2426.738	124.6
2430.515	115.6
2434.289	127.6
2438.059	113.6
2441.825	117.6
2445.589	118.6
2449.349	116.6
2453.106	120.6
2456.859	113.6
2460.61	109.6
2464.356	117.6
2468.1	108.6
2471.84	106.6
2475.577	106.6
2479.311	93.6
2483.041	101.6
2486.768	98.6
2490.492	100.6
2494.213	97.6
2497.93	103.6
2501.644	108.6
2505.355	91.6
2509.062	93.6
2512.766	95.6
2516.467	94.6
2520.165	88.6
2523.859	99.6
2527.551	88.6
2531.239	86.6
2534.923	86.6
2538.605	79.6
2542.283	79.6
2545.958	86.6
2549.63	76.6
2553.299	76.6
2556.964	74.6
2560.626	78.6
2564.285	70.6
2567.941	71.6
2571.594	71.6
2575.243	78.6
2578.89	70.6
2582.533	66.6
2586.173	64.6
2589.809	68.6
2593.443	76.6
2597.073	69.6
2600.701	73.6
2604.325	59.6
2607.946	59.6
2611.564	69.6
2615.178	67.6
2618.79	62.6
2622.398	60.6
2626.004	69.6
2629.606	55.6
2633.205	61.6
2636.801	59.6
2640.394	62.6
2643.983	55.6
2647.57	58.6
2651.153	52.6
2654.734	51.6
2658.311	58.6
2661.885	55.6
2665.456	55.6
2669.025	55.6
2672.589	55.6
2676.151	56.6
2679.71	51.6
2683.266	54.6
2686.819	60.6
2690.368	49.6
2693.915	56.6
2697.458	50.6
2700.999	52.6
2704.536	43.6
2708.071	46.6
2711.602	43.6
2715.13	36.6
2718.656	41.6
2722.178	38.6
2725.697	30.6
2729.214	35.6
2732.727	39.6
2736.237	43.6
2739.744	26.6
2743.249	35.6
2746.75	29.6
2750.248	30.6
2753.743	28.6
2757.236	29.6
2760.725	32.6
2764.211	21.6
2767.695	24.6
2771.175	19.6
2774.652	23.6
2778.127	23.6
2781.598	21.6
2785.067	28.6
2788.532	23.6
2791.995	28.6
2795.455	25.6
2798.911	25.6
2802.365	33.6
2805.816	25.6
2809.264	17.6
2812.709	23.6
2816.151	29.6
2819.59	39.6
2823.026	25.6
2826.46	31.6
2829.89	28.6
2833.318	21.6
2836.742	29.6
2840.164	27.6
2843.583	27.6
2846.999	33.6
2850.412	29.6
2853.822	32.6
2857.229	37.6
2860.634	23.6
2864.035	24.6
2867.434	30.6
2870.83	32.6
2874.223	39.6
2877.613	34.6
2881	39.6
2884.385	40.6
2887.766	42.6
2891.145	37.6
2894.521	42.6
2897.894	42.6
2901.264	42.6
2904.631	40.6
2907.996	46.6
2911.358	46.6
2914.717	38.6
2918.073	47.6
2921.426	42.6
2924.777	43.6
2928.124	53.6
2931.469	50.6
2934.811	58.6
2938.15	54.6
2941.487	68.6
2944.821	55.6
2948.152	61.6
2951.48	53.6
2954.805	54.6
2958.128	53.6
2961.447	59.6
2964.765	52.6
2968.079	56.6
2971.39	55.6
2974.699	54.6
2978.005	64.6
2981.308	53.6
2984.609	52.6
2987.907	51.6
2991.202	56.6
2994.494	48.6
2997.784	56.6
3001.07	52.6
3004.355	56.6
3007.636	55.6
3010.915	58.6
3014.191	57.6
3017.464	59.6
3020.734	65.6
3024.002	60.6
3027.267	56.6
3030.53	67.6
3033.789	57.6
3037.046	68.6
3040.301	70.6
3043.552	76.6
3046.801	80.6
3050.048	77.6
3053.291	78.6
3056.532	80.6
3059.771	85.6
3063.006	88.6
3066.239	93.6
3069.469	108.6
3072.697	99.6
3075.922	98.6
3079.144	105.6
3082.364	111.6
3085.581	107.6
3088.795	117.6
3092.007	120.6
3095.216	123.6
3098.423	120.6
3101.627	119.6
3104.828	137.6
3108.026	137.6
3111.222	131.6
3114.416	152.6
3117.607	136.6
3120.795	146.6
3123.98	148.6
3127.163	156.6
3130.344	157.6
3133.521	159.6
3136.696	163.6
3139.869	166.6
3143.039	174.6
3146.206	172.6
3149.371	170.6
3152.533	170.6
3155.693	178.6
3158.85	179.6
3162.005	185.6
3165.157	184.6
3168.306	184.6
3171.453	186.6
3174.597	185.6
3177.739	188.6
3180.878	195.6
3184.014	179.6
3187.149	177.6
3190.28	185.6
3193.409	185.6
3196.536	185.6
3199.659	194.6
3202.781	184.6
3205.9	187.6
3209.016	179.6
3212.13	194.6
3215.241	187.6
3218.35	172.6
3221.456	180.6
3224.56	176.6
3227.661	181.6
3230.76	175.6
3233.856	169.6
3236.95	169.6
3240.041	164.6
3243.13	164.6
3246.216	156.6
3249.3	153.6
3252.382	155.6
3255.46	154.6
3258.537	151.6
3261.611	148.6
3264.682	144.6
3267.751	145.6
3270.818	136.6
3273.882	142.6
3276.943	133.6
3280.002	144.6
3283.059	144.6
3286.113	133.6
3289.165	134.6
3292.214	133.6
3295.261	130.6
3298.306	132.6
3301.348	133.6
3304.387	135.6
3307.425	129.6
3310.459	125.6
3313.492	129.6
3316.521	125.6
3319.549	131.6
3322.574	129.6
3325.597	123.6
3328.617	122.6
3331.635	132.6
3334.65	136.6
3337.663	120.6
3340.674	118.6
3343.682	128.6
3346.688	124.6
3349.691	128.6
3352.692	123.6
3355.691	125.6
3358.687	126.6
3361.681	123.6
3364.673	123.6
3367.662	121.6
3370.649	121.6
3373.633	109.6
3376.615	109.6
3379.595	114.6
3382.572	106.6
3385.547	109.6
3388.52	103.6
3391.49	100.6
3394.458	100.6
3397.424	97.6
3400.387	101.6
3403.348	89.6
3406.307	92.6
3409.263	100.6
3412.217	93.6
3415.168	95.6
3418.118	92.6
3421.065	87.6
3424.009	85.6
3426.951	80.6
3429.891	79.6
3432.829	77.6
3435.764	77.6
3438.697	72.6
3441.628	69.6
3444.557	68.6
3447.483	66.6
3450.407	56.6
3453.328	60.6
3456.247	56.6
3459.164	54.6
3462.079	49.6
3464.991	47.6
3467.902	43.6
3470.809	46.6
3473.715	40.6
3476.618	35.6
3479.519	31.6
3482.418	29.6
3485.315	30.6
3488.209	19.6
3491.101	21.6
3493.99	19.6
3496.878	8.6
3499.763	16.6
3502.646	15.6
3505.527	7.6
3508.405	9.6
3511.281	2.6
3514.155	0.6
3517.027	-3.4
3519.897	8.6
3522.764	1.6
3525.629	-1.4
3528.492	-6.4
3531.352	-11.4
3534.211	-9.4
3537.067	-11.4
3539.921	-10.4
3542.773	-20.4
3545.622	-17.4
3548.469	-18.4
3551.315	-19.4
3554.157	-18.4
3556.998	-18.4
3559.837	-22.4
3562.673	-25.4
3565.507	-17.4
3568.339	-18.4
3571.169	-28.4
3573.996	-19.4
3576.822	-29.4
3579.645	-31.4
3582.466	-28.4
3585.285	-28.4
3588.101	-29.4
3590.916	-24.4
3593.728	-29.4
3596.538	-34.4
3599.346	-36.4
3602.152	-36.4
3604.956	-35.4
3607.757	-34.4
3610.556	-35.4
3613.354	-40.4
3616.149	-40.4
3618.942	-37.4
3621.732	-41.4
3624.521	-38.4
3627.307	-35.4
3630.092	-41.4
3632.874	-38.4
3635.654	-42.4
3638.432	-38.4
3641.208	-36.4
3643.982	-40.4
3646.753	-45.4
3649.523	-42.4
3652.29	-49.4
3655.055	-45.4
3657.818	-53.4
3660.579	-49.4
3663.338	-45.4
3666.095	-51.4
3668.849	-51.4
3671.602	-47.4
3674.352	-48.4
3677.101	-52.4
3679.847	-43.4
3682.591	-46.4
3685.333	-45.4
3688.073	-55.4
3690.811	-51.4
3693.547	-48.4
3696.281	-47.4
3699.013	-51.4
3701.742	-55.4
3704.47	-43.4
3707.195	-51.4
3709.919	-54.4
3712.64	-51.4
3715.359	-55.4
3718.076	-57.4
3720.792	-54.4
3723.505	-56.4
3726.216	-49.4
3728.925	-58.4
3731.632	-51.4
3734.336	-53.4
3737.039	-48.4
3739.74	-58.4
3742.439	-61.4
3745.136	-54.4
3747.83	-55.4
3750.523	-56.4
3753.213	-66.4
3755.902	-54.4
3758.589	-56.4
3761.273	-55.4
3763.956	-58.4
3766.636	-51.4
3769.315	-53.4
3771.991	-58.4
3774.665	-61.4
3777.338	-56.4
3780.008	-52.4
3782.677	-60.4
3785.343	-57.4
3788.007	-57.4
3790.67	-58.4
3793.33	-50.4
3795.989	-55.4
3798.645	-55.4
3801.299	-57.4
3803.952	-60.4
3806.602	-62.4
3809.251	-59.4
3811.897	-58.4
3814.542	-64.4
3817.184	-59.4
3819.825	-55.4
3822.463	-55.4
3825.1	-55.4
3827.735	-62.4
3830.367	-59.4
3832.998	-60.4
3835.627	-55.4
3838.253	-55.4
3840.878	-52.4
3843.501	-52.4
3846.122	-58.4
3848.741	-53.4
3851.358	-57.4
3853.973	-54.4
3856.586	-52.4
3859.197	-60.4
3861.806	-55.4
3864.414	-55.4
3867.019	-60.4
3869.622	-53.4
3872.224	-45.4
3874.823	-35.4
3877.421	-30.4
3880.016	-17.4
3882.61	2.6
3885.202	0.6
3887.792	-6.4
3890.38	-19.4
3892.966	-44.4
3895.55	-55.4
3898.132	-50.4
3900.713	-58.4
3903.291	-55.4
3905.868	-53.4
3908.442	-57.4
3911.015	-54.4
3913.586	-62.4
3916.155	-57.4
3918.722	-56.4
3921.287	-59.4
3923.85	-58.4
3926.411	-60.4
3928.971	-64.4
3931.528	-60.4
3934.084	-58.4
3936.638	-56.4
3939.19	-65.4
3941.74	-57.4
3944.288	-63.4
3946.834	-57.4
3949.378	-62.4
3951.921	-64.4
3954.462	-61.4
3957	-57.4
3959.537	-50.4
3962.072	-54.4
3964.606	-52.4
3967.137	-54.4
3969.667	-58.4
3972.194	-56.4
3974.72	-49.4
3977.244	-53.4
3979.766	-58.4
3982.286	-61.4
3984.805	-70.4
3987.321	-59.4
3989.836	-56.4
3992.349	-58.4
3994.86	-59.4
3997.369	-63.4
3999.877	-62.4
4002.382	-62.4
4004.886	-53.4
4007.388	-55.4
4009.888	-57.4
4012.386	-60.4
4014.883	-55.4
4017.377	-54.4
4019.87	-58.4
4022.361	-56.4
4024.85	-54.4
4027.338	-60.4
4029.823	-58.4
4032.307	-62.4
4034.789	-57.4
4037.269	-57.4
4039.747	-59.4
4042.224	-60.4
4044.699	-60.4
4047.172	-61.4
4049.643	-56.4
4052.112	-59.4
4054.58	-61.4
4057.046	-52.4
4059.51	-58.4
4061.972	-63.4
4064.432	-54.4
4066.891	-54.4
4069.348	-50.4
4071.803	-51.4
4074.256	-55.4
4076.708	-62.4
4079.158	-63.4
4081.606	-59.4
4084.052	-58.4
4086.497	-54.4
4088.939	-57.4
4091.38	-66.4
4093.819	-61.4
4096.257	-59.4
4098.693	-60.4
4101.127	-57.4
4103.559	-65.4
4105.989	15.6
4108.418	9.6
4110.845	6.6
4113.27	14.6
4115.694	12.6
4118.115	16.6
4120.535	-57.4
4122.954	-60.4
4125.37	-59.4
4127.785	-58.4
4130.198	-56.4
4132.609	-61.4
4135.019	-63.4
4137.427	-61.4
4139.833	-61.4
4142.237	-59.4
