Data from 2018-3-7_conc=2_n=4_RamanShift_04.txt Node
Date: Wed Mar 07 10:49:52 IST 2018
User: aro
Spectrometer: QEPB0276
Trigger mode: 0
Integration Time (sec): 3.000000E1
Scans to average: 1
Electric dark correction enabled: true
Nonlinearity correction enabled: false
Boxcar width: 0
XAxis mode: Raman Shifts
Number of Pixels in Spectrum: 1044
>>>>>Begin Spectral Data<<<<<
160.701	13.6
166.742	18.6
172.777	49.6
178.805	148.6
184.826	377.6
190.841	784.6
196.849	1287.6
202.85	1662.6
208.845	1827.6
214.833	1831.6
220.815	1821.6
226.789	1804.6
232.758	1828.6
238.719	1825.6
244.674	1808.6
250.623	1821.6
256.565	1788.6
262.5	1756.6
268.429	1760.6
274.351	1759.6
280.267	1750.6
286.176	1757.6
292.079	1751.6
297.975	1738.6
303.865	1764.6
309.748	1736.6
315.625	1739.6
321.495	1749.6
327.359	1753.6
333.217	1775.6
339.068	1768.6
344.912	1789.6
350.751	1780.6
356.583	1772.6
362.408	1791.6
368.227	1784.6
374.04	1815.6
379.847	1824.6
385.647	1819.6
391.44	1834.6
397.228	1824.6
403.009	1842.6
408.784	1844.6
414.553	1864.6
420.315	1860.6
426.071	1849.6
431.821	1878.6
437.565	1881.6
443.302	1856.6
449.033	1854.6
454.758	1852.6
460.477	1827.6
466.189	1806.6
471.896	1796.6
477.596	1794.6
483.29	1774.6
488.978	1774.6
494.66	1763.6
500.335	1716.6
506.005	1661.6
511.668	1589.6
517.325	1525.6
522.977	1466.6
528.622	1416.6
534.261	1404.6
539.894	1369.6
545.521	1328.6
551.141	1331.6
556.756	1318.6
562.365	1305.6
567.968	1290.6
573.565	1297.6
579.155	1288.6
584.74	1281.6
590.319	1274.6
595.892	1278.6
601.459	1269.6
607.02	1263.6
612.575	1251.6
618.124	1243.6
623.667	1225.6
629.204	1204.6
634.735	1198.6
640.261	1192.6
645.781	1176.6
651.294	1179.6
656.802	1164.6
662.304	1161.6
667.8	1163.6
673.29	1173.6
678.775	1154.6
684.254	1150.6
689.726	1142.6
695.193	1125.6
700.655	1126.6
706.11	1128.6
711.56	1124.6
717.004	1108.6
722.442	1089.6
727.874	1085.6
733.301	1080.6
738.722	1087.6
744.137	1086.6
749.547	1080.6
754.951	1086.6
760.349	1075.6
765.741	1096.6
771.128	1081.6
776.509	1107.6
781.885	1127.6
787.254	1125.6
792.618	1131.6
797.977	1120.6
803.33	1112.6
808.677	1110.6
814.019	1104.6
819.355	1085.6
824.686	1074.6
830.011	1074.6
835.33	1065.6
840.644	1062.6
845.952	1063.6
851.255	1040.6
856.552	1062.6
861.844	1046.6
867.13	1018.6
872.41	1033.6
877.686	1018.6
882.955	1012.6
888.219	1014.6
893.478	991.6
898.731	967.6
903.979	953.6
909.221	949.6
914.458	942.6
919.69	941.6
924.916	960.6
930.136	954.6
935.351	939.6
940.561	945.6
945.766	942.6
950.965	944.6
956.158	934.6
961.347	912.6
966.529	918.6
971.707	888.6
976.879	887.6
982.046	878.6
987.208	877.6
992.364	873.6
997.515	880.6
1002.66	877.6
1007.801	889.6
1012.936	904.6
1018.066	901.6
1023.19	919.6
1028.309	904.6
1033.423	898.6
1038.532	912.6
1043.636	895.6
1048.734	886.6
1053.827	885.6
1058.915	862.6
1063.998	846.6
1069.075	842.6
1074.147	864.6
1079.214	856.6
1084.276	856.6
1089.333	872.6
1094.385	859.6
1099.431	854.6
1104.472	862.6
1109.509	856.6
1114.54	835.6
1119.565	828.6
1124.586	817.6
1129.602	803.6
1134.613	794.6
1139.618	797.6
1144.619	798.6
1149.614	815.6
1154.604	799.6
1159.589	804.6
1164.57	815.6
1169.545	795.6
1174.515	797.6
1179.48	803.6
1184.44	784.6
1189.395	782.6
1194.345	772.6
1199.29	771.6
1204.23	778.6
1209.165	781.6
1214.095	781.6
1219.021	788.6
1223.941	793.6
1228.856	794.6
1233.766	795.6
1238.672	795.6
1243.572	792.6
1248.467	792.6
1253.358	780.6
1258.244	759.6
1263.124	746.6
1268	742.6
1272.871	719.6
1277.737	727.6
1282.599	726.6
1287.455	716.6
1292.306	722.6
1297.153	725.6
1301.995	723.6
1306.832	732.6
1311.664	740.6
1316.491	734.6
1321.314	734.6
1326.132	722.6
1330.945	712.6
1335.753	697.6
1340.556	676.6
1345.354	663.6
1350.148	659.6
1354.937	641.6
1359.722	621.6
1364.501	624.6
1369.276	608.6
1374.046	598.6
1378.811	606.6
1383.572	598.6
1388.327	600.6
1393.079	579.6
1397.825	594.6
1402.567	601.6
1407.304	603.6
1412.036	610.6
1416.764	597.6
1421.487	599.6
1426.205	606.6
1430.919	605.6
1435.628	605.6
1440.333	625.6
1445.032	616.6
1449.727	629.6
1454.418	618.6
1459.104	617.6
1463.785	605.6
1468.462	586.6
1473.134	576.6
1477.802	558.6
1482.465	545.6
1487.123	532.6
1491.777	529.6
1496.426	524.6
1501.071	508.6
1505.711	504.6
1510.347	498.6
1514.978	505.6
1519.604	494.6
1524.226	488.6
1528.844	499.6
1533.457	498.6
1538.065	484.6
1542.669	495.6
1547.269	487.6
1551.864	497.6
1556.454	512.6
1561.041	517.6
1565.622	517.6
1570.199	505.6
1574.772	516.6
1579.34	518.6
1583.904	526.6
1588.464	546.6
1593.019	554.6
1597.569	540.6
1602.115	545.6
1606.657	544.6
1611.195	533.6
1615.728	528.6
1620.256	527.6
1624.78	517.6
1629.3	525.6
1633.816	525.6
1638.327	526.6
1642.834	525.6
1647.336	535.6
1651.834	524.6
1656.328	535.6
1660.817	520.6
1665.302	517.6
1669.783	498.6
1674.259	497.6
1678.732	479.6
1683.199	463.6
1687.663	443.6
1692.122	426.6
1696.577	410.6
1701.028	400.6
1705.474	372.6
1709.917	371.6
1714.355	354.6
1718.788	363.6
1723.218	355.6
1727.643	360.6
1732.064	347.6
1736.481	360.6
1740.893	352.6
1745.301	349.6
1749.705	345.6
1754.105	321.6
1758.501	320.6
1762.893	316.6
1767.28	304.6
1771.663	299.6
1776.042	294.6
1780.417	284.6
1784.787	286.6
1789.154	284.6
1793.516	271.6
1797.874	270.6
1802.228	276.6
1806.578	268.6
1810.924	258.6
1815.266	267.6
1819.603	268.6
1823.937	271.6
1828.266	263.6
1832.591	269.6
1836.913	267.6
1841.23	272.6
1845.543	261.6
1849.852	276.6
1854.156	279.6
1858.457	269.6
1862.754	276.6
1867.047	277.6
1871.335	268.6
1875.62	258.6
1879.9	263.6
1884.177	253.6
1888.449	257.6
1892.718	255.6
1896.982	252.6
1901.243	237.6
1905.499	246.6
1909.752	233.6
1914	232.6
1918.245	235.6
1922.485	223.6
1926.722	216.6
1930.954	218.6
1935.183	229.6
1939.408	216.6
1943.628	216.6
1947.845	219.6
1952.058	218.6
1956.267	207.6
1960.472	214.6
1964.673	204.6
1968.87	201.6
1973.063	209.6
1977.252	211.6
1981.438	208.6
1985.619	199.6
1989.797	198.6
1993.971	203.6
1998.14	201.6
2002.306	216.6
2006.469	214.6
2010.627	211.6
2014.781	219.6
2018.932	205.6
2023.078	210.6
2027.221	193.6
2031.36	205.6
2035.495	195.6
2039.627	184.6
2043.754	188.6
2047.878	190.6
2051.998	195.6
2056.114	192.6
2060.226	190.6
2064.334	177.6
2068.439	186.6
2072.54	174.6
2076.637	182.6
2080.73	180.6
2084.82	181.6
2088.906	178.6
2092.988	175.6
2097.066	169.6
2101.14	173.6
2105.211	172.6
2109.278	173.6
2113.342	163.6
2117.401	165.6
2121.457	157.6
2125.509	158.6
2129.558	158.6
2133.602	159.6
2137.643	158.6
2141.681	162.6
2145.714	160.6
2149.744	166.6
2153.77	165.6
2157.793	160.6
2161.812	172.6
2165.827	159.6
2169.838	155.6
2173.846	156.6
2177.851	160.6
2181.851	143.6
2185.848	150.6
2189.841	144.6
2193.831	144.6
2197.817	142.6
2201.799	140.6
2205.778	136.6
2209.753	142.6
2213.725	141.6
2217.693	143.6
2221.657	140.6
2225.618	139.6
2229.575	139.6
2233.529	143.6
2237.479	141.6
2241.425	132.6
2245.368	134.6
2249.307	132.6
2253.243	128.6
2257.175	126.6
2261.104	124.6
2265.029	121.6
2268.95	126.6
2272.868	126.6
2276.783	121.6
2280.694	116.6
2284.601	115.6
2288.505	119.6
2292.405	110.6
2296.302	119.6
2300.195	110.6
2304.085	109.6
2307.971	109.6
2311.854	102.6
2315.734	104.6
2319.609	108.6
2323.482	110.6
2327.351	116.6
2331.216	118.6
2335.078	135.6
2338.937	118.6
2342.792	112.6
2346.643	110.6
2350.492	112.6
2354.336	106.6
2358.178	104.6
2362.015	108.6
2365.85	105.6
2369.681	109.6
2373.508	112.6
2377.333	101.6
2381.153	108.6
2384.971	108.6
2388.785	101.6
2392.595	99.6
2396.402	104.6
2400.206	104.6
2404.007	105.6
2407.804	108.6
2411.597	102.6
2415.388	100.6
2419.174	103.6
2422.958	107.6
2426.738	99.6
2430.515	93.6
2434.289	99.6
2438.059	93.6
2441.825	101.6
2445.589	94.6
2449.349	94.6
2453.106	98.6
2456.859	94.6
2460.61	92.6
2464.356	90.6
2468.1	87.6
2471.84	84.6
2475.577	72.6
2479.311	81.6
2483.041	79.6
2486.768	86.6
2490.492	83.6
2494.213	80.6
2497.93	86.6
2501.644	86.6
2505.355	76.6
2509.062	74.6
2512.766	74.6
2516.467	62.6
2520.165	70.6
2523.859	72.6
2527.551	67.6
2531.239	65.6
2534.923	66.6
2538.605	66.6
2542.283	62.6
2545.958	63.6
2549.63	68.6
2553.299	67.6
2556.964	55.6
2560.626	58.6
2564.285	61.6
2567.941	55.6
2571.594	49.6
2575.243	55.6
2578.89	51.6
2582.533	51.6
2586.173	56.6
2589.809	57.6
2593.443	57.6
2597.073	53.6
2600.701	53.6
2604.325	47.6
2607.946	44.6
2611.564	53.6
2615.178	49.6
2618.79	51.6
2622.398	47.6
2626.004	48.6
2629.606	40.6
2633.205	45.6
2636.801	42.6
2640.394	54.6
2643.983	45.6
2647.57	45.6
2651.153	47.6
2654.734	42.6
2658.311	42.6
2661.885	46.6
2665.456	43.6
2669.025	46.6
2672.589	38.6
2676.151	43.6
2679.71	36.6
2683.266	43.6
2686.819	44.6
2690.368	32.6
2693.915	38.6
2697.458	28.6
2700.999	39.6
2704.536	35.6
2708.071	37.6
2711.602	30.6
2715.13	28.6
2718.656	37.6
2722.178	27.6
2725.697	28.6
2729.214	24.6
2732.727	31.6
2736.237	26.6
2739.744	21.6
2743.249	23.6
2746.75	27.6
2750.248	27.6
2753.743	20.6
2757.236	21.6
2760.725	21.6
2764.211	21.6
2767.695	14.6
2771.175	15.6
2774.652	11.6
2778.127	19.6
2781.598	13.6
2785.067	15.6
2788.532	8.6
2791.995	21.6
2795.455	12.6
2798.911	19.6
2802.365	22.6
2805.816	19.6
2809.264	18.6
2812.709	16.6
2816.151	20.6
2819.59	33.6
2823.026	18.6
2826.46	16.6
2829.89	15.6
2833.318	15.6
2836.742	19.6
2840.164	18.6
2843.583	20.6
2846.999	25.6
2850.412	19.6
2853.822	20.6
2857.229	27.6
2860.634	18.6
2864.035	13.6
2867.434	26.6
2870.83	30.6
2874.223	29.6
2877.613	26.6
2881	28.6
2884.385	33.6
2887.766	38.6
2891.145	31.6
2894.521	27.6
2897.894	32.6
2901.264	32.6
2904.631	29.6
2907.996	25.6
2911.358	42.6
2914.717	34.6
2918.073	37.6
2921.426	30.6
2924.777	44.6
2928.124	45.6
2931.469	43.6
2934.811	47.6
2938.15	46.6
2941.487	57.6
2944.821	40.6
2948.152	48.6
2951.48	40.6
2954.805	42.6
2958.128	42.6
2961.447	46.6
2964.765	30.6
2968.079	44.6
2971.39	41.6
2974.699	33.6
2978.005	42.6
2981.308	38.6
2984.609	37.6
2987.907	36.6
2991.202	39.6
2994.494	39.6
2997.784	32.6
3001.07	40.6
3004.355	38.6
3007.636	45.6
3010.915	45.6
3014.191	39.6
3017.464	44.6
3020.734	46.6
3024.002	47.6
3027.267	48.6
3030.53	49.6
3033.789	48.6
3037.046	52.6
3040.301	50.6
3043.552	56.6
3046.801	52.6
3050.048	54.6
3053.291	58.6
3056.532	57.6
3059.771	52.6
3063.006	65.6
3066.239	65.6
3069.469	78.6
3072.697	79.6
3075.922	79.6
3079.144	79.6
3082.364	91.6
3085.581	82.6
3088.795	86.6
3092.007	89.6
3095.216	91.6
3098.423	76.6
3101.627	82.6
3104.828	98.6
3108.026	100.6
3111.222	109.6
3114.416	110.6
3117.607	104.6
3120.795	105.6
3123.98	116.6
3127.163	119.6
3130.344	120.6
3133.521	120.6
3136.696	121.6
3139.869	124.6
3143.039	129.6
3146.206	131.6
3149.371	129.6
3152.533	127.6
3155.693	136.6
3158.85	131.6
3162.005	139.6
3165.157	137.6
3168.306	133.6
3171.453	140.6
3174.597	133.6
3177.739	145.6
3180.878	145.6
3184.014	132.6
3187.149	145.6
3190.28	140.6
3193.409	138.6
3196.536	134.6
3199.659	139.6
3202.781	143.6
3205.9	138.6
3209.016	139.6
3212.13	146.6
3215.241	138.6
3218.35	134.6
3221.456	138.6
3224.56	126.6
3227.661	138.6
3230.76	128.6
3233.856	119.6
3236.95	115.6
3240.041	115.6
3243.13	119.6
3246.216	114.6
3249.3	110.6
3252.382	115.6
3255.46	115.6
3258.537	116.6
3261.611	111.6
3264.682	109.6
3267.751	110.6
3270.818	90.6
3273.882	104.6
3276.943	100.6
3280.002	100.6
3283.059	98.6
3286.113	99.6
3289.165	100.6
3292.214	96.6
3295.261	109.6
3298.306	100.6
3301.348	97.6
3304.387	93.6
3307.425	85.6
3310.459	87.6
3313.492	85.6
3316.521	83.6
3319.549	103.6
3322.574	94.6
3325.597	91.6
3328.617	93.6
3331.635	95.6
3334.65	98.6
3337.663	85.6
3340.674	88.6
3343.682	86.6
3346.688	87.6
3349.691	97.6
3352.692	88.6
3355.691	93.6
3358.687	85.6
3361.681	89.6
3364.673	87.6
3367.662	87.6
3370.649	84.6
3373.633	79.6
3376.615	80.6
3379.595	79.6
3382.572	66.6
3385.547	73.6
3388.52	66.6
3391.49	66.6
3394.458	70.6
3397.424	67.6
3400.387	69.6
3403.348	62.6
3406.307	65.6
3409.263	63.6
3412.217	65.6
3415.168	64.6
3418.118	60.6
3421.065	56.6
3424.009	54.6
3426.951	54.6
3429.891	48.6
3432.829	51.6
3435.764	59.6
3438.697	52.6
3441.628	35.6
3444.557	42.6
3447.483	41.6
3450.407	29.6
3453.328	35.6
3456.247	29.6
3459.164	29.6
3462.079	23.6
3464.991	25.6
3467.902	21.6
3470.809	20.6
3473.715	19.6
3476.618	16.6
3479.519	14.6
3482.418	16.6
3485.315	4.6
3488.209	4.6
3491.101	0.6
3493.99	7.6
3496.878	6.6
3499.763	-2.4
3502.646	1.6
3505.527	4.6
3508.405	0.6
3511.281	-0.4
3514.155	-4.4
3517.027	-8.4
3519.897	-2.4
3522.764	-8.4
3525.629	-8.4
3528.492	-13.4
3531.352	-18.4
3534.211	-17.4
3537.067	-21.4
3539.921	-21.4
3542.773	-24.4
3545.622	-22.4
3548.469	-19.4
3551.315	-23.4
3554.157	-22.4
3556.998	-21.4
3559.837	-26.4
3562.673	-28.4
3565.507	-24.4
3568.339	-24.4
3571.169	-34.4
3573.996	-24.4
3576.822	-34.4
3579.645	-29.4
3582.466	-21.4
3585.285	-34.4
3588.101	-37.4
3590.916	-33.4
3593.728	-41.4
3596.538	-41.4
3599.346	-38.4
3602.152	-34.4
3604.956	-35.4
3607.757	-33.4
3610.556	-33.4
3613.354	-44.4
3616.149	-42.4
3618.942	-39.4
3621.732	-42.4
3624.521	-42.4
3627.307	-40.4
3630.092	-45.4
3632.874	-47.4
3635.654	-45.4
3638.432	-41.4
3641.208	-41.4
3643.982	-39.4
3646.753	-41.4
3649.523	-38.4
3652.29	-50.4
3655.055	-44.4
3657.818	-49.4
3660.579	-49.4
3663.338	-44.4
3666.095	-49.4
3668.849	-46.4
3671.602	-48.4
3674.352	-40.4
3677.101	-46.4
3679.847	-43.4
3682.591	-52.4
3685.333	-43.4
3688.073	-52.4
3690.811	-43.4
3693.547	-50.4
3696.281	-51.4
3699.013	-46.4
3701.742	-53.4
3704.47	-51.4
3707.195	-52.4
3709.919	-48.4
3712.64	-46.4
3715.359	-48.4
3718.076	-51.4
3720.792	-55.4
3723.505	-51.4
3726.216	-52.4
3728.925	-54.4
3731.632	-48.4
3734.336	-58.4
3737.039	-50.4
3739.74	-52.4
3742.439	-56.4
3745.136	-56.4
3747.83	-53.4
3750.523	-52.4
3753.213	-65.4
3755.902	-53.4
3758.589	-54.4
3761.273	-52.4
3763.956	-54.4
3766.636	-56.4
3769.315	-50.4
3771.991	-55.4
3774.665	-57.4
3777.338	-54.4
3780.008	-53.4
3782.677	-53.4
3785.343	-52.4
3788.007	-56.4
3790.67	-56.4
3793.33	-50.4
3795.989	-60.4
3798.645	-58.4
3801.299	-57.4
3803.952	-57.4
3806.602	-56.4
3809.251	-56.4
3811.897	-58.4
3814.542	-59.4
3817.184	-53.4
3819.825	-46.4
3822.463	-54.4
3825.1	-49.4
3827.735	-56.4
3830.367	-58.4
3832.998	-55.4
3835.627	-54.4
3838.253	-51.4
3840.878	-46.4
3843.501	-52.4
3846.122	-53.4
3848.741	-57.4
3851.358	-53.4
3853.973	-58.4
3856.586	-56.4
3859.197	-55.4
3861.806	-52.4
3864.414	-57.4
3867.019	-60.4
3869.622	-49.4
3872.224	-46.4
3874.823	-34.4
3877.421	-28.4
3880.016	-25.4
3882.61	-1.4
3885.202	-5.4
3887.792	-13.4
3890.38	-30.4
3892.966	-41.4
3895.55	-47.4
3898.132	-52.4
3900.713	-53.4
3903.291	-58.4
3905.868	-52.4
3908.442	-58.4
3911.015	-53.4
3913.586	-59.4
3916.155	-53.4
3918.722	-50.4
3921.287	-56.4
3923.85	-50.4
3926.411	-58.4
3928.971	-62.4
3931.528	-59.4
3934.084	-53.4
3936.638	-55.4
3939.19	-61.4
3941.74	-52.4
3944.288	-58.4
3946.834	-55.4
3949.378	-58.4
3951.921	-57.4
3954.462	-57.4
3957	-50.4
3959.537	-50.4
3962.072	-53.4
3964.606	-58.4
3967.137	-57.4
3969.667	-57.4
3972.194	-51.4
3974.72	-49.4
3977.244	-49.4
3979.766	-55.4
3982.286	-59.4
3984.805	-65.4
3987.321	-54.4
3989.836	-51.4
3992.349	-54.4
3994.86	-54.4
3997.369	-56.4
3999.877	-54.4
4002.382	-52.4
4004.886	-51.4
4007.388	-55.4
4009.888	-57.4
4012.386	-55.4
4014.883	-56.4
4017.377	-52.4
4019.87	-60.4
4022.361	-62.4
4024.85	-55.4
4027.338	-54.4
4029.823	-52.4
4032.307	-56.4
4034.789	-51.4
4037.269	-53.4
4039.747	-56.4
4042.224	-52.4
4044.699	-54.4
4047.172	-63.4
4049.643	-58.4
4052.112	-50.4
4054.58	-56.4
4057.046	-53.4
4059.51	-56.4
4061.972	-59.4
4064.432	-53.4
4066.891	-56.4
4069.348	-47.4
4071.803	-54.4
4074.256	-55.4
4076.708	-56.4
4079.158	-59.4
4081.606	-56.4
4084.052	-49.4
4086.497	-50.4
4088.939	-51.4
4091.38	-55.4
4093.819	-58.4
4096.257	-57.4
4098.693	-57.4
4101.127	-52.4
4103.559	-60.4
4105.989	18.6
4108.418	11.6
4110.845	5.6
4113.27	4.6
4115.694	7.6
4118.115	13.6
4120.535	-54.4
4122.954	-54.4
4125.37	-54.4
4127.785	-47.4
4130.198	-56.4
4132.609	-59.4
4135.019	-56.4
4137.427	-60.4
4139.833	-56.4
4142.237	-57.4
