Data from 2018-3-7_conc=3_n=3_RamanShift_02.txt Node
Date: Wed Mar 07 11:22:22 IST 2018
User: aro
Spectrometer: QEPB0276
Trigger mode: 0
Integration Time (sec): 3.000000E1
Scans to average: 1
Electric dark correction enabled: true
Nonlinearity correction enabled: false
Boxcar width: 0
XAxis mode: Raman Shifts
Number of Pixels in Spectrum: 1044
>>>>>Begin Spectral Data<<<<<
160.701	11.2
166.742	25.2
172.777	56.2
178.805	138.2
184.826	342.2
190.841	744.2
196.849	1237.2
202.85	1589.2
208.845	1745.2
214.833	1741.2
220.815	1724.2
226.789	1716.2
232.758	1718.2
238.719	1713.2
244.674	1718.2
250.623	1708.2
256.565	1695.2
262.5	1649.2
268.429	1672.2
274.351	1654.2
280.267	1643.2
286.176	1654.2
292.079	1635.2
297.975	1641.2
303.865	1638.2
309.748	1638.2
315.625	1631.2
321.495	1641.2
327.359	1665.2
333.217	1647.2
339.068	1652.2
344.912	1648.2
350.751	1665.2
356.583	1661.2
362.408	1670.2
368.227	1673.2
374.04	1660.2
379.847	1696.2
385.647	1695.2
391.44	1697.2
397.228	1706.2
403.009	1718.2
408.784	1735.2
414.553	1736.2
420.315	1735.2
426.071	1736.2
431.821	1749.2
437.565	1737.2
443.302	1735.2
449.033	1724.2
454.758	1717.2
460.477	1705.2
466.189	1685.2
471.896	1667.2
477.596	1651.2
483.29	1660.2
488.978	1661.2
494.66	1650.2
500.335	1615.2
506.005	1567.2
511.668	1500.2
517.325	1439.2
522.977	1375.2
528.622	1336.2
534.261	1327.2
539.894	1288.2
545.521	1273.2
551.141	1273.2
556.756	1251.2
562.365	1243.2
567.968	1235.2
573.565	1217.2
579.155	1225.2
584.74	1216.2
590.319	1212.2
595.892	1216.2
601.459	1209.2
607.02	1191.2
612.575	1191.2
618.124	1192.2
623.667	1188.2
629.204	1159.2
634.735	1130.2
640.261	1131.2
645.781	1134.2
651.294	1132.2
656.802	1112.2
662.304	1108.2
667.8	1111.2
673.29	1103.2
678.775	1110.2
684.254	1104.2
689.726	1105.2
695.193	1090.2
700.655	1092.2
706.11	1075.2
711.56	1073.2
717.004	1055.2
722.442	1038.2
727.874	1055.2
733.301	1042.2
738.722	1041.2
744.137	1032.2
749.547	1041.2
754.951	1039.2
760.349	1042.2
765.741	1043.2
771.128	1046.2
776.509	1059.2
781.885	1073.2
787.254	1075.2
792.618	1074.2
797.977	1080.2
803.33	1058.2
808.677	1062.2
814.019	1057.2
819.355	1057.2
824.686	1038.2
830.011	1015.2
835.33	1020.2
840.644	1030.2
845.952	1017.2
851.255	1008.2
856.552	1008.2
861.844	985.2
867.13	984.2
872.41	991.2
877.686	970.2
882.955	977.2
888.219	971.2
893.478	960.2
898.731	931.2
903.979	929.2
909.221	914.2
914.458	918.2
919.69	917.2
924.916	916.2
930.136	900.2
935.351	911.2
940.561	908.2
945.766	918.2
950.965	899.2
956.158	892.2
961.347	897.2
966.529	874.2
971.707	855.2
976.879	839.2
982.046	844.2
987.208	835.2
992.364	838.2
997.515	822.2
1002.66	845.2
1007.801	857.2
1012.936	866.2
1018.066	883.2
1023.19	882.2
1028.309	868.2
1033.423	868.2
1038.532	862.2
1043.636	853.2
1048.734	850.2
1053.827	829.2
1058.915	824.2
1063.998	821.2
1069.075	812.2
1074.147	813.2
1079.214	819.2
1084.276	830.2
1089.333	838.2
1094.385	833.2
1099.431	817.2
1104.472	828.2
1109.509	808.2
1114.54	790.2
1119.565	792.2
1124.586	784.2
1129.602	761.2
1134.613	769.2
1139.618	754.2
1144.619	765.2
1149.614	773.2
1154.604	755.2
1159.589	756.2
1164.57	769.2
1169.545	762.2
1174.515	784.2
1179.48	767.2
1184.44	765.2
1189.395	757.2
1194.345	743.2
1199.29	731.2
1204.23	752.2
1209.165	742.2
1214.095	751.2
1219.021	758.2
1223.941	750.2
1228.856	755.2
1233.766	767.2
1238.672	762.2
1243.572	756.2
1248.467	765.2
1253.358	740.2
1258.244	738.2
1263.124	708.2
1268	720.2
1272.871	689.2
1277.737	690.2
1282.599	682.2
1287.455	677.2
1292.306	688.2
1297.153	694.2
1301.995	697.2
1306.832	695.2
1311.664	703.2
1316.491	705.2
1321.314	707.2
1326.132	696.2
1330.945	674.2
1335.753	669.2
1340.556	653.2
1345.354	653.2
1350.148	634.2
1354.937	621.2
1359.722	599.2
1364.501	595.2
1369.276	584.2
1374.046	572.2
1378.811	574.2
1383.572	576.2
1388.327	566.2
1393.079	566.2
1397.825	575.2
1402.567	581.2
1407.304	577.2
1412.036	575.2
1416.764	577.2
1421.487	579.2
1426.205	577.2
1430.919	576.2
1435.628	589.2
1440.333	586.2
1445.032	594.2
1449.727	592.2
1454.418	592.2
1459.104	590.2
1463.785	583.2
1468.462	572.2
1473.134	559.2
1477.802	541.2
1482.465	525.2
1487.123	517.2
1491.777	510.2
1496.426	501.2
1501.071	503.2
1505.711	497.2
1510.347	489.2
1514.978	478.2
1519.604	481.2
1524.226	484.2
1528.844	492.2
1533.457	476.2
1538.065	479.2
1542.669	479.2
1547.269	489.2
1551.864	472.2
1556.454	486.2
1561.041	498.2
1565.622	491.2
1570.199	498.2
1574.772	500.2
1579.34	517.2
1583.904	517.2
1588.464	531.2
1593.019	527.2
1597.569	521.2
1602.115	527.2
1606.657	516.2
1611.195	520.2
1615.728	510.2
1620.256	511.2
1624.78	510.2
1629.3	516.2
1633.816	512.2
1638.327	519.2
1642.834	505.2
1647.336	510.2
1651.834	507.2
1656.328	516.2
1660.817	509.2
1665.302	503.2
1669.783	482.2
1674.259	482.2
1678.732	470.2
1683.199	450.2
1687.663	430.2
1692.122	417.2
1696.577	392.2
1701.028	383.2
1705.474	365.2
1709.917	354.2
1714.355	351.2
1718.788	347.2
1723.218	347.2
1727.643	350.2
1732.064	349.2
1736.481	339.2
1740.893	339.2
1745.301	325.2
1749.705	322.2
1754.105	318.2
1758.501	302.2
1762.893	307.2
1767.28	289.2
1771.663	287.2
1776.042	279.2
1780.417	275.2
1784.787	280.2
1789.154	275.2
1793.516	272.2
1797.874	260.2
1802.228	270.2
1806.578	270.2
1810.924	251.2
1815.266	255.2
1819.603	258.2
1823.937	256.2
1828.266	257.2
1832.591	261.2
1836.913	253.2
1841.23	257.2
1845.543	262.2
1849.852	265.2
1854.156	268.2
1858.457	269.2
1862.754	269.2
1867.047	266.2
1871.335	261.2
1875.62	257.2
1879.9	253.2
1884.177	252.2
1888.449	248.2
1892.718	244.2
1896.982	245.2
1901.243	236.2
1905.499	228.2
1909.752	223.2
1914	228.2
1918.245	214.2
1922.485	216.2
1926.722	220.2
1930.954	213.2
1935.183	212.2
1939.408	213.2
1943.628	208.2
1947.845	209.2
1952.058	212.2
1956.267	202.2
1960.472	199.2
1964.673	194.2
1968.87	197.2
1973.063	194.2
1977.252	199.2
1981.438	194.2
1985.619	194.2
1989.797	197.2
1993.971	204.2
1998.14	202.2
2002.306	198.2
2006.469	208.2
2010.627	201.2
2014.781	211.2
2018.932	192.2
2023.078	198.2
2027.221	200.2
2031.36	195.2
2035.495	189.2
2039.627	180.2
2043.754	184.2
2047.878	184.2
2051.998	177.2
2056.114	173.2
2060.226	176.2
2064.334	179.2
2068.439	178.2
2072.54	167.2
2076.637	182.2
2080.73	177.2
2084.82	176.2
2088.906	168.2
2092.988	165.2
2097.066	167.2
2101.14	164.2
2105.211	161.2
2109.278	164.2
2113.342	148.2
2117.401	162.2
2121.457	148.2
2125.509	152.2
2129.558	160.2
2133.602	153.2
2137.643	156.2
2141.681	144.2
2145.714	151.2
2149.744	159.2
2153.77	158.2
2157.793	149.2
2161.812	156.2
2165.827	153.2
2169.838	143.2
2173.846	140.2
2177.851	148.2
2181.851	143.2
2185.848	144.2
2189.841	141.2
2193.831	130.2
2197.817	137.2
2201.799	137.2
2205.778	141.2
2209.753	136.2
2213.725	137.2
2217.693	144.2
2221.657	136.2
2225.618	133.2
2229.575	125.2
2233.529	120.2
2237.479	134.2
2241.425	124.2
2245.368	132.2
2249.307	129.2
2253.243	129.2
2257.175	129.2
2261.104	118.2
2265.029	119.2
2268.95	113.2
2272.868	112.2
2276.783	111.2
2280.694	104.2
2284.601	110.2
2288.505	110.2
2292.405	109.2
2296.302	110.2
2300.195	101.2
2304.085	106.2
2307.971	105.2
2311.854	99.2
2315.734	93.2
2319.609	110.2
2323.482	102.2
2327.351	108.2
2331.216	110.2
2335.078	127.2
2338.937	112.2
2342.792	107.2
2346.643	102.2
2350.492	98.2
2354.336	89.2
2358.178	89.2
2362.015	99.2
2365.85	104.2
2369.681	104.2
2373.508	105.2
2377.333	100.2
2381.153	102.2
2384.971	102.2
2388.785	92.2
2392.595	105.2
2396.402	108.2
2400.206	96.2
2404.007	97.2
2407.804	97.2
2411.597	91.2
2415.388	95.2
2419.174	99.2
2422.958	91.2
2426.738	95.2
2430.515	92.2
2434.289	86.2
2438.059	89.2
2441.825	82.2
2445.589	85.2
2449.349	86.2
2453.106	86.2
2456.859	79.2
2460.61	90.2
2464.356	78.2
2468.1	78.2
2471.84	69.2
2475.577	74.2
2479.311	77.2
2483.041	78.2
2486.768	75.2
2490.492	80.2
2494.213	74.2
2497.93	71.2
2501.644	73.2
2505.355	63.2
2509.062	67.2
2512.766	69.2
2516.467	65.2
2520.165	64.2
2523.859	71.2
2527.551	62.2
2531.239	61.2
2534.923	59.2
2538.605	59.2
2542.283	54.2
2545.958	52.2
2549.63	58.2
2553.299	59.2
2556.964	57.2
2560.626	56.2
2564.285	63.2
2567.941	49.2
2571.594	45.2
2575.243	54.2
2578.89	47.2
2582.533	53.2
2586.173	51.2
2589.809	49.2
2593.443	52.2
2597.073	49.2
2600.701	55.2
2604.325	39.2
2607.946	38.2
2611.564	47.2
2615.178	45.2
2618.79	47.2
2622.398	42.2
2626.004	46.2
2629.606	41.2
2633.205	36.2
2636.801	46.2
2640.394	45.2
2643.983	46.2
2647.57	37.2
2651.153	34.2
2654.734	39.2
2658.311	39.2
2661.885	40.2
2665.456	37.2
2669.025	41.2
2672.589	37.2
2676.151	39.2
2679.71	38.2
2683.266	32.2
2686.819	32.2
2690.368	33.2
2693.915	33.2
2697.458	28.2
2700.999	32.2
2704.536	37.2
2708.071	32.2
2711.602	23.2
2715.13	24.2
2718.656	35.2
2722.178	25.2
2725.697	21.2
2729.214	24.2
2732.727	33.2
2736.237	27.2
2739.744	21.2
2743.249	20.2
2746.75	24.2
2750.248	14.2
2753.743	20.2
2757.236	16.2
2760.725	15.2
2764.211	14.2
2767.695	10.2
2771.175	18.2
2774.652	11.2
2778.127	20.2
2781.598	16.2
2785.067	16.2
2788.532	10.2
2791.995	16.2
2795.455	4.2
2798.911	7.2
2802.365	17.2
2805.816	13.2
2809.264	15.2
2812.709	10.2
2816.151	14.2
2819.59	24.2
2823.026	18.2
2826.46	21.2
2829.89	15.2
2833.318	19.2
2836.742	23.2
2840.164	17.2
2843.583	15.2
2846.999	20.2
2850.412	15.2
2853.822	9.2
2857.229	17.2
2860.634	14.2
2864.035	17.2
2867.434	17.2
2870.83	28.2
2874.223	24.2
2877.613	28.2
2881	24.2
2884.385	21.2
2887.766	31.2
2891.145	31.2
2894.521	29.2
2897.894	22.2
2901.264	25.2
2904.631	22.2
2907.996	29.2
2911.358	32.2
2914.717	29.2
2918.073	28.2
2921.426	23.2
2924.777	28.2
2928.124	40.2
2931.469	38.2
2934.811	39.2
2938.15	41.2
2941.487	50.2
2944.821	33.2
2948.152	36.2
2951.48	34.2
2954.805	34.2
2958.128	37.2
2961.447	32.2
2964.765	33.2
2968.079	40.2
2971.39	36.2
2974.699	33.2
2978.005	42.2
2981.308	35.2
2984.609	33.2
2987.907	35.2
2991.202	32.2
2994.494	36.2
2997.784	33.2
3001.07	29.2
3004.355	36.2
3007.636	40.2
3010.915	44.2
3014.191	37.2
3017.464	38.2
3020.734	39.2
3024.002	46.2
3027.267	46.2
3030.53	49.2
3033.789	43.2
3037.046	44.2
3040.301	42.2
3043.552	48.2
3046.801	50.2
3050.048	46.2
3053.291	52.2
3056.532	54.2
3059.771	62.2
3063.006	67.2
3066.239	68.2
3069.469	70.2
3072.697	76.2
3075.922	81.2
3079.144	77.2
3082.364	81.2
3085.581	80.2
3088.795	84.2
3092.007	83.2
3095.216	86.2
3098.423	84.2
3101.627	92.2
3104.828	98.2
3108.026	94.2
3111.222	99.2
3114.416	106.2
3117.607	103.2
3120.795	109.2
3123.98	102.2
3127.163	121.2
3130.344	114.2
3133.521	114.2
3136.696	116.2
3139.869	124.2
3143.039	126.2
3146.206	128.2
3149.371	127.2
3152.533	143.2
3155.693	136.2
3158.85	135.2
3162.005	141.2
3165.157	139.2
3168.306	136.2
3171.453	138.2
3174.597	137.2
3177.739	134.2
3180.878	138.2
3184.014	134.2
3187.149	137.2
3190.28	143.2
3193.409	138.2
3196.536	144.2
3199.659	141.2
3202.781	147.2
3205.9	137.2
3209.016	136.2
3212.13	139.2
3215.241	138.2
3218.35	137.2
3221.456	135.2
3224.56	120.2
3227.661	128.2
3230.76	119.2
3233.856	124.2
3236.95	116.2
3240.041	112.2
3243.13	127.2
3246.216	109.2
3249.3	114.2
3252.382	120.2
3255.46	114.2
3258.537	106.2
3261.611	105.2
3264.682	106.2
3267.751	109.2
3270.818	92.2
3273.882	101.2
3276.943	102.2
3280.002	105.2
3283.059	99.2
3286.113	94.2
3289.165	94.2
3292.214	96.2
3295.261	101.2
3298.306	96.2
3301.348	101.2
3304.387	88.2
3307.425	98.2
3310.459	86.2
3313.492	92.2
3316.521	87.2
3319.549	92.2
3322.574	88.2
3325.597	86.2
3328.617	88.2
3331.635	96.2
3334.65	94.2
3337.663	80.2
3340.674	89.2
3343.682	92.2
3346.688	93.2
3349.691	96.2
3352.692	90.2
3355.691	95.2
3358.687	78.2
3361.681	86.2
3364.673	81.2
3367.662	93.2
3370.649	85.2
3373.633	81.2
3376.615	85.2
3379.595	76.2
3382.572	74.2
3385.547	85.2
3388.52	80.2
3391.49	58.2
3394.458	68.2
3397.424	72.2
3400.387	76.2
3403.348	66.2
3406.307	61.2
3409.263	65.2
3412.217	59.2
3415.168	63.2
3418.118	64.2
3421.065	52.2
3424.009	59.2
3426.951	49.2
3429.891	59.2
3432.829	47.2
3435.764	58.2
3438.697	52.2
3441.628	40.2
3444.557	50.2
3447.483	43.2
3450.407	33.2
3453.328	38.2
3456.247	27.2
3459.164	31.2
3462.079	20.2
3464.991	23.2
3467.902	26.2
3470.809	26.2
3473.715	23.2
3476.618	15.2
3479.519	11.2
3482.418	13.2
3485.315	11.2
3488.209	8.2
3491.101	6.2
3493.99	14.2
3496.878	4.2
3499.763	-1.8
3502.646	0.2
3505.527	0.2
3508.405	-6.8
3511.281	-2.8
3514.155	-2.8
3517.027	-8.8
3519.897	-9.8
3522.764	-9.8
3525.629	-9.8
3528.492	-11.8
3531.352	-11.8
3534.211	-17.8
3537.067	-22.8
3539.921	-8.8
3542.773	-23.8
3545.622	-17.8
3548.469	-20.8
3551.315	-16.8
3554.157	-24.8
3556.998	-22.8
3559.837	-25.8
3562.673	-28.8
3565.507	-29.8
3568.339	-24.8
3571.169	-31.8
3573.996	-25.8
3576.822	-35.8
3579.645	-33.8
3582.466	-25.8
3585.285	-34.8
3588.101	-25.8
3590.916	-29.8
3593.728	-38.8
3596.538	-39.8
3599.346	-36.8
3602.152	-34.8
3604.956	-35.8
3607.757	-29.8
3610.556	-38.8
3613.354	-40.8
3616.149	-44.8
3618.942	-39.8
3621.732	-36.8
3624.521	-34.8
3627.307	-42.8
3630.092	-41.8
3632.874	-43.8
3635.654	-37.8
3638.432	-40.8
3641.208	-43.8
3643.982	-46.8
3646.753	-45.8
3649.523	-41.8
3652.29	-46.8
3655.055	-41.8
3657.818	-41.8
3660.579	-46.8
3663.338	-36.8
3666.095	-49.8
3668.849	-48.8
3671.602	-46.8
3674.352	-43.8
3677.101	-43.8
3679.847	-46.8
3682.591	-51.8
3685.333	-45.8
3688.073	-56.8
3690.811	-47.8
3693.547	-53.8
3696.281	-47.8
3699.013	-45.8
3701.742	-49.8
3704.47	-44.8
3707.195	-45.8
3709.919	-47.8
3712.64	-54.8
3715.359	-49.8
3718.076	-49.8
3720.792	-52.8
3723.505	-53.8
3726.216	-50.8
3728.925	-51.8
3731.632	-50.8
3734.336	-54.8
3737.039	-45.8
3739.74	-56.8
3742.439	-56.8
3745.136	-51.8
3747.83	-48.8
3750.523	-51.8
3753.213	-54.8
3755.902	-50.8
3758.589	-50.8
3761.273	-46.8
3763.956	-52.8
3766.636	-48.8
3769.315	-51.8
3771.991	-51.8
3774.665	-53.8
3777.338	-50.8
3780.008	-55.8
3782.677	-57.8
3785.343	-53.8
3788.007	-50.8
3790.67	-56.8
3793.33	-52.8
3795.989	-55.8
3798.645	-57.8
3801.299	-53.8
3803.952	-54.8
3806.602	-55.8
3809.251	-62.8
3811.897	-60.8
3814.542	-57.8
3817.184	-56.8
3819.825	-55.8
3822.463	-60.8
3825.1	-52.8
3827.735	-59.8
3830.367	-58.8
3832.998	-56.8
3835.627	-54.8
3838.253	-50.8
3840.878	-48.8
3843.501	-48.8
3846.122	-56.8
3848.741	-55.8
3851.358	-55.8
3853.973	-46.8
3856.586	-53.8
3859.197	-57.8
3861.806	-58.8
3864.414	-57.8
3867.019	-55.8
3869.622	-45.8
3872.224	-38.8
3874.823	-31.8
3877.421	-22.8
3880.016	-11.8
3882.61	9.2
3885.202	13.2
3887.792	5.2
3890.38	-19.8
3892.966	-39.8
3895.55	-45.8
3898.132	-49.8
3900.713	-52.8
3903.291	-57.8
3905.868	-49.8
3908.442	-52.8
3911.015	-56.8
3913.586	-55.8
3916.155	-48.8
3918.722	-55.8
3921.287	-52.8
3923.85	-51.8
3926.411	-57.8
3928.971	-64.8
3931.528	-59.8
3934.084	-59.8
3936.638	-55.8
3939.19	-62.8
3941.74	-58.8
3944.288	-52.8
3946.834	-49.8
3949.378	-53.8
3951.921	-57.8
3954.462	-55.8
3957	-47.8
3959.537	-44.8
3962.072	-52.8
3964.606	-53.8
3967.137	-50.8
3969.667	-60.8
3972.194	-50.8
3974.72	-54.8
3977.244	-50.8
3979.766	-58.8
3982.286	-50.8
3984.805	-62.8
3987.321	-53.8
3989.836	-49.8
3992.349	-51.8
3994.86	-55.8
3997.369	-52.8
3999.877	-54.8
4002.382	-55.8
4004.886	-51.8
4007.388	-60.8
4009.888	-57.8
4012.386	-53.8
4014.883	-52.8
4017.377	-52.8
4019.87	-52.8
4022.361	-60.8
4024.85	-51.8
4027.338	-53.8
4029.823	-50.8
4032.307	-51.8
4034.789	-49.8
4037.269	-54.8
4039.747	-55.8
4042.224	-54.8
4044.699	-55.8
4047.172	-65.8
4049.643	-55.8
4052.112	-56.8
4054.58	-51.8
4057.046	-50.8
4059.51	-57.8
4061.972	-59.8
4064.432	-49.8
4066.891	-47.8
4069.348	-51.8
4071.803	-47.8
4074.256	-53.8
4076.708	-54.8
4079.158	-57.8
4081.606	-60.8
4084.052	-52.8
4086.497	-51.8
4088.939	-52.8
4091.38	-61.8
4093.819	-56.8
4096.257	-57.8
4098.693	-58.8
4101.127	-51.8
4103.559	-58.8
4105.989	20.2
4108.418	16.2
4110.845	7.2
4113.27	16.2
4115.694	13.2
4118.115	12.2
4120.535	-52.8
4122.954	-51.8
4125.37	-53.8
4127.785	-49.8
4130.198	-53.8
4132.609	-54.8
4135.019	-56.8
4137.427	-59.8
4139.833	-57.8
4142.237	-56.8
