Data from 2018-3-7_conc=0_n=8_RamanShift_01.txt Node
Date: Wed Mar 07 10:29:52 IST 2018
User: aro
Spectrometer: QEPB0276
Trigger mode: 0
Integration Time (sec): 3.000000E1
Scans to average: 1
Electric dark correction enabled: true
Nonlinearity correction enabled: false
Boxcar width: 0
XAxis mode: Raman Shifts
Number of Pixels in Spectrum: 1044
>>>>>Begin Spectral Data<<<<<
160.701	12.2
166.742	24.2
172.777	53.2
178.805	156.2
184.826	400.2
190.841	851.2
196.849	1405.2
202.85	1813.2
208.845	1964.2
214.833	1977.2
220.815	1957.2
226.789	1957.2
232.758	1979.2
238.719	1985.2
244.674	1952.2
250.623	1991.2
256.565	1975.2
262.5	1936.2
268.429	1934.2
274.351	1954.2
280.267	1919.2
286.176	1912.2
292.079	1914.2
297.975	1938.2
303.865	1965.2
309.748	1934.2
315.625	1941.2
321.495	1931.2
327.359	1963.2
333.217	1950.2
339.068	1972.2
344.912	1970.2
350.751	1969.2
356.583	1979.2
362.408	1991.2
368.227	1992.2
374.04	2014.2
379.847	2032.2
385.647	2038.2
391.44	2046.2
397.228	2053.2
403.009	2070.2
408.784	2100.2
414.553	2107.2
420.315	2117.2
426.071	2086.2
431.821	2106.2
437.565	2117.2
443.302	2107.2
449.033	2096.2
454.758	2089.2
460.477	2073.2
466.189	2043.2
471.896	2011.2
477.596	1994.2
483.29	1986.2
488.978	1999.2
494.66	1978.2
500.335	1924.2
506.005	1847.2
511.668	1766.2
517.325	1664.2
522.977	1579.2
528.622	1546.2
534.261	1498.2
539.894	1459.2
545.521	1434.2
551.141	1425.2
556.756	1395.2
562.365	1396.2
567.968	1384.2
573.565	1360.2
579.155	1347.2
584.74	1364.2
590.319	1354.2
595.892	1353.2
601.459	1338.2
607.02	1341.2
612.575	1331.2
618.124	1297.2
623.667	1304.2
629.204	1280.2
634.735	1272.2
640.261	1249.2
645.781	1242.2
651.294	1245.2
656.802	1223.2
662.304	1223.2
667.8	1217.2
673.29	1213.2
678.775	1217.2
684.254	1215.2
689.726	1203.2
695.193	1200.2
700.655	1189.2
706.11	1193.2
711.56	1171.2
717.004	1179.2
722.442	1149.2
727.874	1158.2
733.301	1158.2
738.722	1150.2
744.137	1140.2
749.547	1146.2
754.951	1122.2
760.349	1137.2
765.741	1148.2
771.128	1140.2
776.509	1183.2
781.885	1204.2
787.254	1208.2
792.618	1205.2
797.977	1213.2
803.33	1201.2
808.677	1170.2
814.019	1177.2
819.355	1159.2
824.686	1157.2
830.011	1143.2
835.33	1143.2
840.644	1129.2
845.952	1130.2
851.255	1118.2
856.552	1121.2
861.844	1104.2
867.13	1089.2
872.41	1107.2
877.686	1138.2
882.955	1160.2
888.219	1131.2
893.478	1089.2
898.731	1054.2
903.979	1016.2
909.221	1013.2
914.458	997.2
919.69	1005.2
924.916	996.2
930.136	1005.2
935.351	988.2
940.561	991.2
945.766	1004.2
950.965	985.2
956.158	990.2
961.347	970.2
966.529	955.2
971.707	933.2
976.879	921.2
982.046	920.2
987.208	924.2
992.364	908.2
997.515	921.2
1002.66	932.2
1007.801	944.2
1012.936	944.2
1018.066	960.2
1023.19	952.2
1028.309	964.2
1033.423	965.2
1038.532	962.2
1043.636	969.2
1048.734	955.2
1053.827	949.2
1058.915	953.2
1063.998	916.2
1069.075	920.2
1074.147	906.2
1079.214	922.2
1084.276	927.2
1089.333	953.2
1094.385	935.2
1099.431	943.2
1104.472	922.2
1109.509	897.2
1114.54	882.2
1119.565	877.2
1124.586	850.2
1129.602	856.2
1134.613	844.2
1139.618	825.2
1144.619	831.2
1149.614	843.2
1154.604	841.2
1159.589	858.2
1164.57	839.2
1169.545	843.2
1174.515	838.2
1179.48	835.2
1184.44	818.2
1189.395	836.2
1194.345	818.2
1199.29	805.2
1204.23	831.2
1209.165	818.2
1214.095	816.2
1219.021	819.2
1223.941	834.2
1228.856	834.2
1233.766	833.2
1238.672	840.2
1243.572	826.2
1248.467	831.2
1253.358	805.2
1258.244	804.2
1263.124	791.2
1268	779.2
1272.871	768.2
1277.737	767.2
1282.599	767.2
1287.455	772.2
1292.306	769.2
1297.153	761.2
1301.995	763.2
1306.832	766.2
1311.664	752.2
1316.491	782.2
1321.314	769.2
1326.132	762.2
1330.945	728.2
1335.753	722.2
1340.556	714.2
1345.354	712.2
1350.148	690.2
1354.937	683.2
1359.722	663.2
1364.501	648.2
1369.276	637.2
1374.046	629.2
1378.811	636.2
1383.572	639.2
1388.327	629.2
1393.079	617.2
1397.825	630.2
1402.567	627.2
1407.304	631.2
1412.036	631.2
1416.764	634.2
1421.487	657.2
1426.205	642.2
1430.919	646.2
1435.628	651.2
1440.333	663.2
1445.032	651.2
1449.727	673.2
1454.418	689.2
1459.104	679.2
1463.785	673.2
1468.462	661.2
1473.134	632.2
1477.802	603.2
1482.465	585.2
1487.123	580.2
1491.777	551.2
1496.426	559.2
1501.071	541.2
1505.711	529.2
1510.347	535.2
1514.978	523.2
1519.604	533.2
1524.226	514.2
1528.844	530.2
1533.457	522.2
1538.065	515.2
1542.669	518.2
1547.269	514.2
1551.864	527.2
1556.454	539.2
1561.041	550.2
1565.622	559.2
1570.199	541.2
1574.772	547.2
1579.34	552.2
1583.904	570.2
1588.464	573.2
1593.019	581.2
1597.569	561.2
1602.115	553.2
1606.657	567.2
1611.195	560.2
1615.728	567.2
1620.256	556.2
1624.78	555.2
1629.3	549.2
1633.816	548.2
1638.327	558.2
1642.834	549.2
1647.336	539.2
1651.834	542.2
1656.328	556.2
1660.817	532.2
1665.302	527.2
1669.783	521.2
1674.259	510.2
1678.732	497.2
1683.199	472.2
1687.663	450.2
1692.122	435.2
1696.577	423.2
1701.028	405.2
1705.474	376.2
1709.917	387.2
1714.355	376.2
1718.788	373.2
1723.218	373.2
1727.643	376.2
1732.064	369.2
1736.481	367.2
1740.893	367.2
1745.301	356.2
1749.705	345.2
1754.105	340.2
1758.501	322.2
1762.893	326.2
1767.28	319.2
1771.663	317.2
1776.042	307.2
1780.417	300.2
1784.787	293.2
1789.154	291.2
1793.516	281.2
1797.874	276.2
1802.228	274.2
1806.578	275.2
1810.924	278.2
1815.266	275.2
1819.603	276.2
1823.937	273.2
1828.266	277.2
1832.591	281.2
1836.913	272.2
1841.23	282.2
1845.543	283.2
1849.852	288.2
1854.156	291.2
1858.457	278.2
1862.754	283.2
1867.047	276.2
1871.335	273.2
1875.62	276.2
1879.9	270.2
1884.177	266.2
1888.449	260.2
1892.718	266.2
1896.982	262.2
1901.243	242.2
1905.499	245.2
1909.752	237.2
1914	229.2
1918.245	237.2
1922.485	224.2
1926.722	225.2
1930.954	220.2
1935.183	224.2
1939.408	221.2
1943.628	216.2
1947.845	210.2
1952.058	213.2
1956.267	204.2
1960.472	218.2
1964.673	203.2
1968.87	205.2
1973.063	214.2
1977.252	206.2
1981.438	207.2
1985.619	202.2
1989.797	201.2
1993.971	205.2
1998.14	211.2
2002.306	214.2
2006.469	224.2
2010.627	212.2
2014.781	220.2
2018.932	209.2
2023.078	210.2
2027.221	205.2
2031.36	209.2
2035.495	199.2
2039.627	193.2
2043.754	196.2
2047.878	194.2
2051.998	200.2
2056.114	195.2
2060.226	185.2
2064.334	181.2
2068.439	182.2
2072.54	181.2
2076.637	174.2
2080.73	182.2
2084.82	180.2
2088.906	178.2
2092.988	177.2
2097.066	176.2
2101.14	176.2
2105.211	168.2
2109.278	163.2
2113.342	159.2
2117.401	160.2
2121.457	159.2
2125.509	167.2
2129.558	163.2
2133.602	156.2
2137.643	173.2
2141.681	155.2
2145.714	165.2
2149.744	156.2
2153.77	163.2
2157.793	167.2
2161.812	174.2
2165.827	171.2
2169.838	154.2
2173.846	167.2
2177.851	155.2
2181.851	156.2
2185.848	149.2
2189.841	148.2
2193.831	148.2
2197.817	150.2
2201.799	152.2
2205.778	148.2
2209.753	153.2
2213.725	144.2
2217.693	153.2
2221.657	145.2
2225.618	132.2
2229.575	139.2
2233.529	139.2
2237.479	151.2
2241.425	139.2
2245.368	145.2
2249.307	138.2
2253.243	137.2
2257.175	135.2
2261.104	131.2
2265.029	130.2
2268.95	133.2
2272.868	139.2
2276.783	123.2
2280.694	122.2
2284.601	124.2
2288.505	128.2
2292.405	119.2
2296.302	127.2
2300.195	117.2
2304.085	116.2
2307.971	117.2
2311.854	110.2
2315.734	109.2
2319.609	114.2
2323.482	109.2
2327.351	122.2
2331.216	134.2
2335.078	148.2
2338.937	132.2
2342.792	117.2
2346.643	113.2
2350.492	117.2
2354.336	115.2
2358.178	104.2
2362.015	117.2
2365.85	106.2
2369.681	114.2
2373.508	124.2
2377.333	120.2
2381.153	119.2
2384.971	113.2
2388.785	110.2
2392.595	117.2
2396.402	114.2
2400.206	109.2
2404.007	112.2
2407.804	108.2
2411.597	107.2
2415.388	106.2
2419.174	114.2
2422.958	106.2
2426.738	111.2
2430.515	105.2
2434.289	106.2
2438.059	96.2
2441.825	98.2
2445.589	94.2
2449.349	95.2
2453.106	102.2
2456.859	100.2
2460.61	104.2
2464.356	92.2
2468.1	90.2
2471.84	93.2
2475.577	78.2
2479.311	87.2
2483.041	90.2
2486.768	88.2
2490.492	89.2
2494.213	85.2
2497.93	81.2
2501.644	85.2
2505.355	79.2
2509.062	76.2
2512.766	77.2
2516.467	76.2
2520.165	79.2
2523.859	87.2
2527.551	76.2
2531.239	78.2
2534.923	68.2
2538.605	64.2
2542.283	62.2
2545.958	70.2
2549.63	68.2
2553.299	64.2
2556.964	60.2
2560.626	69.2
2564.285	60.2
2567.941	63.2
2571.594	62.2
2575.243	67.2
2578.89	59.2
2582.533	62.2
2586.173	59.2
2589.809	59.2
2593.443	70.2
2597.073	54.2
2600.701	57.2
2604.325	53.2
2607.946	56.2
2611.564	53.2
2615.178	56.2
2618.79	50.2
2622.398	55.2
2626.004	52.2
2629.606	51.2
2633.205	56.2
2636.801	51.2
2640.394	58.2
2643.983	51.2
2647.57	48.2
2651.153	38.2
2654.734	47.2
2658.311	46.2
2661.885	49.2
2665.456	53.2
2669.025	49.2
2672.589	44.2
2676.151	47.2
2679.71	44.2
2683.266	40.2
2686.819	42.2
2690.368	38.2
2693.915	41.2
2697.458	37.2
2700.999	46.2
2704.536	43.2
2708.071	44.2
2711.602	35.2
2715.13	34.2
2718.656	32.2
2722.178	33.2
2725.697	30.2
2729.214	30.2
2732.727	35.2
2736.237	32.2
2739.744	27.2
2743.249	30.2
2746.75	30.2
2750.248	23.2
2753.743	27.2
2757.236	22.2
2760.725	18.2
2764.211	14.2
2767.695	16.2
2771.175	24.2
2774.652	24.2
2778.127	20.2
2781.598	20.2
2785.067	22.2
2788.532	14.2
2791.995	25.2
2795.455	21.2
2798.911	21.2
2802.365	24.2
2805.816	23.2
2809.264	21.2
2812.709	19.2
2816.151	20.2
2819.59	36.2
2823.026	26.2
2826.46	27.2
2829.89	28.2
2833.318	28.2
2836.742	31.2
2840.164	29.2
2843.583	29.2
2846.999	32.2
2850.412	34.2
2853.822	28.2
2857.229	35.2
2860.634	33.2
2864.035	32.2
2867.434	31.2
2870.83	40.2
2874.223	38.2
2877.613	45.2
2881	49.2
2884.385	60.2
2887.766	59.2
2891.145	52.2
2894.521	53.2
2897.894	56.2
2901.264	60.2
2904.631	54.2
2907.996	46.2
2911.358	58.2
2914.717	58.2
2918.073	46.2
2921.426	55.2
2924.777	66.2
2928.124	66.2
2931.469	70.2
2934.811	81.2
2938.15	90.2
2941.487	89.2
2944.821	71.2
2948.152	82.2
2951.48	73.2
2954.805	64.2
2958.128	66.2
2961.447	64.2
2964.765	53.2
2968.079	59.2
2971.39	58.2
2974.699	50.2
2978.005	64.2
2981.308	54.2
2984.609	53.2
2987.907	53.2
2991.202	57.2
2994.494	55.2
2997.784	52.2
3001.07	49.2
3004.355	49.2
3007.636	47.2
3010.915	54.2
3014.191	47.2
3017.464	44.2
3020.734	48.2
3024.002	52.2
3027.267	53.2
3030.53	52.2
3033.789	59.2
3037.046	56.2
3040.301	56.2
3043.552	56.2
3046.801	54.2
3050.048	63.2
3053.291	57.2
3056.532	68.2
3059.771	63.2
3063.006	78.2
3066.239	71.2
3069.469	82.2
3072.697	79.2
3075.922	83.2
3079.144	85.2
3082.364	87.2
3085.581	88.2
3088.795	95.2
3092.007	96.2
3095.216	102.2
3098.423	98.2
3101.627	98.2
3104.828	106.2
3108.026	105.2
3111.222	105.2
3114.416	107.2
3117.607	113.2
3120.795	115.2
3123.98	117.2
3127.163	130.2
3130.344	127.2
3133.521	125.2
3136.696	125.2
3139.869	129.2
3143.039	132.2
3146.206	134.2
3149.371	137.2
3152.533	148.2
3155.693	154.2
3158.85	144.2
3162.005	147.2
3165.157	149.2
3168.306	142.2
3171.453	147.2
3174.597	139.2
3177.739	147.2
3180.878	144.2
3184.014	145.2
3187.149	143.2
3190.28	144.2
3193.409	143.2
3196.536	141.2
3199.659	147.2
3202.781	152.2
3205.9	141.2
3209.016	148.2
3212.13	149.2
3215.241	146.2
3218.35	139.2
3221.456	141.2
3224.56	132.2
3227.661	129.2
3230.76	130.2
3233.856	124.2
3236.95	118.2
3240.041	123.2
3243.13	131.2
3246.216	116.2
3249.3	111.2
3252.382	116.2
3255.46	106.2
3258.537	107.2
3261.611	104.2
3264.682	107.2
3267.751	110.2
3270.818	99.2
3273.882	110.2
3276.943	106.2
3280.002	107.2
3283.059	102.2
3286.113	99.2
3289.165	98.2
3292.214	97.2
3295.261	108.2
3298.306	96.2
3301.348	96.2
3304.387	98.2
3307.425	91.2
3310.459	91.2
3313.492	98.2
3316.521	94.2
3319.549	101.2
3322.574	93.2
3325.597	93.2
3328.617	89.2
3331.635	96.2
3334.65	100.2
3337.663	83.2
3340.674	89.2
3343.682	91.2
3346.688	87.2
3349.691	90.2
3352.692	90.2
3355.691	99.2
3358.687	89.2
3361.681	88.2
3364.673	91.2
3367.662	87.2
3370.649	86.2
3373.633	86.2
3376.615	84.2
3379.595	79.2
3382.572	74.2
3385.547	83.2
3388.52	71.2
3391.49	70.2
3394.458	67.2
3397.424	67.2
3400.387	73.2
3403.348	64.2
3406.307	64.2
3409.263	69.2
3412.217	64.2
3415.168	72.2
3418.118	55.2
3421.065	55.2
3424.009	56.2
3426.951	56.2
3429.891	53.2
3432.829	50.2
3435.764	58.2
3438.697	55.2
3441.628	44.2
3444.557	43.2
3447.483	38.2
3450.407	27.2
3453.328	38.2
3456.247	26.2
3459.164	35.2
3462.079	32.2
3464.991	24.2
3467.902	23.2
3470.809	24.2
3473.715	13.2
3476.618	15.2
3479.519	13.2
3482.418	11.2
3485.315	13.2
3488.209	-1.8
3491.101	5.2
3493.99	9.2
3496.878	4.2
3499.763	-0.8
3502.646	-2.8
3505.527	3.2
3508.405	-4.8
3511.281	-9.8
3514.155	-11.8
3517.027	-10.8
3519.897	-0.8
3522.764	-9.8
3525.629	-11.8
3528.492	-17.8
3531.352	-21.8
3534.211	-18.8
3537.067	-22.8
3539.921	-24.8
3542.773	-24.8
3545.622	-20.8
3548.469	-23.8
3551.315	-22.8
3554.157	-23.8
3556.998	-22.8
3559.837	-28.8
3562.673	-27.8
3565.507	-27.8
3568.339	-21.8
3571.169	-31.8
3573.996	-30.8
3576.822	-38.8
3579.645	-35.8
3582.466	-33.8
3585.285	-35.8
3588.101	-35.8
3590.916	-33.8
3593.728	-37.8
3596.538	-39.8
3599.346	-38.8
3602.152	-38.8
3604.956	-37.8
3607.757	-38.8
3610.556	-36.8
3613.354	-46.8
3616.149	-41.8
3618.942	-41.8
3621.732	-44.8
3624.521	-42.8
3627.307	-40.8
3630.092	-42.8
3632.874	-49.8
3635.654	-49.8
3638.432	-41.8
3641.208	-42.8
3643.982	-40.8
3646.753	-46.8
3649.523	-39.8
3652.29	-47.8
3655.055	-43.8
3657.818	-53.8
3660.579	-50.8
3663.338	-41.8
3666.095	-48.8
3668.849	-47.8
3671.602	-46.8
3674.352	-41.8
3677.101	-48.8
3679.847	-48.8
3682.591	-55.8
3685.333	-48.8
3688.073	-56.8
3690.811	-52.8
3693.547	-47.8
3696.281	-48.8
3699.013	-54.8
3701.742	-53.8
3704.47	-45.8
3707.195	-53.8
3709.919	-54.8
3712.64	-55.8
3715.359	-58.8
3718.076	-51.8
3720.792	-53.8
3723.505	-52.8
3726.216	-49.8
3728.925	-61.8
3731.632	-51.8
3734.336	-59.8
3737.039	-55.8
3739.74	-51.8
3742.439	-55.8
3745.136	-58.8
3747.83	-50.8
3750.523	-58.8
3753.213	-56.8
3755.902	-52.8
3758.589	-51.8
3761.273	-55.8
3763.956	-54.8
3766.636	-49.8
3769.315	-48.8
3771.991	-57.8
3774.665	-54.8
3777.338	-53.8
3780.008	-58.8
3782.677	-61.8
3785.343	-58.8
3788.007	-54.8
3790.67	-59.8
3793.33	-52.8
3795.989	-56.8
3798.645	-56.8
3801.299	-59.8
3803.952	-55.8
3806.602	-60.8
3809.251	-60.8
3811.897	-58.8
3814.542	-59.8
3817.184	-56.8
3819.825	-52.8
3822.463	-55.8
3825.1	-51.8
3827.735	-60.8
3830.367	-61.8
3832.998	-60.8
3835.627	-59.8
3838.253	-54.8
3840.878	-52.8
3843.501	-50.8
3846.122	-59.8
3848.741	-50.8
3851.358	-58.8
3853.973	-55.8
3856.586	-55.8
3859.197	-57.8
3861.806	-59.8
3864.414	-63.8
3867.019	-58.8
3869.622	-53.8
3872.224	-39.8
3874.823	-35.8
3877.421	-34.8
3880.016	-14.8
3882.61	-0.8
3885.202	1.2
3887.792	1.2
3890.38	-27.8
3892.966	-40.8
3895.55	-52.8
3898.132	-56.8
3900.713	-53.8
3903.291	-57.8
3905.868	-56.8
3908.442	-60.8
3911.015	-54.8
3913.586	-62.8
3916.155	-60.8
3918.722	-57.8
3921.287	-60.8
3923.85	-46.8
3926.411	-57.8
3928.971	-59.8
3931.528	-59.8
3934.084	-55.8
3936.638	-57.8
3939.19	-68.8
3941.74	-54.8
3944.288	-57.8
3946.834	-54.8
3949.378	-55.8
3951.921	-58.8
3954.462	-56.8
3957	-48.8
3959.537	-49.8
3962.072	-55.8
3964.606	-52.8
3967.137	-58.8
3969.667	-60.8
3972.194	-50.8
3974.72	-49.8
3977.244	-54.8
3979.766	-58.8
3982.286	-62.8
3984.805	-68.8
3987.321	-52.8
3989.836	-56.8
3992.349	-58.8
3994.86	-59.8
3997.369	-59.8
3999.877	-61.8
4002.382	-57.8
4004.886	-53.8
4007.388	-59.8
4009.888	-61.8
4012.386	-54.8
4014.883	-57.8
4017.377	-53.8
4019.87	-55.8
4022.361	-60.8
4024.85	-54.8
4027.338	-60.8
4029.823	-56.8
4032.307	-58.8
4034.789	-55.8
4037.269	-60.8
4039.747	-60.8
4042.224	-60.8
4044.699	-56.8
4047.172	-59.8
4049.643	-55.8
4052.112	-52.8
4054.58	-58.8
4057.046	-52.8
4059.51	-62.8
4061.972	-59.8
4064.432	-56.8
4066.891	-54.8
4069.348	-55.8
4071.803	-52.8
4074.256	-59.8
4076.708	-57.8
4079.158	-52.8
4081.606	-56.8
4084.052	-56.8
4086.497	-55.8
4088.939	-55.8
4091.38	-61.8
4093.819	-56.8
4096.257	-58.8
4098.693	-59.8
4101.127	-57.8
4103.559	-66.8
4105.989	23.2
4108.418	19.2
4110.845	14.2
4113.27	18.2
4115.694	18.2
4118.115	14.2
4120.535	-52.8
4122.954	-56.8
4125.37	-57.8
4127.785	-52.8
4130.198	-55.8
4132.609	-59.8
4135.019	-59.8
4137.427	-64.8
4139.833	-60.8
4142.237	-60.8
