Data from 2018-3-7_conc=3_n=4_RamanShift_04.txt Node
Date: Wed Mar 07 11:26:22 IST 2018
User: aro
Spectrometer: QEPB0276
Trigger mode: 0
Integration Time (sec): 3.000000E1
Scans to average: 1
Electric dark correction enabled: true
Nonlinearity correction enabled: false
Boxcar width: 0
XAxis mode: Raman Shifts
Number of Pixels in Spectrum: 1044
>>>>>Begin Spectral Data<<<<<
160.701	9.2
166.742	25.2
172.777	45.2
178.805	131.2
184.826	333.2
190.841	690.2
196.849	1142.2
202.85	1474.2
208.845	1639.2
214.833	1628.2
220.815	1612.2
226.789	1624.2
232.758	1626.2
238.719	1616.2
244.674	1589.2
250.623	1613.2
256.565	1588.2
262.5	1582.2
268.429	1561.2
274.351	1560.2
280.267	1553.2
286.176	1546.2
292.079	1532.2
297.975	1552.2
303.865	1548.2
309.748	1534.2
315.625	1543.2
321.495	1532.2
327.359	1559.2
333.217	1551.2
339.068	1561.2
344.912	1570.2
350.751	1555.2
356.583	1569.2
362.408	1574.2
368.227	1584.2
374.04	1583.2
379.847	1602.2
385.647	1594.2
391.44	1587.2
397.228	1615.2
403.009	1624.2
408.784	1634.2
414.553	1631.2
420.315	1643.2
426.071	1640.2
431.821	1642.2
437.565	1653.2
443.302	1645.2
449.033	1628.2
454.758	1642.2
460.477	1604.2
466.189	1611.2
471.896	1584.2
477.596	1572.2
483.29	1576.2
488.978	1537.2
494.66	1559.2
500.335	1531.2
506.005	1475.2
511.668	1404.2
517.325	1341.2
522.977	1310.2
528.622	1264.2
534.261	1225.2
539.894	1216.2
545.521	1209.2
551.141	1195.2
556.756	1180.2
562.365	1165.2
567.968	1150.2
573.565	1149.2
579.155	1141.2
584.74	1123.2
590.319	1130.2
595.892	1145.2
601.459	1133.2
607.02	1112.2
612.575	1114.2
618.124	1115.2
623.667	1092.2
629.204	1089.2
634.735	1067.2
640.261	1053.2
645.781	1065.2
651.294	1060.2
656.802	1042.2
662.304	1042.2
667.8	1041.2
673.29	1041.2
678.775	1033.2
684.254	1030.2
689.726	1025.2
695.193	1028.2
700.655	1003.2
706.11	1006.2
711.56	1010.2
717.004	981.2
722.442	989.2
727.874	987.2
733.301	980.2
738.722	967.2
744.137	968.2
749.547	974.2
754.951	963.2
760.349	971.2
765.741	980.2
771.128	976.2
776.509	978.2
781.885	1006.2
787.254	1018.2
792.618	1021.2
797.977	1007.2
803.33	998.2
808.677	996.2
814.019	979.2
819.355	967.2
824.686	953.2
830.011	957.2
835.33	945.2
840.644	946.2
845.952	951.2
851.255	937.2
856.552	948.2
861.844	928.2
867.13	914.2
872.41	922.2
877.686	908.2
882.955	907.2
888.219	891.2
893.478	873.2
898.731	860.2
903.979	854.2
909.221	855.2
914.458	851.2
919.69	852.2
924.916	865.2
930.136	841.2
935.351	859.2
940.561	856.2
945.766	856.2
950.965	851.2
956.158	837.2
961.347	825.2
966.529	835.2
971.707	807.2
976.879	787.2
982.046	796.2
987.208	783.2
992.364	783.2
997.515	792.2
1002.66	797.2
1007.801	804.2
1012.936	810.2
1018.066	819.2
1023.19	806.2
1028.309	806.2
1033.423	809.2
1038.532	801.2
1043.636	786.2
1048.734	787.2
1053.827	793.2
1058.915	787.2
1063.998	762.2
1069.075	761.2
1074.147	773.2
1079.214	770.2
1084.276	776.2
1089.333	767.2
1094.385	775.2
1099.431	768.2
1104.472	763.2
1109.509	742.2
1114.54	755.2
1119.565	736.2
1124.586	726.2
1129.602	709.2
1134.613	716.2
1139.618	707.2
1144.619	707.2
1149.614	726.2
1154.604	710.2
1159.589	714.2
1164.57	712.2
1169.545	723.2
1174.515	729.2
1179.48	724.2
1184.44	712.2
1189.395	696.2
1194.345	683.2
1199.29	683.2
1204.23	697.2
1209.165	699.2
1214.095	694.2
1219.021	702.2
1223.941	705.2
1228.856	708.2
1233.766	705.2
1238.672	719.2
1243.572	709.2
1248.467	701.2
1253.358	696.2
1258.244	686.2
1263.124	671.2
1268	661.2
1272.871	640.2
1277.737	637.2
1282.599	649.2
1287.455	648.2
1292.306	648.2
1297.153	643.2
1301.995	657.2
1306.832	658.2
1311.664	672.2
1316.491	667.2
1321.314	654.2
1326.132	652.2
1330.945	636.2
1335.753	635.2
1340.556	600.2
1345.354	594.2
1350.148	583.2
1354.937	576.2
1359.722	575.2
1364.501	564.2
1369.276	551.2
1374.046	536.2
1378.811	546.2
1383.572	533.2
1388.327	537.2
1393.079	519.2
1397.825	535.2
1402.567	534.2
1407.304	545.2
1412.036	540.2
1416.764	549.2
1421.487	536.2
1426.205	540.2
1430.919	530.2
1435.628	550.2
1440.333	554.2
1445.032	548.2
1449.727	551.2
1454.418	561.2
1459.104	554.2
1463.785	552.2
1468.462	524.2
1473.134	523.2
1477.802	510.2
1482.465	497.2
1487.123	483.2
1491.777	465.2
1496.426	471.2
1501.071	473.2
1505.711	456.2
1510.347	460.2
1514.978	452.2
1519.604	453.2
1524.226	454.2
1528.844	458.2
1533.457	450.2
1538.065	450.2
1542.669	440.2
1547.269	441.2
1551.864	452.2
1556.454	453.2
1561.041	472.2
1565.622	469.2
1570.199	457.2
1574.772	476.2
1579.34	471.2
1583.904	475.2
1588.464	487.2
1593.019	489.2
1597.569	502.2
1602.115	489.2
1606.657	474.2
1611.195	490.2
1615.728	476.2
1620.256	485.2
1624.78	482.2
1629.3	480.2
1633.816	476.2
1638.327	492.2
1642.834	475.2
1647.336	480.2
1651.834	475.2
1656.328	481.2
1660.817	475.2
1665.302	463.2
1669.783	459.2
1674.259	454.2
1678.732	447.2
1683.199	420.2
1687.663	412.2
1692.122	386.2
1696.577	368.2
1701.028	358.2
1705.474	343.2
1709.917	334.2
1714.355	333.2
1718.788	327.2
1723.218	328.2
1727.643	323.2
1732.064	331.2
1736.481	330.2
1740.893	318.2
1745.301	313.2
1749.705	307.2
1754.105	306.2
1758.501	279.2
1762.893	289.2
1767.28	275.2
1771.663	266.2
1776.042	277.2
1780.417	275.2
1784.787	272.2
1789.154	261.2
1793.516	257.2
1797.874	252.2
1802.228	257.2
1806.578	249.2
1810.924	239.2
1815.266	248.2
1819.603	254.2
1823.937	251.2
1828.266	242.2
1832.591	251.2
1836.913	245.2
1841.23	245.2
1845.543	243.2
1849.852	248.2
1854.156	246.2
1858.457	248.2
1862.754	250.2
1867.047	240.2
1871.335	242.2
1875.62	247.2
1879.9	251.2
1884.177	249.2
1888.449	246.2
1892.718	241.2
1896.982	239.2
1901.243	220.2
1905.499	225.2
1909.752	212.2
1914	213.2
1918.245	212.2
1922.485	199.2
1926.722	204.2
1930.954	195.2
1935.183	201.2
1939.408	206.2
1943.628	196.2
1947.845	203.2
1952.058	203.2
1956.267	199.2
1960.472	194.2
1964.673	187.2
1968.87	185.2
1973.063	195.2
1977.252	189.2
1981.438	183.2
1985.619	184.2
1989.797	185.2
1993.971	192.2
1998.14	187.2
2002.306	196.2
2006.469	205.2
2010.627	186.2
2014.781	192.2
2018.932	194.2
2023.078	195.2
2027.221	185.2
2031.36	185.2
2035.495	177.2
2039.627	176.2
2043.754	177.2
2047.878	168.2
2051.998	176.2
2056.114	180.2
2060.226	167.2
2064.334	167.2
2068.439	170.2
2072.54	169.2
2076.637	176.2
2080.73	175.2
2084.82	171.2
2088.906	165.2
2092.988	166.2
2097.066	162.2
2101.14	159.2
2105.211	150.2
2109.278	152.2
2113.342	141.2
2117.401	152.2
2121.457	148.2
2125.509	147.2
2129.558	146.2
2133.602	143.2
2137.643	148.2
2141.681	144.2
2145.714	148.2
2149.744	143.2
2153.77	148.2
2157.793	150.2
2161.812	149.2
2165.827	153.2
2169.838	136.2
2173.846	141.2
2177.851	137.2
2181.851	142.2
2185.848	135.2
2189.841	133.2
2193.831	129.2
2197.817	135.2
2201.799	131.2
2205.778	130.2
2209.753	130.2
2213.725	127.2
2217.693	136.2
2221.657	134.2
2225.618	128.2
2229.575	122.2
2233.529	127.2
2237.479	128.2
2241.425	119.2
2245.368	123.2
2249.307	117.2
2253.243	122.2
2257.175	118.2
2261.104	103.2
2265.029	117.2
2268.95	116.2
2272.868	116.2
2276.783	110.2
2280.694	104.2
2284.601	99.2
2288.505	112.2
2292.405	113.2
2296.302	112.2
2300.195	103.2
2304.085	97.2
2307.971	96.2
2311.854	97.2
2315.734	94.2
2319.609	102.2
2323.482	100.2
2327.351	100.2
2331.216	109.2
2335.078	116.2
2338.937	104.2
2342.792	100.2
2346.643	103.2
2350.492	99.2
2354.336	99.2
2358.178	90.2
2362.015	97.2
2365.85	94.2
2369.681	95.2
2373.508	99.2
2377.333	98.2
2381.153	93.2
2384.971	95.2
2388.785	94.2
2392.595	97.2
2396.402	90.2
2400.206	101.2
2404.007	90.2
2407.804	92.2
2411.597	91.2
2415.388	88.2
2419.174	93.2
2422.958	87.2
2426.738	90.2
2430.515	91.2
2434.289	92.2
2438.059	86.2
2441.825	80.2
2445.589	87.2
2449.349	89.2
2453.106	86.2
2456.859	80.2
2460.61	77.2
2464.356	78.2
2468.1	78.2
2471.84	69.2
2475.577	67.2
2479.311	68.2
2483.041	71.2
2486.768	70.2
2490.492	75.2
2494.213	71.2
2497.93	70.2
2501.644	73.2
2505.355	67.2
2509.062	62.2
2512.766	70.2
2516.467	58.2
2520.165	68.2
2523.859	67.2
2527.551	65.2
2531.239	57.2
2534.923	56.2
2538.605	59.2
2542.283	52.2
2545.958	57.2
2549.63	59.2
2553.299	54.2
2556.964	52.2
2560.626	54.2
2564.285	52.2
2567.941	54.2
2571.594	56.2
2575.243	54.2
2578.89	51.2
2582.533	50.2
2586.173	48.2
2589.809	52.2
2593.443	50.2
2597.073	48.2
2600.701	54.2
2604.325	43.2
2607.946	37.2
2611.564	48.2
2615.178	47.2
2618.79	47.2
2622.398	48.2
2626.004	41.2
2629.606	42.2
2633.205	41.2
2636.801	39.2
2640.394	42.2
2643.983	45.2
2647.57	41.2
2651.153	34.2
2654.734	36.2
2658.311	41.2
2661.885	44.2
2665.456	39.2
2669.025	43.2
2672.589	41.2
2676.151	40.2
2679.71	40.2
2683.266	33.2
2686.819	34.2
2690.368	28.2
2693.915	33.2
2697.458	24.2
2700.999	38.2
2704.536	31.2
2708.071	32.2
2711.602	24.2
2715.13	25.2
2718.656	32.2
2722.178	19.2
2725.697	24.2
2729.214	27.2
2732.727	34.2
2736.237	28.2
2739.744	19.2
2743.249	22.2
2746.75	23.2
2750.248	21.2
2753.743	22.2
2757.236	15.2
2760.725	22.2
2764.211	21.2
2767.695	15.2
2771.175	21.2
2774.652	25.2
2778.127	20.2
2781.598	14.2
2785.067	16.2
2788.532	10.2
2791.995	20.2
2795.455	12.2
2798.911	13.2
2802.365	18.2
2805.816	16.2
2809.264	12.2
2812.709	10.2
2816.151	19.2
2819.59	32.2
2823.026	21.2
2826.46	14.2
2829.89	12.2
2833.318	15.2
2836.742	22.2
2840.164	14.2
2843.583	16.2
2846.999	19.2
2850.412	15.2
2853.822	13.2
2857.229	15.2
2860.634	13.2
2864.035	20.2
2867.434	17.2
2870.83	22.2
2874.223	27.2
2877.613	23.2
2881	19.2
2884.385	29.2
2887.766	33.2
2891.145	28.2
2894.521	29.2
2897.894	29.2
2901.264	25.2
2904.631	16.2
2907.996	22.2
2911.358	32.2
2914.717	30.2
2918.073	35.2
2921.426	25.2
2924.777	35.2
2928.124	34.2
2931.469	35.2
2934.811	41.2
2938.15	38.2
2941.487	47.2
2944.821	33.2
2948.152	38.2
2951.48	38.2
2954.805	35.2
2958.128	39.2
2961.447	38.2
2964.765	28.2
2968.079	34.2
2971.39	39.2
2974.699	34.2
2978.005	42.2
2981.308	36.2
2984.609	33.2
2987.907	30.2
2991.202	39.2
2994.494	30.2
2997.784	29.2
3001.07	34.2
3004.355	36.2
3007.636	39.2
3010.915	43.2
3014.191	36.2
3017.464	46.2
3020.734	39.2
3024.002	44.2
3027.267	44.2
3030.53	43.2
3033.789	42.2
3037.046	44.2
3040.301	37.2
3043.552	46.2
3046.801	50.2
3050.048	44.2
3053.291	51.2
3056.532	55.2
3059.771	57.2
3063.006	61.2
3066.239	66.2
3069.469	74.2
3072.697	71.2
3075.922	78.2
3079.144	70.2
3082.364	79.2
3085.581	78.2
3088.795	80.2
3092.007	89.2
3095.216	82.2
3098.423	79.2
3101.627	74.2
3104.828	95.2
3108.026	92.2
3111.222	91.2
3114.416	100.2
3117.607	97.2
3120.795	107.2
3123.98	110.2
3127.163	121.2
3130.344	109.2
3133.521	110.2
3136.696	110.2
3139.869	122.2
3143.039	123.2
3146.206	123.2
3149.371	118.2
3152.533	132.2
3155.693	123.2
3158.85	130.2
3162.005	131.2
3165.157	126.2
3168.306	131.2
3171.453	125.2
3174.597	124.2
3177.739	132.2
3180.878	130.2
3184.014	122.2
3187.149	134.2
3190.28	128.2
3193.409	133.2
3196.536	120.2
3199.659	130.2
3202.781	133.2
3205.9	128.2
3209.016	122.2
3212.13	133.2
3215.241	134.2
3218.35	123.2
3221.456	131.2
3224.56	125.2
3227.661	121.2
3230.76	126.2
3233.856	123.2
3236.95	111.2
3240.041	106.2
3243.13	115.2
3246.216	116.2
3249.3	108.2
3252.382	105.2
3255.46	107.2
3258.537	102.2
3261.611	96.2
3264.682	109.2
3267.751	113.2
3270.818	90.2
3273.882	103.2
3276.943	97.2
3280.002	98.2
3283.059	98.2
3286.113	86.2
3289.165	89.2
3292.214	96.2
3295.261	94.2
3298.306	95.2
3301.348	95.2
3304.387	87.2
3307.425	93.2
3310.459	83.2
3313.492	91.2
3316.521	91.2
3319.549	98.2
3322.574	86.2
3325.597	84.2
3328.617	86.2
3331.635	91.2
3334.65	89.2
3337.663	82.2
3340.674	84.2
3343.682	86.2
3346.688	77.2
3349.691	78.2
3352.692	81.2
3355.691	90.2
3358.687	85.2
3361.681	89.2
3364.673	89.2
3367.662	84.2
3370.649	84.2
3373.633	79.2
3376.615	74.2
3379.595	74.2
3382.572	67.2
3385.547	70.2
3388.52	73.2
3391.49	65.2
3394.458	58.2
3397.424	72.2
3400.387	64.2
3403.348	67.2
3406.307	59.2
3409.263	69.2
3412.217	64.2
3415.168	68.2
3418.118	59.2
3421.065	55.2
3424.009	56.2
3426.951	50.2
3429.891	50.2
3432.829	51.2
3435.764	55.2
3438.697	55.2
3441.628	34.2
3444.557	41.2
3447.483	41.2
3450.407	35.2
3453.328	34.2
3456.247	36.2
3459.164	29.2
3462.079	29.2
3464.991	27.2
3467.902	26.2
3470.809	27.2
3473.715	27.2
3476.618	19.2
3479.519	16.2
3482.418	14.2
3485.315	13.2
3488.209	0.2
3491.101	7.2
3493.99	4.2
3496.878	7.2
3499.763	7.2
3502.646	4.2
3505.527	3.2
3508.405	4.2
3511.281	5.2
3514.155	0.2
3517.027	-6.8
3519.897	0.2
3522.764	-6.8
3525.629	-8.8
3528.492	-8.8
3531.352	-13.8
3534.211	-20.8
3537.067	-15.8
3539.921	-15.8
3542.773	-22.8
3545.622	-12.8
3548.469	-13.8
3551.315	-14.8
3554.157	-19.8
3556.998	-17.8
3559.837	-22.8
3562.673	-20.8
3565.507	-22.8
3568.339	-18.8
3571.169	-24.8
3573.996	-18.8
3576.822	-34.8
3579.645	-29.8
3582.466	-31.8
3585.285	-26.8
3588.101	-34.8
3590.916	-26.8
3593.728	-29.8
3596.538	-29.8
3599.346	-31.8
3602.152	-27.8
3604.956	-30.8
3607.757	-23.8
3610.556	-30.8
3613.354	-35.8
3616.149	-37.8
3618.942	-35.8
3621.732	-38.8
3624.521	-36.8
3627.307	-34.8
3630.092	-40.8
3632.874	-38.8
3635.654	-35.8
3638.432	-36.8
3641.208	-28.8
3643.982	-33.8
3646.753	-40.8
3649.523	-32.8
3652.29	-39.8
3655.055	-41.8
3657.818	-40.8
3660.579	-43.8
3663.338	-37.8
3666.095	-45.8
3668.849	-47.8
3671.602	-44.8
3674.352	-38.8
3677.101	-41.8
3679.847	-40.8
3682.591	-45.8
3685.333	-40.8
3688.073	-45.8
3690.811	-41.8
3693.547	-44.8
3696.281	-42.8
3699.013	-41.8
3701.742	-49.8
3704.47	-43.8
3707.195	-43.8
3709.919	-48.8
3712.64	-43.8
3715.359	-45.8
3718.076	-45.8
3720.792	-41.8
3723.505	-47.8
3726.216	-40.8
3728.925	-50.8
3731.632	-40.8
3734.336	-46.8
3737.039	-42.8
3739.74	-45.8
3742.439	-48.8
3745.136	-49.8
3747.83	-45.8
3750.523	-52.8
3753.213	-48.8
3755.902	-46.8
3758.589	-49.8
3761.273	-45.8
3763.956	-47.8
3766.636	-40.8
3769.315	-38.8
3771.991	-48.8
3774.665	-50.8
3777.338	-44.8
3780.008	-51.8
3782.677	-52.8
3785.343	-46.8
3788.007	-46.8
3790.67	-50.8
3793.33	-52.8
3795.989	-51.8
3798.645	-52.8
3801.299	-46.8
3803.952	-45.8
3806.602	-46.8
3809.251	-48.8
3811.897	-50.8
3814.542	-57.8
3817.184	-46.8
3819.825	-45.8
3822.463	-48.8
3825.1	-42.8
3827.735	-61.8
3830.367	-54.8
3832.998	-55.8
3835.627	-49.8
3838.253	-44.8
3840.878	-40.8
3843.501	-42.8
3846.122	-46.8
3848.741	-49.8
3851.358	-46.8
3853.973	-47.8
3856.586	-44.8
3859.197	-48.8
3861.806	-47.8
3864.414	-54.8
3867.019	-49.8
3869.622	-43.8
3872.224	-39.8
3874.823	-30.8
3877.421	-22.8
3880.016	-12.8
3882.61	5.2
3885.202	6.2
3887.792	-2.8
3890.38	-17.8
3892.966	-34.8
3895.55	-44.8
3898.132	-46.8
3900.713	-49.8
3903.291	-49.8
3905.868	-51.8
3908.442	-49.8
3911.015	-48.8
3913.586	-56.8
3916.155	-48.8
3918.722	-47.8
3921.287	-48.8
3923.85	-40.8
3926.411	-50.8
3928.971	-59.8
3931.528	-52.8
3934.084	-48.8
3936.638	-53.8
3939.19	-51.8
3941.74	-49.8
3944.288	-50.8
3946.834	-51.8
3949.378	-49.8
3951.921	-49.8
3954.462	-49.8
3957	-42.8
3959.537	-36.8
3962.072	-44.8
3964.606	-41.8
3967.137	-46.8
3969.667	-50.8
3972.194	-50.8
3974.72	-48.8
3977.244	-45.8
3979.766	-50.8
3982.286	-54.8
3984.805	-53.8
3987.321	-43.8
3989.836	-47.8
3992.349	-48.8
3994.86	-44.8
3997.369	-49.8
3999.877	-48.8
4002.382	-46.8
4004.886	-47.8
4007.388	-52.8
4009.888	-51.8
4012.386	-50.8
4014.883	-49.8
4017.377	-47.8
4019.87	-47.8
4022.361	-53.8
4024.85	-46.8
4027.338	-50.8
4029.823	-45.8
4032.307	-49.8
4034.789	-46.8
4037.269	-45.8
4039.747	-45.8
4042.224	-52.8
4044.699	-50.8
4047.172	-55.8
4049.643	-52.8
4052.112	-50.8
4054.58	-52.8
4057.046	-46.8
4059.51	-46.8
4061.972	-48.8
4064.432	-46.8
4066.891	-41.8
4069.348	-42.8
4071.803	-42.8
4074.256	-49.8
4076.708	-48.8
4079.158	-52.8
4081.606	-51.8
4084.052	-48.8
4086.497	-45.8
4088.939	-43.8
4091.38	-54.8
4093.819	-50.8
4096.257	-50.8
4098.693	-49.8
4101.127	-45.8
4103.559	-52.8
4105.989	15.2
4108.418	10.2
4110.845	8.2
4113.27	6.2
4115.694	11.2
4118.115	7.2
4120.535	-47.8
4122.954	-45.8
4125.37	-46.8
4127.785	-45.8
4130.198	-47.8
4132.609	-53.8
4135.019	-51.8
4137.427	-55.8
4139.833	-50.8
4142.237	-52.8
