Data from 2018-3-7_conc=5_n=6_RamanShift_03.txt Node
Date: Wed Mar 07 12:41:22 IST 2018
User: aro
Spectrometer: QEPB0276
Trigger mode: 0
Integration Time (sec): 3.000000E1
Scans to average: 1
Electric dark correction enabled: true
Nonlinearity correction enabled: false
Boxcar width: 0
XAxis mode: Raman Shifts
Number of Pixels in Spectrum: 1044
>>>>>Begin Spectral Data<<<<<
160.701	3.9
166.742	13.9
172.777	57.9
178.805	190.9
184.826	517.9
190.841	1100.9
196.849	1843.9
202.85	2436.9
208.845	2684.9
214.833	2680.9
220.815	2653.9
226.789	2630.9
232.758	2654.9
238.719	2636.9
244.674	2634.9
250.623	2580.9
256.565	2575.9
262.5	2527.9
268.429	2497.9
274.351	2462.9
280.267	2451.9
286.176	2434.9
292.079	2439.9
297.975	2443.9
303.865	2430.9
309.748	2416.9
315.625	2414.9
321.495	2393.9
327.359	2409.9
333.217	2397.9
339.068	2411.9
344.912	2377.9
350.751	2402.9
356.583	2402.9
362.408	2407.9
368.227	2409.9
374.04	2383.9
379.847	2431.9
385.647	2422.9
391.44	2443.9
397.228	2444.9
403.009	2464.9
408.784	2466.9
414.553	2472.9
420.315	2478.9
426.071	2476.9
431.821	2492.9
437.565	2479.9
443.302	2468.9
449.033	2460.9
454.758	2463.9
460.477	2447.9
466.189	2420.9
471.896	2412.9
477.596	2423.9
483.29	2394.9
488.978	2377.9
494.66	2398.9
500.335	2353.9
506.005	2318.9
511.668	2255.9
517.325	2202.9
522.977	2145.9
528.622	2120.9
534.261	2100.9
539.894	2081.9
545.521	2070.9
551.141	2027.9
556.756	2019.9
562.365	2023.9
567.968	1986.9
573.565	1987.9
579.155	1994.9
584.74	1979.9
590.319	1958.9
595.892	1979.9
601.459	1954.9
607.02	1942.9
612.575	1919.9
618.124	1919.9
623.667	1892.9
629.204	1879.9
634.735	1868.9
640.261	1856.9
645.781	1854.9
651.294	1829.9
656.802	1837.9
662.304	1835.9
667.8	1837.9
673.29	1842.9
678.775	1822.9
684.254	1828.9
689.726	1799.9
695.193	1817.9
700.655	1801.9
706.11	1781.9
711.56	1777.9
717.004	1745.9
722.442	1756.9
727.874	1728.9
733.301	1757.9
738.722	1726.9
744.137	1721.9
749.547	1743.9
754.951	1712.9
760.349	1736.9
765.741	1731.9
771.128	1716.9
776.509	1743.9
781.885	1753.9
787.254	1751.9
792.618	1744.9
797.977	1730.9
803.33	1702.9
808.677	1721.9
814.019	1716.9
819.355	1704.9
824.686	1674.9
830.011	1688.9
835.33	1672.9
840.644	1676.9
845.952	1658.9
851.255	1651.9
856.552	1667.9
861.844	1651.9
867.13	1651.9
872.41	1639.9
877.686	1635.9
882.955	1633.9
888.219	1606.9
893.478	1588.9
898.731	1566.9
903.979	1531.9
909.221	1538.9
914.458	1541.9
919.69	1534.9
924.916	1519.9
930.136	1543.9
935.351	1532.9
940.561	1527.9
945.766	1547.9
950.965	1533.9
956.158	1528.9
961.347	1502.9
966.529	1487.9
971.707	1441.9
976.879	1443.9
982.046	1445.9
987.208	1424.9
992.364	1417.9
997.515	1421.9
1002.66	1434.9
1007.801	1468.9
1012.936	1451.9
1018.066	1470.9
1023.19	1458.9
1028.309	1457.9
1033.423	1451.9
1038.532	1443.9
1043.636	1440.9
1048.734	1429.9
1053.827	1417.9
1058.915	1387.9
1063.998	1383.9
1069.075	1372.9
1074.147	1373.9
1079.214	1377.9
1084.276	1395.9
1089.333	1403.9
1094.385	1386.9
1099.431	1393.9
1104.472	1394.9
1109.509	1373.9
1114.54	1371.9
1119.565	1333.9
1124.586	1330.9
1129.602	1313.9
1134.613	1303.9
1139.618	1305.9
1144.619	1301.9
1149.614	1316.9
1154.604	1298.9
1159.589	1315.9
1164.57	1318.9
1169.545	1305.9
1174.515	1313.9
1179.48	1297.9
1184.44	1298.9
1189.395	1292.9
1194.345	1251.9
1199.29	1257.9
1204.23	1264.9
1209.165	1264.9
1214.095	1285.9
1219.021	1272.9
1223.941	1293.9
1228.856	1299.9
1233.766	1301.9
1238.672	1309.9
1243.572	1302.9
1248.467	1284.9
1253.358	1268.9
1258.244	1257.9
1263.124	1234.9
1268	1228.9
1272.871	1201.9
1277.737	1197.9
1282.599	1181.9
1287.455	1186.9
1292.306	1183.9
1297.153	1183.9
1301.995	1196.9
1306.832	1206.9
1311.664	1209.9
1316.491	1237.9
1321.314	1224.9
1326.132	1217.9
1330.945	1186.9
1335.753	1182.9
1340.556	1139.9
1345.354	1119.9
1350.148	1103.9
1354.937	1073.9
1359.722	1040.9
1364.501	1023.9
1369.276	1007.9
1374.046	992.9
1378.811	975.9
1383.572	972.9
1388.327	964.9
1393.079	965.9
1397.825	974.9
1402.567	977.9
1407.304	986.9
1412.036	991.9
1416.764	1002.9
1421.487	1011.9
1426.205	1003.9
1430.919	999.9
1435.628	1022.9
1440.333	1024.9
1445.032	1017.9
1449.727	1031.9
1454.418	1032.9
1459.104	1028.9
1463.785	1012.9
1468.462	991.9
1473.134	964.9
1477.802	937.9
1482.465	929.9
1487.123	898.9
1491.777	899.9
1496.426	867.9
1501.071	866.9
1505.711	863.9
1510.347	851.9
1514.978	829.9
1519.604	837.9
1524.226	821.9
1528.844	815.9
1533.457	814.9
1538.065	804.9
1542.669	803.9
1547.269	813.9
1551.864	814.9
1556.454	823.9
1561.041	834.9
1565.622	838.9
1570.199	852.9
1574.772	863.9
1579.34	874.9
1583.904	879.9
1588.464	887.9
1593.019	893.9
1597.569	917.9
1602.115	900.9
1606.657	906.9
1611.195	911.9
1615.728	896.9
1620.256	888.9
1624.78	893.9
1629.3	878.9
1633.816	900.9
1638.327	895.9
1642.834	894.9
1647.336	882.9
1651.834	894.9
1656.328	887.9
1660.817	883.9
1665.302	879.9
1669.783	850.9
1674.259	837.9
1678.732	805.9
1683.199	783.9
1687.663	751.9
1692.122	718.9
1696.577	686.9
1701.028	650.9
1705.474	604.9
1709.917	588.9
1714.355	580.9
1718.788	584.9
1723.218	578.9
1727.643	592.9
1732.064	579.9
1736.481	585.9
1740.893	568.9
1745.301	554.9
1749.705	548.9
1754.105	544.9
1758.501	523.9
1762.893	519.9
1767.28	505.9
1771.663	508.9
1776.042	483.9
1780.417	480.9
1784.787	491.9
1789.154	464.9
1793.516	448.9
1797.874	435.9
1802.228	441.9
1806.578	427.9
1810.924	413.9
1815.266	418.9
1819.603	418.9
1823.937	433.9
1828.266	431.9
1832.591	435.9
1836.913	444.9
1841.23	448.9
1845.543	444.9
1849.852	455.9
1854.156	455.9
1858.457	446.9
1862.754	460.9
1867.047	459.9
1871.335	453.9
1875.62	446.9
1879.9	461.9
1884.177	436.9
1888.449	431.9
1892.718	431.9
1896.982	431.9
1901.243	409.9
1905.499	405.9
1909.752	398.9
1914	374.9
1918.245	382.9
1922.485	368.9
1926.722	364.9
1930.954	351.9
1935.183	364.9
1939.408	349.9
1943.628	345.9
1947.845	343.9
1952.058	334.9
1956.267	327.9
1960.472	336.9
1964.673	319.9
1968.87	333.9
1973.063	334.9
1977.252	324.9
1981.438	329.9
1985.619	333.9
1989.797	329.9
1993.971	343.9
1998.14	342.9
2002.306	346.9
2006.469	350.9
2010.627	333.9
2014.781	354.9
2018.932	348.9
2023.078	352.9
2027.221	346.9
2031.36	335.9
2035.495	335.9
2039.627	328.9
2043.754	320.9
2047.878	325.9
2051.998	319.9
2056.114	319.9
2060.226	315.9
2064.334	298.9
2068.439	306.9
2072.54	309.9
2076.637	310.9
2080.73	302.9
2084.82	305.9
2088.906	303.9
2092.988	290.9
2097.066	286.9
2101.14	277.9
2105.211	283.9
2109.278	272.9
2113.342	265.9
2117.401	268.9
2121.457	258.9
2125.509	266.9
2129.558	257.9
2133.602	267.9
2137.643	267.9
2141.681	269.9
2145.714	261.9
2149.744	270.9
2153.77	269.9
2157.793	257.9
2161.812	266.9
2165.827	273.9
2169.838	263.9
2173.846	269.9
2177.851	271.9
2181.851	259.9
2185.848	256.9
2189.841	253.9
2193.831	252.9
2197.817	247.9
2201.799	248.9
2205.778	255.9
2209.753	253.9
2213.725	255.9
2217.693	255.9
2221.657	243.9
2225.618	250.9
2229.575	239.9
2233.529	243.9
2237.479	239.9
2241.425	227.9
2245.368	236.9
2249.307	237.9
2253.243	234.9
2257.175	220.9
2261.104	216.9
2265.029	223.9
2268.95	224.9
2272.868	222.9
2276.783	209.9
2280.694	206.9
2284.601	208.9
2288.505	204.9
2292.405	210.9
2296.302	202.9
2300.195	199.9
2304.085	198.9
2307.971	194.9
2311.854	198.9
2315.734	194.9
2319.609	196.9
2323.482	190.9
2327.351	194.9
2331.216	205.9
2335.078	206.9
2338.937	201.9
2342.792	192.9
2346.643	191.9
2350.492	197.9
2354.336	195.9
2358.178	194.9
2362.015	194.9
2365.85	193.9
2369.681	199.9
2373.508	198.9
2377.333	195.9
2381.153	190.9
2384.971	194.9
2388.785	193.9
2392.595	192.9
2396.402	196.9
2400.206	195.9
2404.007	196.9
2407.804	194.9
2411.597	191.9
2415.388	192.9
2419.174	201.9
2422.958	196.9
2426.738	197.9
2430.515	188.9
2434.289	196.9
2438.059	190.9
2441.825	182.9
2445.589	176.9
2449.349	173.9
2453.106	185.9
2456.859	171.9
2460.61	170.9
2464.356	176.9
2468.1	179.9
2471.84	161.9
2475.577	161.9
2479.311	164.9
2483.041	164.9
2486.768	156.9
2490.492	164.9
2494.213	158.9
2497.93	164.9
2501.644	160.9
2505.355	151.9
2509.062	152.9
2512.766	148.9
2516.467	147.9
2520.165	145.9
2523.859	155.9
2527.551	134.9
2531.239	139.9
2534.923	133.9
2538.605	131.9
2542.283	130.9
2545.958	127.9
2549.63	127.9
2553.299	124.9
2556.964	126.9
2560.626	126.9
2564.285	128.9
2567.941	117.9
2571.594	120.9
2575.243	119.9
2578.89	114.9
2582.533	115.9
2586.173	106.9
2589.809	112.9
2593.443	119.9
2597.073	103.9
2600.701	110.9
2604.325	97.9
2607.946	97.9
2611.564	106.9
2615.178	104.9
2618.79	110.9
2622.398	102.9
2626.004	102.9
2629.606	97.9
2633.205	101.9
2636.801	101.9
2640.394	109.9
2643.983	102.9
2647.57	97.9
2651.153	101.9
2654.734	102.9
2658.311	101.9
2661.885	91.9
2665.456	97.9
2669.025	92.9
2672.589	94.9
2676.151	88.9
2679.71	84.9
2683.266	86.9
2686.819	95.9
2690.368	86.9
2693.915	91.9
2697.458	87.9
2700.999	83.9
2704.536	87.9
2708.071	84.9
2711.602	76.9
2715.13	69.9
2718.656	81.9
2722.178	72.9
2725.697	72.9
2729.214	73.9
2732.727	75.9
2736.237	72.9
2739.744	59.9
2743.249	56.9
2746.75	58.9
2750.248	62.9
2753.743	54.9
2757.236	54.9
2760.725	50.9
2764.211	43.9
2767.695	43.9
2771.175	43.9
2774.652	43.9
2778.127	50.9
2781.598	50.9
2785.067	45.9
2788.532	50.9
2791.995	53.9
2795.455	48.9
2798.911	48.9
2802.365	54.9
2805.816	49.9
2809.264	50.9
2812.709	51.9
2816.151	49.9
2819.59	61.9
2823.026	50.9
2826.46	56.9
2829.89	52.9
2833.318	47.9
2836.742	59.9
2840.164	52.9
2843.583	52.9
2846.999	54.9
2850.412	56.9
2853.822	56.9
2857.229	61.9
2860.634	53.9
2864.035	57.9
2867.434	53.9
2870.83	71.9
2874.223	61.9
2877.613	72.9
2881	67.9
2884.385	76.9
2887.766	76.9
2891.145	71.9
2894.521	66.9
2897.894	70.9
2901.264	66.9
2904.631	65.9
2907.996	69.9
2911.358	79.9
2914.717	77.9
2918.073	76.9
2921.426	73.9
2924.777	81.9
2928.124	83.9
2931.469	94.9
2934.811	92.9
2938.15	97.9
2941.487	103.9
2944.821	99.9
2948.152	98.9
2951.48	94.9
2954.805	96.9
2958.128	86.9
2961.447	90.9
2964.765	82.9
2968.079	86.9
2971.39	82.9
2974.699	79.9
2978.005	87.9
2981.308	88.9
2984.609	80.9
2987.907	79.9
2991.202	84.9
2994.494	82.9
2997.784	81.9
3001.07	84.9
3004.355	84.9
3007.636	86.9
3010.915	90.9
3014.191	90.9
3017.464	98.9
3020.734	87.9
3024.002	97.9
3027.267	106.9
3030.53	98.9
3033.789	105.9
3037.046	110.9
3040.301	105.9
3043.552	118.9
3046.801	120.9
3050.048	120.9
3053.291	123.9
3056.532	124.9
3059.771	124.9
3063.006	139.9
3066.239	139.9
3069.469	155.9
3072.697	142.9
3075.922	155.9
3079.144	155.9
3082.364	170.9
3085.581	170.9
3088.795	171.9
3092.007	173.9
3095.216	174.9
3098.423	182.9
3101.627	185.9
3104.828	194.9
3108.026	190.9
3111.222	200.9
3114.416	203.9
3117.607	203.9
3120.795	198.9
3123.98	210.9
3127.163	219.9
3130.344	231.9
3133.521	226.9
3136.696	235.9
3139.869	237.9
3143.039	238.9
3146.206	248.9
3149.371	247.9
3152.533	258.9
3155.693	256.9
3158.85	258.9
3162.005	256.9
3165.157	262.9
3168.306	255.9
3171.453	258.9
3174.597	261.9
3177.739	262.9
3180.878	270.9
3184.014	255.9
3187.149	259.9
3190.28	253.9
3193.409	264.9
3196.536	262.9
3199.659	273.9
3202.781	266.9
3205.9	265.9
3209.016	261.9
3212.13	269.9
3215.241	262.9
3218.35	267.9
3221.456	256.9
3224.56	255.9
3227.661	250.9
3230.76	244.9
3233.856	250.9
3236.95	241.9
3240.041	231.9
3243.13	242.9
3246.216	227.9
3249.3	222.9
3252.382	221.9
3255.46	218.9
3258.537	217.9
3261.611	207.9
3264.682	203.9
3267.751	213.9
3270.818	197.9
3273.882	203.9
3276.943	198.9
3280.002	203.9
3283.059	204.9
3286.113	198.9
3289.165	194.9
3292.214	193.9
3295.261	190.9
3298.306	187.9
3301.348	195.9
3304.387	189.9
3307.425	184.9
3310.459	191.9
3313.492	186.9
3316.521	184.9
3319.549	190.9
3322.574	181.9
3325.597	179.9
3328.617	177.9
3331.635	182.9
3334.65	187.9
3337.663	176.9
3340.674	178.9
3343.682	180.9
3346.688	175.9
3349.691	188.9
3352.692	188.9
3355.691	196.9
3358.687	182.9
3361.681	180.9
3364.673	182.9
3367.662	180.9
3370.649	173.9
3373.633	165.9
3376.615	169.9
3379.595	161.9
3382.572	157.9
3385.547	160.9
3388.52	157.9
3391.49	139.9
3394.458	146.9
3397.424	144.9
3400.387	147.9
3403.348	132.9
3406.307	137.9
3409.263	137.9
3412.217	132.9
3415.168	141.9
3418.118	135.9
3421.065	123.9
3424.009	128.9
3426.951	125.9
3429.891	124.9
3432.829	111.9
3435.764	124.9
3438.697	113.9
3441.628	106.9
3444.557	108.9
3447.483	100.9
3450.407	100.9
3453.328	94.9
3456.247	87.9
3459.164	78.9
3462.079	72.9
3464.991	75.9
3467.902	66.9
3470.809	64.9
3473.715	65.9
3476.618	59.9
3479.519	56.9
3482.418	49.9
3485.315	51.9
3488.209	45.9
3491.101	38.9
3493.99	44.9
3496.878	39.9
3499.763	28.9
3502.646	35.9
3505.527	31.9
3508.405	27.9
3511.281	24.9
3514.155	17.9
3517.027	11.9
3519.897	22.9
3522.764	12.9
3525.629	8.9
3528.492	7.9
3531.352	0.9
3534.211	-2.1
3537.067	0.9
3539.921	-5.1
3542.773	-1.1
3545.622	-2.1
3548.469	-8.1
3551.315	-11.1
3554.157	-8.1
3556.998	-10.1
3559.837	-19.1
3562.673	-14.1
3565.507	-16.1
3568.339	-17.1
3571.169	-20.1
3573.996	-13.1
3576.822	-31.1
3579.645	-26.1
3582.466	-28.1
3585.285	-28.1
3588.101	-33.1
3590.916	-29.1
3593.728	-27.1
3596.538	-31.1
3599.346	-32.1
3602.152	-33.1
3604.956	-26.1
3607.757	-26.1
3610.556	-32.1
3613.354	-35.1
3616.149	-40.1
3618.942	-41.1
3621.732	-41.1
3624.521	-38.1
3627.307	-43.1
3630.092	-42.1
3632.874	-50.1
3635.654	-45.1
3638.432	-44.1
3641.208	-41.1
3643.982	-42.1
3646.753	-46.1
3649.523	-45.1
3652.29	-42.1
3655.055	-40.1
3657.818	-47.1
3660.579	-49.1
3663.338	-44.1
3666.095	-51.1
3668.849	-50.1
3671.602	-51.1
3674.352	-51.1
3677.101	-50.1
3679.847	-52.1
3682.591	-55.1
3685.333	-51.1
3688.073	-59.1
3690.811	-53.1
3693.547	-57.1
3696.281	-54.1
3699.013	-56.1
3701.742	-57.1
3704.47	-52.1
3707.195	-55.1
3709.919	-57.1
3712.64	-58.1
3715.359	-56.1
3718.076	-61.1
3720.792	-55.1
3723.505	-54.1
3726.216	-55.1
3728.925	-61.1
3731.632	-56.1
3734.336	-57.1
3737.039	-57.1
3739.74	-60.1
3742.439	-65.1
3745.136	-61.1
3747.83	-64.1
3750.523	-65.1
3753.213	-72.1
3755.902	-60.1
3758.589	-61.1
3761.273	-56.1
3763.956	-66.1
3766.636	-59.1
3769.315	-55.1
3771.991	-63.1
3774.665	-58.1
3777.338	-61.1
3780.008	-61.1
3782.677	-63.1
3785.343	-61.1
3788.007	-62.1
3790.67	-65.1
3793.33	-60.1
3795.989	-68.1
3798.645	-65.1
3801.299	-62.1
3803.952	-66.1
3806.602	-62.1
3809.251	-69.1
3811.897	-66.1
3814.542	-67.1
3817.184	-60.1
3819.825	-56.1
3822.463	-60.1
3825.1	-62.1
3827.735	-62.1
3830.367	-64.1
3832.998	-63.1
3835.627	-65.1
3838.253	-60.1
3840.878	-55.1
3843.501	-57.1
3846.122	-65.1
3848.741	-64.1
3851.358	-65.1
3853.973	-61.1
3856.586	-62.1
3859.197	-67.1
3861.806	-62.1
3864.414	-67.1
3867.019	-65.1
3869.622	-55.1
3872.224	-55.1
3874.823	-48.1
3877.421	-46.1
3880.016	-30.1
3882.61	-19.1
3885.202	-14.1
3887.792	-23.1
3890.38	-35.1
3892.966	-52.1
3895.55	-59.1
3898.132	-62.1
3900.713	-63.1
3903.291	-70.1
3905.868	-63.1
3908.442	-67.1
3911.015	-61.1
3913.586	-68.1
3916.155	-65.1
3918.722	-69.1
3921.287	-65.1
3923.85	-58.1
3926.411	-65.1
3928.971	-74.1
3931.528	-66.1
3934.084	-65.1
3936.638	-60.1
3939.19	-68.1
3941.74	-64.1
3944.288	-67.1
3946.834	-63.1
3949.378	-67.1
3951.921	-66.1
3954.462	-71.1
3957	-58.1
3959.537	-63.1
3962.072	-62.1
3964.606	-64.1
3967.137	-66.1
3969.667	-66.1
3972.194	-61.1
3974.72	-58.1
3977.244	-56.1
3979.766	-65.1
3982.286	-66.1
3984.805	-73.1
3987.321	-58.1
3989.836	-58.1
3992.349	-63.1
3994.86	-68.1
3997.369	-61.1
3999.877	-63.1
4002.382	-65.1
4004.886	-64.1
4007.388	-68.1
4009.888	-65.1
4012.386	-69.1
4014.883	-64.1
4017.377	-60.1
4019.87	-66.1
4022.361	-66.1
4024.85	-58.1
4027.338	-62.1
4029.823	-63.1
4032.307	-65.1
4034.789	-57.1
4037.269	-62.1
4039.747	-60.1
4042.224	-63.1
4044.699	-61.1
4047.172	-67.1
4049.643	-62.1
4052.112	-63.1
4054.58	-63.1
4057.046	-59.1
4059.51	-68.1
4061.972	-65.1
4064.432	-65.1
4066.891	-60.1
4069.348	-70.1
4071.803	-62.1
4074.256	-64.1
4076.708	-63.1
4079.158	-67.1
4081.606	-63.1
4084.052	-60.1
4086.497	-61.1
4088.939	-62.1
4091.38	-64.1
4093.819	-70.1
4096.257	-67.1
4098.693	-68.1
4101.127	-61.1
4103.559	-71.1
4105.989	-6.1
4108.418	-10.1
4110.845	-13.1
4113.27	-3.1
4115.694	-3.1
4118.115	-0.1
4120.535	-61.1
4122.954	-61.1
4125.37	-63.1
4127.785	-62.1
4130.198	-59.1
4132.609	-63.1
4135.019	-67.1
4137.427	-70.1
4139.833	-63.1
4142.237	-66.1
