Data from 2018-3-7_conc=5_n=4_RamanShift_05.txt Node
Date: Wed Mar 07 12:36:22 IST 2018
User: aro
Spectrometer: QEPB0276
Trigger mode: 0
Integration Time (sec): 3.000000E1
Scans to average: 1
Electric dark correction enabled: true
Nonlinearity correction enabled: false
Boxcar width: 0
XAxis mode: Raman Shifts
Number of Pixels in Spectrum: 1044
>>>>>Begin Spectral Data<<<<<
160.701	6.9
166.742	12.9
172.777	53.9
178.805	164.9
184.826	465.9
190.841	1006.9
196.849	1672.9
202.85	2204.9
208.845	2396.9
214.833	2401.9
220.815	2372.9
226.789	2360.9
232.758	2393.9
238.719	2376.9
244.674	2355.9
250.623	2349.9
256.565	2307.9
262.5	2267.9
268.429	2250.9
274.351	2225.9
280.267	2203.9
286.176	2204.9
292.079	2193.9
297.975	2196.9
303.865	2187.9
309.748	2175.9
315.625	2171.9
321.495	2167.9
327.359	2158.9
333.217	2173.9
339.068	2174.9
344.912	2198.9
350.751	2170.9
356.583	2165.9
362.408	2196.9
368.227	2178.9
374.04	2192.9
379.847	2203.9
385.647	2210.9
391.44	2210.9
397.228	2203.9
403.009	2253.9
408.784	2217.9
414.553	2254.9
420.315	2251.9
426.071	2240.9
431.821	2240.9
437.565	2261.9
443.302	2251.9
449.033	2246.9
454.758	2241.9
460.477	2205.9
466.189	2187.9
471.896	2201.9
477.596	2159.9
483.29	2176.9
488.978	2158.9
494.66	2137.9
500.335	2129.9
506.005	2075.9
511.668	2018.9
517.325	1980.9
522.977	1930.9
528.622	1877.9
534.261	1847.9
539.894	1851.9
545.521	1834.9
551.141	1825.9
556.756	1787.9
562.365	1805.9
567.968	1792.9
573.565	1778.9
579.155	1772.9
584.74	1761.9
590.319	1768.9
595.892	1765.9
601.459	1753.9
607.02	1730.9
612.575	1710.9
618.124	1695.9
623.667	1691.9
629.204	1686.9
634.735	1660.9
640.261	1665.9
645.781	1643.9
651.294	1639.9
656.802	1643.9
662.304	1634.9
667.8	1622.9
673.29	1637.9
678.775	1634.9
684.254	1613.9
689.726	1612.9
695.193	1611.9
700.655	1576.9
706.11	1587.9
711.56	1571.9
717.004	1576.9
722.442	1556.9
727.874	1538.9
733.301	1545.9
738.722	1540.9
744.137	1530.9
749.547	1509.9
754.951	1536.9
760.349	1533.9
765.741	1536.9
771.128	1537.9
776.509	1540.9
781.885	1540.9
787.254	1555.9
792.618	1547.9
797.977	1544.9
803.33	1533.9
808.677	1537.9
814.019	1507.9
819.355	1508.9
824.686	1488.9
830.011	1504.9
835.33	1489.9
840.644	1485.9
845.952	1498.9
851.255	1472.9
856.552	1471.9
861.844	1463.9
867.13	1456.9
872.41	1452.9
877.686	1465.9
882.955	1435.9
888.219	1422.9
893.478	1410.9
898.731	1377.9
903.979	1366.9
909.221	1358.9
914.458	1354.9
919.69	1345.9
924.916	1344.9
930.136	1375.9
935.351	1365.9
940.561	1368.9
945.766	1359.9
950.965	1363.9
956.158	1335.9
961.347	1334.9
966.529	1315.9
971.707	1299.9
976.879	1262.9
982.046	1261.9
987.208	1257.9
992.364	1259.9
997.515	1260.9
1002.66	1277.9
1007.801	1276.9
1012.936	1294.9
1018.066	1289.9
1023.19	1300.9
1028.309	1287.9
1033.423	1281.9
1038.532	1287.9
1043.636	1280.9
1048.734	1272.9
1053.827	1243.9
1058.915	1229.9
1063.998	1212.9
1069.075	1216.9
1074.147	1204.9
1079.214	1233.9
1084.276	1229.9
1089.333	1226.9
1094.385	1240.9
1099.431	1216.9
1104.472	1228.9
1109.509	1223.9
1114.54	1197.9
1119.565	1191.9
1124.586	1172.9
1129.602	1155.9
1134.613	1154.9
1139.618	1140.9
1144.619	1134.9
1149.614	1149.9
1154.604	1139.9
1159.589	1156.9
1164.57	1145.9
1169.545	1160.9
1174.515	1149.9
1179.48	1160.9
1184.44	1143.9
1189.395	1142.9
1194.345	1116.9
1199.29	1107.9
1204.23	1107.9
1209.165	1119.9
1214.095	1126.9
1219.021	1130.9
1223.941	1141.9
1228.856	1142.9
1233.766	1156.9
1238.672	1137.9
1243.572	1145.9
1248.467	1147.9
1253.358	1120.9
1258.244	1107.9
1263.124	1088.9
1268	1072.9
1272.871	1058.9
1277.737	1050.9
1282.599	1052.9
1287.455	1041.9
1292.306	1038.9
1297.153	1050.9
1301.995	1048.9
1306.832	1068.9
1311.664	1069.9
1316.491	1067.9
1321.314	1055.9
1326.132	1055.9
1330.945	1035.9
1335.753	1032.9
1340.556	992.9
1345.354	975.9
1350.148	968.9
1354.937	946.9
1359.722	938.9
1364.501	906.9
1369.276	889.9
1374.046	859.9
1378.811	840.9
1383.572	862.9
1388.327	852.9
1393.079	843.9
1397.825	852.9
1402.567	855.9
1407.304	896.9
1412.036	876.9
1416.764	879.9
1421.487	877.9
1426.205	885.9
1430.919	881.9
1435.628	893.9
1440.333	889.9
1445.032	886.9
1449.727	914.9
1454.418	903.9
1459.104	905.9
1463.785	889.9
1468.462	873.9
1473.134	853.9
1477.802	829.9
1482.465	809.9
1487.123	797.9
1491.777	785.9
1496.426	778.9
1501.071	761.9
1505.711	752.9
1510.347	745.9
1514.978	743.9
1519.604	729.9
1524.226	722.9
1528.844	715.9
1533.457	714.9
1538.065	708.9
1542.669	704.9
1547.269	721.9
1551.864	716.9
1556.454	737.9
1561.041	747.9
1565.622	742.9
1570.199	753.9
1574.772	750.9
1579.34	763.9
1583.904	772.9
1588.464	809.9
1593.019	799.9
1597.569	792.9
1602.115	787.9
1606.657	778.9
1611.195	788.9
1615.728	788.9
1620.256	762.9
1624.78	767.9
1629.3	778.9
1633.816	776.9
1638.327	788.9
1642.834	778.9
1647.336	790.9
1651.834	778.9
1656.328	785.9
1660.817	788.9
1665.302	773.9
1669.783	752.9
1674.259	735.9
1678.732	716.9
1683.199	685.9
1687.663	655.9
1692.122	628.9
1696.577	602.9
1701.028	567.9
1705.474	531.9
1709.917	507.9
1714.355	506.9
1718.788	508.9
1723.218	513.9
1727.643	503.9
1732.064	506.9
1736.481	516.9
1740.893	493.9
1745.301	503.9
1749.705	476.9
1754.105	465.9
1758.501	464.9
1762.893	464.9
1767.28	448.9
1771.663	439.9
1776.042	433.9
1780.417	428.9
1784.787	424.9
1789.154	408.9
1793.516	392.9
1797.874	384.9
1802.228	381.9
1806.578	369.9
1810.924	364.9
1815.266	362.9
1819.603	367.9
1823.937	386.9
1828.266	374.9
1832.591	393.9
1836.913	382.9
1841.23	386.9
1845.543	382.9
1849.852	401.9
1854.156	402.9
1858.457	399.9
1862.754	399.9
1867.047	390.9
1871.335	391.9
1875.62	390.9
1879.9	392.9
1884.177	370.9
1888.449	374.9
1892.718	370.9
1896.982	371.9
1901.243	360.9
1905.499	343.9
1909.752	338.9
1914	335.9
1918.245	329.9
1922.485	323.9
1926.722	319.9
1930.954	309.9
1935.183	316.9
1939.408	307.9
1943.628	297.9
1947.845	298.9
1952.058	305.9
1956.267	288.9
1960.472	300.9
1964.673	276.9
1968.87	290.9
1973.063	279.9
1977.252	292.9
1981.438	285.9
1985.619	286.9
1989.797	284.9
1993.971	286.9
1998.14	300.9
2002.306	299.9
2006.469	307.9
2010.627	302.9
2014.781	315.9
2018.932	298.9
2023.078	307.9
2027.221	309.9
2031.36	298.9
2035.495	287.9
2039.627	289.9
2043.754	288.9
2047.878	276.9
2051.998	282.9
2056.114	277.9
2060.226	270.9
2064.334	269.9
2068.439	262.9
2072.54	260.9
2076.637	264.9
2080.73	268.9
2084.82	265.9
2088.906	248.9
2092.988	260.9
2097.066	240.9
2101.14	258.9
2105.211	244.9
2109.278	242.9
2113.342	238.9
2117.401	232.9
2121.457	234.9
2125.509	230.9
2129.558	227.9
2133.602	229.9
2137.643	234.9
2141.681	229.9
2145.714	233.9
2149.744	233.9
2153.77	231.9
2157.793	231.9
2161.812	237.9
2165.827	242.9
2169.838	230.9
2173.846	224.9
2177.851	218.9
2181.851	225.9
2185.848	217.9
2189.841	227.9
2193.831	214.9
2197.817	226.9
2201.799	214.9
2205.778	212.9
2209.753	226.9
2213.725	212.9
2217.693	227.9
2221.657	213.9
2225.618	216.9
2229.575	207.9
2233.529	204.9
2237.479	214.9
2241.425	203.9
2245.368	207.9
2249.307	200.9
2253.243	199.9
2257.175	188.9
2261.104	185.9
2265.029	190.9
2268.95	192.9
2272.868	184.9
2276.783	186.9
2280.694	181.9
2284.601	181.9
2288.505	183.9
2292.405	183.9
2296.302	183.9
2300.195	174.9
2304.085	172.9
2307.971	171.9
2311.854	169.9
2315.734	162.9
2319.609	173.9
2323.482	165.9
2327.351	164.9
2331.216	174.9
2335.078	178.9
2338.937	174.9
2342.792	170.9
2346.643	166.9
2350.492	172.9
2354.336	165.9
2358.178	168.9
2362.015	167.9
2365.85	169.9
2369.681	173.9
2373.508	176.9
2377.333	175.9
2381.153	173.9
2384.971	168.9
2388.785	165.9
2392.595	159.9
2396.402	175.9
2400.206	173.9
2404.007	161.9
2407.804	164.9
2411.597	161.9
2415.388	161.9
2419.174	163.9
2422.958	157.9
2426.738	157.9
2430.515	155.9
2434.289	163.9
2438.059	160.9
2441.825	155.9
2445.589	144.9
2449.349	144.9
2453.106	158.9
2456.859	147.9
2460.61	156.9
2464.356	147.9
2468.1	148.9
2471.84	130.9
2475.577	134.9
2479.311	142.9
2483.041	139.9
2486.768	142.9
2490.492	139.9
2494.213	136.9
2497.93	129.9
2501.644	134.9
2505.355	127.9
2509.062	123.9
2512.766	124.9
2516.467	121.9
2520.165	123.9
2523.859	123.9
2527.551	117.9
2531.239	118.9
2534.923	113.9
2538.605	117.9
2542.283	116.9
2545.958	120.9
2549.63	119.9
2553.299	101.9
2556.964	105.9
2560.626	106.9
2564.285	103.9
2567.941	101.9
2571.594	100.9
2575.243	102.9
2578.89	94.9
2582.533	96.9
2586.173	101.9
2589.809	95.9
2593.443	96.9
2597.073	89.9
2600.701	91.9
2604.325	80.9
2607.946	85.9
2611.564	89.9
2615.178	85.9
2618.79	89.9
2622.398	94.9
2626.004	86.9
2629.606	81.9
2633.205	87.9
2636.801	93.9
2640.394	87.9
2643.983	80.9
2647.57	85.9
2651.153	73.9
2654.734	82.9
2658.311	86.9
2661.885	83.9
2665.456	79.9
2669.025	77.9
2672.589	68.9
2676.151	77.9
2679.71	76.9
2683.266	70.9
2686.819	74.9
2690.368	68.9
2693.915	75.9
2697.458	65.9
2700.999	76.9
2704.536	72.9
2708.071	75.9
2711.602	63.9
2715.13	60.9
2718.656	68.9
2722.178	59.9
2725.697	59.9
2729.214	61.9
2732.727	59.9
2736.237	59.9
2739.744	53.9
2743.249	52.9
2746.75	50.9
2750.248	48.9
2753.743	42.9
2757.236	45.9
2760.725	40.9
2764.211	40.9
2767.695	30.9
2771.175	38.9
2774.652	37.9
2778.127	41.9
2781.598	33.9
2785.067	36.9
2788.532	36.9
2791.995	44.9
2795.455	42.9
2798.911	43.9
2802.365	48.9
2805.816	45.9
2809.264	45.9
2812.709	38.9
2816.151	43.9
2819.59	52.9
2823.026	38.9
2826.46	52.9
2829.89	45.9
2833.318	39.9
2836.742	44.9
2840.164	38.9
2843.583	44.9
2846.999	49.9
2850.412	54.9
2853.822	46.9
2857.229	49.9
2860.634	45.9
2864.035	46.9
2867.434	57.9
2870.83	53.9
2874.223	55.9
2877.613	55.9
2881	57.9
2884.385	62.9
2887.766	61.9
2891.145	54.9
2894.521	59.9
2897.894	53.9
2901.264	58.9
2904.631	56.9
2907.996	58.9
2911.358	69.9
2914.717	64.9
2918.073	64.9
2921.426	64.9
2924.777	74.9
2928.124	73.9
2931.469	82.9
2934.811	87.9
2938.15	83.9
2941.487	90.9
2944.821	80.9
2948.152	88.9
2951.48	87.9
2954.805	83.9
2958.128	79.9
2961.447	76.9
2964.765	76.9
2968.079	72.9
2971.39	69.9
2974.699	68.9
2978.005	83.9
2981.308	74.9
2984.609	70.9
2987.907	72.9
2991.202	73.9
2994.494	75.9
2997.784	73.9
3001.07	70.9
3004.355	81.9
3007.636	84.9
3010.915	79.9
3014.191	77.9
3017.464	84.9
3020.734	82.9
3024.002	83.9
3027.267	84.9
3030.53	92.9
3033.789	84.9
3037.046	91.9
3040.301	94.9
3043.552	96.9
3046.801	101.9
3050.048	104.9
3053.291	98.9
3056.532	112.9
3059.771	111.9
3063.006	124.9
3066.239	124.9
3069.469	134.9
3072.697	130.9
3075.922	142.9
3079.144	135.9
3082.364	151.9
3085.581	151.9
3088.795	149.9
3092.007	157.9
3095.216	154.9
3098.423	158.9
3101.627	159.9
3104.828	174.9
3108.026	177.9
3111.222	174.9
3114.416	179.9
3117.607	185.9
3120.795	192.9
3123.98	189.9
3127.163	203.9
3130.344	207.9
3133.521	206.9
3136.696	206.9
3139.869	213.9
3143.039	218.9
3146.206	215.9
3149.371	221.9
3152.533	222.9
3155.693	227.9
3158.85	231.9
3162.005	223.9
3165.157	233.9
3168.306	218.9
3171.453	226.9
3174.597	232.9
3177.739	238.9
3180.878	237.9
3184.014	228.9
3187.149	240.9
3190.28	238.9
3193.409	238.9
3196.536	242.9
3199.659	233.9
3202.781	248.9
3205.9	241.9
3209.016	238.9
3212.13	235.9
3215.241	236.9
3218.35	224.9
3221.456	226.9
3224.56	234.9
3227.661	223.9
3230.76	218.9
3233.856	215.9
3236.95	214.9
3240.041	202.9
3243.13	203.9
3246.216	201.9
3249.3	199.9
3252.382	195.9
3255.46	192.9
3258.537	189.9
3261.611	188.9
3264.682	191.9
3267.751	190.9
3270.818	175.9
3273.882	185.9
3276.943	177.9
3280.002	173.9
3283.059	177.9
3286.113	173.9
3289.165	167.9
3292.214	170.9
3295.261	173.9
3298.306	173.9
3301.348	170.9
3304.387	173.9
3307.425	163.9
3310.459	167.9
3313.492	169.9
3316.521	162.9
3319.549	174.9
3322.574	163.9
3325.597	153.9
3328.617	160.9
3331.635	168.9
3334.65	170.9
3337.663	153.9
3340.674	163.9
3343.682	163.9
3346.688	155.9
3349.691	161.9
3352.692	161.9
3355.691	167.9
3358.687	161.9
3361.681	151.9
3364.673	172.9
3367.662	162.9
3370.649	156.9
3373.633	154.9
3376.615	148.9
3379.595	144.9
3382.572	141.9
3385.547	151.9
3388.52	137.9
3391.49	137.9
3394.458	131.9
3397.424	129.9
3400.387	132.9
3403.348	121.9
3406.307	120.9
3409.263	123.9
3412.217	125.9
3415.168	126.9
3418.118	121.9
3421.065	106.9
3424.009	111.9
3426.951	113.9
3429.891	105.9
3432.829	107.9
3435.764	114.9
3438.697	99.9
3441.628	94.9
3444.557	97.9
3447.483	96.9
3450.407	86.9
3453.328	80.9
3456.247	77.9
3459.164	73.9
3462.079	67.9
3464.991	65.9
3467.902	60.9
3470.809	61.9
3473.715	50.9
3476.618	51.9
3479.519	47.9
3482.418	41.9
3485.315	45.9
3488.209	36.9
3491.101	31.9
3493.99	45.9
3496.878	33.9
3499.763	30.9
3502.646	33.9
3505.527	30.9
3508.405	20.9
3511.281	18.9
3514.155	12.9
3517.027	13.9
3519.897	20.9
3522.764	17.9
3525.629	14.9
3528.492	2.9
3531.352	2.9
3534.211	1.9
3537.067	-5.1
3539.921	-1.1
3542.773	-5.1
3545.622	-9.1
3548.469	-8.1
3551.315	-7.1
3554.157	-11.1
3556.998	-5.1
3559.837	-7.1
3562.673	-10.1
3565.507	-17.1
3568.339	-10.1
3571.169	-19.1
3573.996	-13.1
3576.822	-23.1
3579.645	-23.1
3582.466	-21.1
3585.285	-23.1
3588.101	-32.1
3590.916	-27.1
3593.728	-27.1
3596.538	-32.1
3599.346	-29.1
3602.152	-31.1
3604.956	-26.1
3607.757	-31.1
3610.556	-34.1
3613.354	-39.1
3616.149	-35.1
3618.942	-32.1
3621.732	-36.1
3624.521	-27.1
3627.307	-31.1
3630.092	-40.1
3632.874	-40.1
3635.654	-39.1
3638.432	-38.1
3641.208	-33.1
3643.982	-39.1
3646.753	-38.1
3649.523	-36.1
3652.29	-37.1
3655.055	-38.1
3657.818	-44.1
3660.579	-46.1
3663.338	-44.1
3666.095	-49.1
3668.849	-43.1
3671.602	-45.1
3674.352	-45.1
3677.101	-46.1
3679.847	-45.1
3682.591	-48.1
3685.333	-40.1
3688.073	-49.1
3690.811	-46.1
3693.547	-48.1
3696.281	-46.1
3699.013	-50.1
3701.742	-52.1
3704.47	-44.1
3707.195	-51.1
3709.919	-47.1
3712.64	-47.1
3715.359	-51.1
3718.076	-51.1
3720.792	-51.1
3723.505	-54.1
3726.216	-49.1
3728.925	-56.1
3731.632	-49.1
3734.336	-53.1
3737.039	-51.1
3739.74	-52.1
3742.439	-58.1
3745.136	-55.1
3747.83	-49.1
3750.523	-55.1
3753.213	-50.1
3755.902	-53.1
3758.589	-54.1
3761.273	-51.1
3763.956	-56.1
3766.636	-48.1
3769.315	-50.1
3771.991	-54.1
3774.665	-56.1
3777.338	-57.1
3780.008	-55.1
3782.677	-55.1
3785.343	-59.1
3788.007	-57.1
3790.67	-58.1
3793.33	-52.1
3795.989	-59.1
3798.645	-59.1
3801.299	-52.1
3803.952	-57.1
3806.602	-54.1
3809.251	-56.1
3811.897	-56.1
3814.542	-62.1
3817.184	-54.1
3819.825	-54.1
3822.463	-54.1
3825.1	-52.1
3827.735	-59.1
3830.367	-59.1
3832.998	-61.1
3835.627	-62.1
3838.253	-56.1
3840.878	-50.1
3843.501	-54.1
3846.122	-61.1
3848.741	-60.1
3851.358	-59.1
3853.973	-58.1
3856.586	-54.1
3859.197	-55.1
3861.806	-56.1
3864.414	-58.1
3867.019	-51.1
3869.622	-50.1
3872.224	-44.1
3874.823	-37.1
3877.421	-35.1
3880.016	-23.1
3882.61	-10.1
3885.202	-13.1
3887.792	-12.1
3890.38	-30.1
3892.966	-44.1
3895.55	-55.1
3898.132	-56.1
3900.713	-57.1
3903.291	-60.1
3905.868	-54.1
3908.442	-54.1
3911.015	-57.1
3913.586	-61.1
3916.155	-59.1
3918.722	-56.1
3921.287	-57.1
3923.85	-48.1
3926.411	-57.1
3928.971	-62.1
3931.528	-58.1
3934.084	-54.1
3936.638	-53.1
3939.19	-61.1
3941.74	-55.1
3944.288	-54.1
3946.834	-56.1
3949.378	-57.1
3951.921	-65.1
3954.462	-63.1
3957	-53.1
3959.537	-47.1
3962.072	-50.1
3964.606	-56.1
3967.137	-54.1
3969.667	-59.1
3972.194	-53.1
3974.72	-49.1
3977.244	-54.1
3979.766	-53.1
3982.286	-60.1
3984.805	-63.1
3987.321	-53.1
3989.836	-57.1
3992.349	-57.1
3994.86	-61.1
3997.369	-56.1
3999.877	-59.1
4002.382	-59.1
4004.886	-55.1
4007.388	-59.1
4009.888	-58.1
4012.386	-57.1
4014.883	-55.1
4017.377	-53.1
4019.87	-55.1
4022.361	-62.1
4024.85	-55.1
4027.338	-59.1
4029.823	-59.1
4032.307	-58.1
4034.789	-54.1
4037.269	-60.1
4039.747	-53.1
4042.224	-56.1
4044.699	-56.1
4047.172	-61.1
4049.643	-60.1
4052.112	-61.1
4054.58	-60.1
4057.046	-52.1
4059.51	-59.1
4061.972	-62.1
4064.432	-54.1
4066.891	-53.1
4069.348	-55.1
4071.803	-53.1
4074.256	-57.1
4076.708	-50.1
4079.158	-57.1
4081.606	-52.1
4084.052	-57.1
4086.497	-53.1
4088.939	-54.1
4091.38	-59.1
4093.819	-59.1
4096.257	-58.1
4098.693	-58.1
4101.127	-53.1
4103.559	-63.1
4105.989	5.9
4108.418	-3.1
4110.845	-9.1
4113.27	-5.1
4115.694	4.9
4118.115	5.9
4120.535	-53.1
4122.954	-51.1
4125.37	-58.1
4127.785	-58.1
4130.198	-57.1
4132.609	-64.1
4135.019	-58.1
4137.427	-62.1
4139.833	-59.1
4142.237	-59.1
