Data from 2018-3-7_conc=0_n=4_RamanShift_04.txt Node
Date: Wed Mar 07 10:16:23 IST 2018
User: aro
Spectrometer: QEPB0276
Trigger mode: 0
Integration Time (sec): 3.000000E1
Scans to average: 1
Electric dark correction enabled: true
Nonlinearity correction enabled: false
Boxcar width: 0
XAxis mode: Raman Shifts
Number of Pixels in Spectrum: 1044
>>>>>Begin Spectral Data<<<<<
160.701	7.1
166.742	22.1
172.777	54.1
178.805	162.1
184.826	424.1
190.841	894.1
196.849	1478.1
202.85	1949.1
208.845	2133.1
214.833	2151.1
220.815	2106.1
226.789	2131.1
232.758	2136.1
238.719	2153.1
244.674	2149.1
250.623	2144.1
256.565	2117.1
262.5	2075.1
268.429	2105.1
274.351	2107.1
280.267	2094.1
286.176	2107.1
292.079	2090.1
297.975	2107.1
303.865	2102.1
309.748	2113.1
315.625	2113.1
321.495	2120.1
327.359	2151.1
333.217	2148.1
339.068	2141.1
344.912	2152.1
350.751	2161.1
356.583	2172.1
362.408	2177.1
368.227	2195.1
374.04	2189.1
379.847	2206.1
385.647	2206.1
391.44	2227.1
397.228	2245.1
403.009	2254.1
408.784	2259.1
414.553	2282.1
420.315	2293.1
426.071	2299.1
431.821	2290.1
437.565	2318.1
443.302	2309.1
449.033	2290.1
454.758	2272.1
460.477	2249.1
466.189	2227.1
471.896	2202.1
477.596	2165.1
483.29	2185.1
488.978	2170.1
494.66	2147.1
500.335	2126.1
506.005	2014.1
511.668	1925.1
517.325	1833.1
522.977	1742.1
528.622	1689.1
534.261	1640.1
539.894	1611.1
545.521	1587.1
551.141	1563.1
556.756	1545.1
562.365	1529.1
567.968	1513.1
573.565	1511.1
579.155	1490.1
584.74	1494.1
590.319	1486.1
595.892	1481.1
601.459	1481.1
607.02	1458.1
612.575	1465.1
618.124	1459.1
623.667	1447.1
629.204	1401.1
634.735	1393.1
640.261	1384.1
645.781	1366.1
651.294	1367.1
656.802	1354.1
662.304	1355.1
667.8	1348.1
673.29	1349.1
678.775	1344.1
684.254	1342.1
689.726	1323.1
695.193	1319.1
700.655	1329.1
706.11	1290.1
711.56	1304.1
717.004	1294.1
722.442	1270.1
727.874	1264.1
733.301	1272.1
738.722	1276.1
744.137	1263.1
749.547	1263.1
754.951	1256.1
760.349	1264.1
765.741	1279.1
771.128	1273.1
776.509	1306.1
781.885	1311.1
787.254	1334.1
792.618	1348.1
797.977	1341.1
803.33	1320.1
808.677	1305.1
814.019	1300.1
819.355	1298.1
824.686	1279.1
830.011	1286.1
835.33	1276.1
840.644	1280.1
845.952	1263.1
851.255	1247.1
856.552	1250.1
861.844	1238.1
867.13	1235.1
872.41	1274.1
877.686	1324.1
882.955	1399.1
888.219	1372.1
893.478	1304.1
898.731	1208.1
903.979	1165.1
909.221	1131.1
914.458	1106.1
919.69	1113.1
924.916	1106.1
930.136	1113.1
935.351	1122.1
940.561	1111.1
945.766	1106.1
950.965	1097.1
956.158	1084.1
961.347	1085.1
966.529	1066.1
971.707	1036.1
976.879	1024.1
982.046	1017.1
987.208	1017.1
992.364	1023.1
997.515	1027.1
1002.66	1032.1
1007.801	1047.1
1012.936	1056.1
1018.066	1076.1
1023.19	1068.1
1028.309	1084.1
1033.423	1085.1
1038.532	1086.1
1043.636	1101.1
1048.734	1115.1
1053.827	1111.1
1058.915	1079.1
1063.998	1051.1
1069.075	1040.1
1074.147	1054.1
1079.214	1057.1
1084.276	1079.1
1089.333	1077.1
1094.385	1090.1
1099.431	1074.1
1104.472	1062.1
1109.509	1032.1
1114.54	1011.1
1119.565	1004.1
1124.586	977.1
1129.602	951.1
1134.613	941.1
1139.618	958.1
1144.619	940.1
1149.614	943.1
1154.604	938.1
1159.589	950.1
1164.57	939.1
1169.545	940.1
1174.515	942.1
1179.48	939.1
1184.44	929.1
1189.395	921.1
1194.345	908.1
1199.29	919.1
1204.23	919.1
1209.165	910.1
1214.095	913.1
1219.021	920.1
1223.941	920.1
1228.856	930.1
1233.766	932.1
1238.672	942.1
1243.572	935.1
1248.467	930.1
1253.358	913.1
1258.244	900.1
1263.124	881.1
1268	879.1
1272.871	866.1
1277.737	867.1
1282.599	876.1
1287.455	866.1
1292.306	858.1
1297.153	865.1
1301.995	863.1
1306.832	859.1
1311.664	852.1
1316.491	862.1
1321.314	859.1
1326.132	856.1
1330.945	836.1
1335.753	828.1
1340.556	797.1
1345.354	774.1
1350.148	776.1
1354.937	742.1
1359.722	727.1
1364.501	726.1
1369.276	706.1
1374.046	704.1
1378.811	694.1
1383.572	697.1
1388.327	700.1
1393.079	696.1
1397.825	716.1
1402.567	719.1
1407.304	727.1
1412.036	728.1
1416.764	723.1
1421.487	740.1
1426.205	729.1
1430.919	726.1
1435.628	738.1
1440.333	751.1
1445.032	754.1
1449.727	793.1
1454.418	808.1
1459.104	806.1
1463.785	800.1
1468.462	754.1
1473.134	742.1
1477.802	689.1
1482.465	671.1
1487.123	657.1
1491.777	632.1
1496.426	616.1
1501.071	614.1
1505.711	595.1
1510.347	577.1
1514.978	576.1
1519.604	567.1
1524.226	571.1
1528.844	576.1
1533.457	579.1
1538.065	583.1
1542.669	575.1
1547.269	572.1
1551.864	575.1
1556.454	591.1
1561.041	602.1
1565.622	603.1
1570.199	593.1
1574.772	600.1
1579.34	620.1
1583.904	619.1
1588.464	628.1
1593.019	636.1
1597.569	615.1
1602.115	609.1
1606.657	622.1
1611.195	616.1
1615.728	612.1
1620.256	599.1
1624.78	605.1
1629.3	604.1
1633.816	604.1
1638.327	606.1
1642.834	590.1
1647.336	593.1
1651.834	601.1
1656.328	588.1
1660.817	595.1
1665.302	585.1
1669.783	565.1
1674.259	559.1
1678.732	552.1
1683.199	508.1
1687.663	501.1
1692.122	478.1
1696.577	453.1
1701.028	431.1
1705.474	413.1
1709.917	410.1
1714.355	400.1
1718.788	398.1
1723.218	391.1
1727.643	405.1
1732.064	398.1
1736.481	399.1
1740.893	378.1
1745.301	378.1
1749.705	391.1
1754.105	372.1
1758.501	356.1
1762.893	340.1
1767.28	330.1
1771.663	339.1
1776.042	334.1
1780.417	327.1
1784.787	321.1
1789.154	314.1
1793.516	298.1
1797.874	295.1
1802.228	297.1
1806.578	290.1
1810.924	279.1
1815.266	296.1
1819.603	297.1
1823.937	293.1
1828.266	293.1
1832.591	301.1
1836.913	300.1
1841.23	308.1
1845.543	301.1
1849.852	302.1
1854.156	310.1
1858.457	302.1
1862.754	307.1
1867.047	306.1
1871.335	307.1
1875.62	301.1
1879.9	303.1
1884.177	283.1
1888.449	293.1
1892.718	284.1
1896.982	279.1
1901.243	263.1
1905.499	267.1
1909.752	258.1
1914	252.1
1918.245	250.1
1922.485	243.1
1926.722	230.1
1930.954	232.1
1935.183	233.1
1939.408	230.1
1943.628	225.1
1947.845	229.1
1952.058	230.1
1956.267	221.1
1960.472	218.1
1964.673	220.1
1968.87	228.1
1973.063	222.1
1977.252	228.1
1981.438	221.1
1985.619	216.1
1989.797	230.1
1993.971	232.1
1998.14	233.1
2002.306	228.1
2006.469	240.1
2010.627	227.1
2014.781	227.1
2018.932	227.1
2023.078	228.1
2027.221	230.1
2031.36	224.1
2035.495	220.1
2039.627	208.1
2043.754	219.1
2047.878	217.1
2051.998	217.1
2056.114	213.1
2060.226	208.1
2064.334	201.1
2068.439	197.1
2072.54	198.1
2076.637	190.1
2080.73	194.1
2084.82	197.1
2088.906	190.1
2092.988	190.1
2097.066	184.1
2101.14	180.1
2105.211	187.1
2109.278	175.1
2113.342	174.1
2117.401	172.1
2121.457	175.1
2125.509	166.1
2129.558	178.1
2133.602	175.1
2137.643	183.1
2141.681	170.1
2145.714	179.1
2149.744	178.1
2153.77	172.1
2157.793	184.1
2161.812	184.1
2165.827	186.1
2169.838	179.1
2173.846	180.1
2177.851	169.1
2181.851	174.1
2185.848	168.1
2189.841	165.1
2193.831	167.1
2197.817	167.1
2201.799	168.1
2205.778	161.1
2209.753	162.1
2213.725	165.1
2217.693	159.1
2221.657	167.1
2225.618	155.1
2229.575	165.1
2233.529	154.1
2237.479	165.1
2241.425	154.1
2245.368	158.1
2249.307	154.1
2253.243	148.1
2257.175	149.1
2261.104	148.1
2265.029	143.1
2268.95	147.1
2272.868	147.1
2276.783	145.1
2280.694	144.1
2284.601	132.1
2288.505	137.1
2292.405	133.1
2296.302	145.1
2300.195	130.1
2304.085	135.1
2307.971	133.1
2311.854	125.1
2315.734	133.1
2319.609	138.1
2323.482	131.1
2327.351	134.1
2331.216	148.1
2335.078	163.1
2338.937	152.1
2342.792	140.1
2346.643	134.1
2350.492	135.1
2354.336	129.1
2358.178	127.1
2362.015	135.1
2365.85	126.1
2369.681	148.1
2373.508	130.1
2377.333	135.1
2381.153	135.1
2384.971	122.1
2388.785	128.1
2392.595	128.1
2396.402	136.1
2400.206	138.1
2404.007	125.1
2407.804	135.1
2411.597	127.1
2415.388	130.1
2419.174	130.1
2422.958	122.1
2426.738	123.1
2430.515	126.1
2434.289	125.1
2438.059	123.1
2441.825	119.1
2445.589	119.1
2449.349	110.1
2453.106	129.1
2456.859	115.1
2460.61	120.1
2464.356	112.1
2468.1	112.1
2471.84	105.1
2475.577	98.1
2479.311	113.1
2483.041	106.1
2486.768	102.1
2490.492	110.1
2494.213	96.1
2497.93	103.1
2501.644	99.1
2505.355	95.1
2509.062	94.1
2512.766	93.1
2516.467	95.1
2520.165	90.1
2523.859	97.1
2527.551	87.1
2531.239	84.1
2534.923	83.1
2538.605	83.1
2542.283	82.1
2545.958	87.1
2549.63	82.1
2553.299	75.1
2556.964	73.1
2560.626	79.1
2564.285	75.1
2567.941	74.1
2571.594	74.1
2575.243	76.1
2578.89	68.1
2582.533	66.1
2586.173	68.1
2589.809	74.1
2593.443	73.1
2597.073	71.1
2600.701	75.1
2604.325	62.1
2607.946	60.1
2611.564	62.1
2615.178	63.1
2618.79	70.1
2622.398	71.1
2626.004	67.1
2629.606	63.1
2633.205	61.1
2636.801	66.1
2640.394	65.1
2643.983	65.1
2647.57	66.1
2651.153	58.1
2654.734	58.1
2658.311	58.1
2661.885	56.1
2665.456	58.1
2669.025	56.1
2672.589	60.1
2676.151	58.1
2679.71	50.1
2683.266	53.1
2686.819	60.1
2690.368	55.1
2693.915	54.1
2697.458	45.1
2700.999	55.1
2704.536	53.1
2708.071	51.1
2711.602	44.1
2715.13	47.1
2718.656	48.1
2722.178	48.1
2725.697	41.1
2729.214	44.1
2732.727	47.1
2736.237	54.1
2739.744	41.1
2743.249	46.1
2746.75	39.1
2750.248	35.1
2753.743	36.1
2757.236	42.1
2760.725	34.1
2764.211	34.1
2767.695	24.1
2771.175	27.1
2774.652	26.1
2778.127	30.1
2781.598	25.1
2785.067	32.1
2788.532	31.1
2791.995	34.1
2795.455	30.1
2798.911	36.1
2802.365	34.1
2805.816	31.1
2809.264	34.1
2812.709	38.1
2816.151	38.1
2819.59	49.1
2823.026	34.1
2826.46	34.1
2829.89	32.1
2833.318	34.1
2836.742	46.1
2840.164	43.1
2843.583	42.1
2846.999	50.1
2850.412	43.1
2853.822	41.1
2857.229	50.1
2860.634	50.1
2864.035	50.1
2867.434	63.1
2870.83	61.1
2874.223	64.1
2877.613	72.1
2881	78.1
2884.385	86.1
2887.766	94.1
2891.145	88.1
2894.521	88.1
2897.894	94.1
2901.264	98.1
2904.631	82.1
2907.996	91.1
2911.358	96.1
2914.717	92.1
2918.073	89.1
2921.426	94.1
2924.777	97.1
2928.124	106.1
2931.469	120.1
2934.811	131.1
2938.15	139.1
2941.487	143.1
2944.821	129.1
2948.152	122.1
2951.48	121.1
2954.805	107.1
2958.128	96.1
2961.447	96.1
2964.765	90.1
2968.079	80.1
2971.39	85.1
2974.699	81.1
2978.005	86.1
2981.308	80.1
2984.609	78.1
2987.907	90.1
2991.202	76.1
2994.494	71.1
2997.784	70.1
3001.07	64.1
3004.355	60.1
3007.636	66.1
3010.915	66.1
3014.191	69.1
3017.464	62.1
3020.734	64.1
3024.002	66.1
3027.267	62.1
3030.53	64.1
3033.789	64.1
3037.046	66.1
3040.301	71.1
3043.552	73.1
3046.801	76.1
3050.048	68.1
3053.291	71.1
3056.532	77.1
3059.771	82.1
3063.006	77.1
3066.239	85.1
3069.469	96.1
3072.697	93.1
3075.922	98.1
3079.144	93.1
3082.364	95.1
3085.581	96.1
3088.795	106.1
3092.007	109.1
3095.216	103.1
3098.423	103.1
3101.627	113.1
3104.828	119.1
3108.026	113.1
3111.222	119.1
3114.416	126.1
3117.607	120.1
3120.795	121.1
3123.98	125.1
3127.163	142.1
3130.344	133.1
3133.521	143.1
3136.696	143.1
3139.869	141.1
3143.039	152.1
3146.206	147.1
3149.371	148.1
3152.533	150.1
3155.693	153.1
3158.85	156.1
3162.005	149.1
3165.157	158.1
3168.306	159.1
3171.453	155.1
3174.597	146.1
3177.739	156.1
3180.878	156.1
3184.014	156.1
3187.149	152.1
3190.28	154.1
3193.409	161.1
3196.536	156.1
3199.659	160.1
3202.781	161.1
3205.9	148.1
3209.016	149.1
3212.13	151.1
3215.241	148.1
3218.35	144.1
3221.456	148.1
3224.56	133.1
3227.661	140.1
3230.76	143.1
3233.856	144.1
3236.95	133.1
3240.041	124.1
3243.13	131.1
3246.216	127.1
3249.3	121.1
3252.382	122.1
3255.46	132.1
3258.537	112.1
3261.611	114.1
3264.682	108.1
3267.751	111.1
3270.818	103.1
3273.882	112.1
3276.943	110.1
3280.002	116.1
3283.059	109.1
3286.113	110.1
3289.165	106.1
3292.214	100.1
3295.261	107.1
3298.306	109.1
3301.348	101.1
3304.387	102.1
3307.425	102.1
3310.459	92.1
3313.492	103.1
3316.521	102.1
3319.549	108.1
3322.574	103.1
3325.597	105.1
3328.617	98.1
3331.635	97.1
3334.65	108.1
3337.663	89.1
3340.674	106.1
3343.682	98.1
3346.688	96.1
3349.691	101.1
3352.692	98.1
3355.691	104.1
3358.687	95.1
3361.681	96.1
3364.673	101.1
3367.662	92.1
3370.649	94.1
3373.633	86.1
3376.615	87.1
3379.595	85.1
3382.572	84.1
3385.547	90.1
3388.52	82.1
3391.49	81.1
3394.458	72.1
3397.424	77.1
3400.387	82.1
3403.348	67.1
3406.307	64.1
3409.263	69.1
3412.217	70.1
3415.168	65.1
3418.118	62.1
3421.065	58.1
3424.009	60.1
3426.951	60.1
3429.891	63.1
3432.829	54.1
3435.764	56.1
3438.697	51.1
3441.628	39.1
3444.557	47.1
3447.483	49.1
3450.407	37.1
3453.328	41.1
3456.247	32.1
3459.164	33.1
3462.079	22.1
3464.991	31.1
3467.902	31.1
3470.809	20.1
3473.715	20.1
3476.618	13.1
3479.519	4.1
3482.418	11.1
3485.315	15.1
3488.209	4.1
3491.101	9.1
3493.99	10.1
3496.878	8.1
3499.763	-4.9
3502.646	1.1
3505.527	1.1
3508.405	-1.9
3511.281	1.1
3514.155	-8.9
3517.027	-7.9
3519.897	-6.9
3522.764	-12.9
3525.629	-10.9
3528.492	-13.9
3531.352	-16.9
3534.211	-17.9
3537.067	-19.9
3539.921	-24.9
3542.773	-28.9
3545.622	-20.9
3548.469	-18.9
3551.315	-24.9
3554.157	-24.9
3556.998	-23.9
3559.837	-28.9
3562.673	-33.9
3565.507	-31.9
3568.339	-20.9
3571.169	-28.9
3573.996	-22.9
3576.822	-43.9
3579.645	-37.9
3582.466	-35.9
3585.285	-34.9
3588.101	-31.9
3590.916	-30.9
3593.728	-37.9
3596.538	-39.9
3599.346	-38.9
3602.152	-41.9
3604.956	-39.9
3607.757	-36.9
3610.556	-39.9
3613.354	-39.9
3616.149	-46.9
3618.942	-41.9
3621.732	-43.9
3624.521	-40.9
3627.307	-43.9
3630.092	-44.9
3632.874	-44.9
3635.654	-41.9
3638.432	-42.9
3641.208	-37.9
3643.982	-41.9
3646.753	-45.9
3649.523	-45.9
3652.29	-49.9
3655.055	-45.9
3657.818	-48.9
3660.579	-46.9
3663.338	-44.9
3666.095	-48.9
3668.849	-53.9
3671.602	-46.9
3674.352	-44.9
3677.101	-44.9
3679.847	-48.9
3682.591	-53.9
3685.333	-49.9
3688.073	-53.9
3690.811	-46.9
3693.547	-51.9
3696.281	-47.9
3699.013	-50.9
3701.742	-51.9
3704.47	-54.9
3707.195	-49.9
3709.919	-53.9
3712.64	-49.9
3715.359	-48.9
3718.076	-52.9
3720.792	-48.9
3723.505	-57.9
3726.216	-55.9
3728.925	-57.9
3731.632	-50.9
3734.336	-51.9
3737.039	-49.9
3739.74	-55.9
3742.439	-57.9
3745.136	-58.9
3747.83	-53.9
3750.523	-57.9
3753.213	-64.9
3755.902	-54.9
3758.589	-51.9
3761.273	-55.9
3763.956	-57.9
3766.636	-50.9
3769.315	-54.9
3771.991	-56.9
3774.665	-60.9
3777.338	-47.9
3780.008	-57.9
3782.677	-55.9
3785.343	-58.9
3788.007	-57.9
3790.67	-54.9
3793.33	-57.9
3795.989	-61.9
3798.645	-58.9
3801.299	-50.9
3803.952	-53.9
3806.602	-53.9
3809.251	-57.9
3811.897	-59.9
3814.542	-64.9
3817.184	-60.9
3819.825	-49.9
3822.463	-54.9
3825.1	-55.9
3827.735	-63.9
3830.367	-58.9
3832.998	-64.9
3835.627	-58.9
3838.253	-53.9
3840.878	-48.9
3843.501	-47.9
3846.122	-56.9
3848.741	-58.9
3851.358	-57.9
3853.973	-54.9
3856.586	-58.9
3859.197	-52.9
3861.806	-52.9
3864.414	-58.9
3867.019	-54.9
3869.622	-51.9
3872.224	-46.9
3874.823	-42.9
3877.421	-37.9
3880.016	-29.9
3882.61	-7.9
3885.202	-11.9
3887.792	-16.9
3890.38	-31.9
3892.966	-48.9
3895.55	-53.9
3898.132	-47.9
3900.713	-59.9
3903.291	-60.9
3905.868	-57.9
3908.442	-56.9
3911.015	-63.9
3913.586	-63.9
3916.155	-55.9
3918.722	-58.9
3921.287	-53.9
3923.85	-48.9
3926.411	-65.9
3928.971	-60.9
3931.528	-59.9
3934.084	-60.9
3936.638	-54.9
3939.19	-62.9
3941.74	-53.9
3944.288	-56.9
3946.834	-56.9
3949.378	-62.9
3951.921	-60.9
3954.462	-60.9
3957	-54.9
3959.537	-51.9
3962.072	-54.9
3964.606	-56.9
3967.137	-56.9
3969.667	-58.9
3972.194	-54.9
3974.72	-53.9
3977.244	-57.9
3979.766	-57.9
3982.286	-54.9
3984.805	-63.9
3987.321	-53.9
3989.836	-58.9
3992.349	-59.9
3994.86	-58.9
3997.369	-56.9
3999.877	-58.9
4002.382	-57.9
4004.886	-56.9
4007.388	-57.9
4009.888	-59.9
4012.386	-60.9
4014.883	-59.9
4017.377	-50.9
4019.87	-56.9
4022.361	-61.9
4024.85	-57.9
4027.338	-57.9
4029.823	-60.9
4032.307	-59.9
4034.789	-56.9
4037.269	-58.9
4039.747	-52.9
4042.224	-54.9
4044.699	-59.9
4047.172	-62.9
4049.643	-60.9
4052.112	-60.9
4054.58	-56.9
4057.046	-57.9
4059.51	-57.9
4061.972	-58.9
4064.432	-54.9
4066.891	-52.9
4069.348	-56.9
4071.803	-51.9
4074.256	-53.9
4076.708	-58.9
4079.158	-55.9
4081.606	-56.9
4084.052	-56.9
4086.497	-53.9
4088.939	-56.9
4091.38	-60.9
4093.819	-60.9
4096.257	-62.9
4098.693	-60.9
4101.127	-54.9
4103.559	-63.9
4105.989	17.1
4108.418	11.1
4110.845	-3.9
4113.27	9.1
4115.694	8.1
4118.115	11.1
4120.535	-60.9
4122.954	-55.9
4125.37	-54.9
4127.785	-55.9
4130.198	-53.9
4132.609	-61.9
4135.019	-61.9
4137.427	-61.9
4139.833	-58.9
4142.237	-62.9
