Data from 2018-3-7_conc=5_n=2_RamanShift_03.txt Node
Date: Wed Mar 07 12:26:52 IST 2018
User: aro
Spectrometer: QEPB0276
Trigger mode: 0
Integration Time (sec): 3.000000E1
Scans to average: 1
Electric dark correction enabled: true
Nonlinearity correction enabled: false
Boxcar width: 0
XAxis mode: Raman Shifts
Number of Pixels in Spectrum: 1044
>>>>>Begin Spectral Data<<<<<
160.701	8.1
166.742	14.1
172.777	51.1
178.805	160.1
184.826	424.1
190.841	905.1
196.849	1491.1
202.85	1979.1
208.845	2166.1
214.833	2161.1
220.815	2131.1
226.789	2127.1
232.758	2134.1
238.719	2146.1
244.674	2121.1
250.623	2111.1
256.565	2080.1
262.5	2049.1
268.429	2033.1
274.351	2025.1
280.267	1998.1
286.176	1991.1
292.079	1997.1
297.975	1991.1
303.865	1965.1
309.748	1983.1
315.625	1968.1
321.495	1960.1
327.359	1977.1
333.217	1983.1
339.068	1964.1
344.912	1990.1
350.751	1965.1
356.583	1978.1
362.408	1961.1
368.227	1969.1
374.04	1973.1
379.847	2007.1
385.647	1987.1
391.44	2011.1
397.228	2035.1
403.009	2034.1
408.784	2041.1
414.553	2051.1
420.315	2068.1
426.071	2052.1
431.821	2058.1
437.565	2054.1
443.302	2036.1
449.033	2021.1
454.758	2035.1
460.477	2012.1
466.189	2020.1
471.896	1987.1
477.596	1962.1
483.29	1972.1
488.978	1983.1
494.66	1981.1
500.335	1918.1
506.005	1873.1
511.668	1808.1
517.325	1770.1
522.977	1721.1
528.622	1688.1
534.261	1649.1
539.894	1656.1
545.521	1616.1
551.141	1613.1
556.756	1624.1
562.365	1609.1
567.968	1593.1
573.565	1578.1
579.155	1579.1
584.74	1544.1
590.319	1571.1
595.892	1551.1
601.459	1545.1
607.02	1533.1
612.575	1523.1
618.124	1502.1
623.667	1520.1
629.204	1484.1
634.735	1482.1
640.261	1467.1
645.781	1457.1
651.294	1452.1
656.802	1445.1
662.304	1454.1
667.8	1427.1
673.29	1454.1
678.775	1434.1
684.254	1435.1
689.726	1413.1
695.193	1427.1
700.655	1413.1
706.11	1396.1
711.56	1404.1
717.004	1385.1
722.442	1374.1
727.874	1354.1
733.301	1374.1
738.722	1363.1
744.137	1346.1
749.547	1346.1
754.951	1341.1
760.349	1365.1
765.741	1356.1
771.128	1356.1
776.509	1380.1
781.885	1389.1
787.254	1389.1
792.618	1374.1
797.977	1368.1
803.33	1362.1
808.677	1363.1
814.019	1364.1
819.355	1328.1
824.686	1322.1
830.011	1303.1
835.33	1311.1
840.644	1315.1
845.952	1318.1
851.255	1307.1
856.552	1310.1
861.844	1283.1
867.13	1288.1
872.41	1282.1
877.686	1270.1
882.955	1266.1
888.219	1248.1
893.478	1239.1
898.731	1215.1
903.979	1199.1
909.221	1203.1
914.458	1196.1
919.69	1187.1
924.916	1206.1
930.136	1201.1
935.351	1196.1
940.561	1194.1
945.766	1191.1
950.965	1201.1
956.158	1194.1
961.347	1157.1
966.529	1148.1
971.707	1124.1
976.879	1111.1
982.046	1116.1
987.208	1101.1
992.364	1106.1
997.515	1126.1
1002.66	1113.1
1007.801	1140.1
1012.936	1139.1
1018.066	1140.1
1023.19	1139.1
1028.309	1135.1
1033.423	1136.1
1038.532	1120.1
1043.636	1120.1
1048.734	1110.1
1053.827	1092.1
1058.915	1083.1
1063.998	1070.1
1069.075	1061.1
1074.147	1075.1
1079.214	1067.1
1084.276	1086.1
1089.333	1095.1
1094.385	1081.1
1099.431	1076.1
1104.472	1070.1
1109.509	1080.1
1114.54	1060.1
1119.565	1047.1
1124.586	1051.1
1129.602	1022.1
1134.613	1023.1
1139.618	1012.1
1144.619	1003.1
1149.614	1026.1
1154.604	1020.1
1159.589	1012.1
1164.57	1011.1
1169.545	1027.1
1174.515	1020.1
1179.48	1020.1
1184.44	1001.1
1189.395	999.1
1194.345	990.1
1199.29	969.1
1204.23	988.1
1209.165	986.1
1214.095	992.1
1219.021	992.1
1223.941	996.1
1228.856	1003.1
1233.766	1001.1
1238.672	1011.1
1243.572	1002.1
1248.467	1002.1
1253.358	991.1
1258.244	969.1
1263.124	956.1
1268	951.1
1272.871	929.1
1277.737	921.1
1282.599	912.1
1287.455	913.1
1292.306	915.1
1297.153	932.1
1301.995	932.1
1306.832	936.1
1311.664	922.1
1316.491	933.1
1321.314	947.1
1326.132	941.1
1330.945	913.1
1335.753	902.1
1340.556	871.1
1345.354	868.1
1350.148	860.1
1354.937	829.1
1359.722	824.1
1364.501	788.1
1369.276	779.1
1374.046	771.1
1378.811	745.1
1383.572	740.1
1388.327	739.1
1393.079	742.1
1397.825	746.1
1402.567	755.1
1407.304	766.1
1412.036	772.1
1416.764	766.1
1421.487	775.1
1426.205	771.1
1430.919	774.1
1435.628	774.1
1440.333	786.1
1445.032	780.1
1449.727	797.1
1454.418	801.1
1459.104	787.1
1463.785	762.1
1468.462	771.1
1473.134	743.1
1477.802	720.1
1482.465	711.1
1487.123	691.1
1491.777	672.1
1496.426	664.1
1501.071	652.1
1505.711	660.1
1510.347	648.1
1514.978	643.1
1519.604	632.1
1524.226	643.1
1528.844	638.1
1533.457	626.1
1538.065	636.1
1542.669	628.1
1547.269	624.1
1551.864	638.1
1556.454	638.1
1561.041	659.1
1565.622	659.1
1570.199	649.1
1574.772	647.1
1579.34	680.1
1583.904	675.1
1588.464	691.1
1593.019	701.1
1597.569	697.1
1602.115	690.1
1606.657	698.1
1611.195	703.1
1615.728	700.1
1620.256	686.1
1624.78	688.1
1629.3	671.1
1633.816	686.1
1638.327	700.1
1642.834	688.1
1647.336	691.1
1651.834	683.1
1656.328	685.1
1660.817	675.1
1665.302	661.1
1669.783	658.1
1674.259	639.1
1678.732	627.1
1683.199	602.1
1687.663	578.1
1692.122	542.1
1696.577	537.1
1701.028	502.1
1705.474	467.1
1709.917	460.1
1714.355	457.1
1718.788	445.1
1723.218	454.1
1727.643	451.1
1732.064	457.1
1736.481	461.1
1740.893	440.1
1745.301	438.1
1749.705	435.1
1754.105	418.1
1758.501	398.1
1762.893	400.1
1767.28	382.1
1771.663	388.1
1776.042	391.1
1780.417	364.1
1784.787	366.1
1789.154	362.1
1793.516	349.1
1797.874	337.1
1802.228	334.1
1806.578	332.1
1810.924	322.1
1815.266	321.1
1819.603	329.1
1823.937	332.1
1828.266	340.1
1832.591	342.1
1836.913	346.1
1841.23	345.1
1845.543	339.1
1849.852	345.1
1854.156	351.1
1858.457	354.1
1862.754	358.1
1867.047	351.1
1871.335	347.1
1875.62	344.1
1879.9	345.1
1884.177	325.1
1888.449	335.1
1892.718	341.1
1896.982	321.1
1901.243	310.1
1905.499	311.1
1909.752	311.1
1914	295.1
1918.245	288.1
1922.485	280.1
1926.722	270.1
1930.954	278.1
1935.183	274.1
1939.408	267.1
1943.628	279.1
1947.845	268.1
1952.058	266.1
1956.267	263.1
1960.472	263.1
1964.673	247.1
1968.87	250.1
1973.063	256.1
1977.252	255.1
1981.438	258.1
1985.619	257.1
1989.797	258.1
1993.971	260.1
1998.14	257.1
2002.306	263.1
2006.469	268.1
2010.627	264.1
2014.781	259.1
2018.932	261.1
2023.078	262.1
2027.221	262.1
2031.36	267.1
2035.495	257.1
2039.627	247.1
2043.754	249.1
2047.878	249.1
2051.998	252.1
2056.114	247.1
2060.226	234.1
2064.334	233.1
2068.439	228.1
2072.54	228.1
2076.637	237.1
2080.73	216.1
2084.82	228.1
2088.906	225.1
2092.988	222.1
2097.066	212.1
2101.14	209.1
2105.211	211.1
2109.278	210.1
2113.342	210.1
2117.401	201.1
2121.457	201.1
2125.509	197.1
2129.558	203.1
2133.602	198.1
2137.643	208.1
2141.681	201.1
2145.714	210.1
2149.744	202.1
2153.77	205.1
2157.793	202.1
2161.812	213.1
2165.827	209.1
2169.838	194.1
2173.846	195.1
2177.851	200.1
2181.851	200.1
2185.848	188.1
2189.841	188.1
2193.831	194.1
2197.817	191.1
2201.799	192.1
2205.778	190.1
2209.753	196.1
2213.725	189.1
2217.693	199.1
2221.657	186.1
2225.618	179.1
2229.575	182.1
2233.529	180.1
2237.479	180.1
2241.425	176.1
2245.368	169.1
2249.307	179.1
2253.243	166.1
2257.175	174.1
2261.104	165.1
2265.029	173.1
2268.95	168.1
2272.868	166.1
2276.783	164.1
2280.694	155.1
2284.601	152.1
2288.505	161.1
2292.405	155.1
2296.302	156.1
2300.195	147.1
2304.085	150.1
2307.971	147.1
2311.854	143.1
2315.734	137.1
2319.609	140.1
2323.482	143.1
2327.351	145.1
2331.216	153.1
2335.078	164.1
2338.937	150.1
2342.792	141.1
2346.643	145.1
2350.492	148.1
2354.336	150.1
2358.178	146.1
2362.015	145.1
2365.85	144.1
2369.681	153.1
2373.508	147.1
2377.333	154.1
2381.153	151.1
2384.971	142.1
2388.785	142.1
2392.595	146.1
2396.402	152.1
2400.206	140.1
2404.007	140.1
2407.804	144.1
2411.597	138.1
2415.388	142.1
2419.174	146.1
2422.958	141.1
2426.738	141.1
2430.515	140.1
2434.289	140.1
2438.059	141.1
2441.825	135.1
2445.589	122.1
2449.349	137.1
2453.106	137.1
2456.859	132.1
2460.61	131.1
2464.356	123.1
2468.1	130.1
2471.84	127.1
2475.577	117.1
2479.311	122.1
2483.041	112.1
2486.768	122.1
2490.492	118.1
2494.213	114.1
2497.93	113.1
2501.644	120.1
2505.355	102.1
2509.062	107.1
2512.766	103.1
2516.467	108.1
2520.165	107.1
2523.859	111.1
2527.551	100.1
2531.239	98.1
2534.923	97.1
2538.605	95.1
2542.283	96.1
2545.958	90.1
2549.63	86.1
2553.299	94.1
2556.964	85.1
2560.626	88.1
2564.285	85.1
2567.941	83.1
2571.594	85.1
2575.243	86.1
2578.89	85.1
2582.533	85.1
2586.173	81.1
2589.809	85.1
2593.443	90.1
2597.073	81.1
2600.701	84.1
2604.325	74.1
2607.946	67.1
2611.564	85.1
2615.178	77.1
2618.79	77.1
2622.398	77.1
2626.004	74.1
2629.606	65.1
2633.205	74.1
2636.801	72.1
2640.394	75.1
2643.983	72.1
2647.57	70.1
2651.153	61.1
2654.734	69.1
2658.311	64.1
2661.885	75.1
2665.456	70.1
2669.025	76.1
2672.589	61.1
2676.151	64.1
2679.71	57.1
2683.266	62.1
2686.819	63.1
2690.368	63.1
2693.915	65.1
2697.458	59.1
2700.999	61.1
2704.536	63.1
2708.071	57.1
2711.602	51.1
2715.13	36.1
2718.656	48.1
2722.178	45.1
2725.697	48.1
2729.214	45.1
2732.727	48.1
2736.237	47.1
2739.744	35.1
2743.249	48.1
2746.75	44.1
2750.248	33.1
2753.743	36.1
2757.236	36.1
2760.725	37.1
2764.211	30.1
2767.695	30.1
2771.175	35.1
2774.652	37.1
2778.127	35.1
2781.598	34.1
2785.067	30.1
2788.532	31.1
2791.995	30.1
2795.455	32.1
2798.911	34.1
2802.365	35.1
2805.816	35.1
2809.264	31.1
2812.709	34.1
2816.151	39.1
2819.59	46.1
2823.026	37.1
2826.46	46.1
2829.89	39.1
2833.318	33.1
2836.742	40.1
2840.164	39.1
2843.583	37.1
2846.999	38.1
2850.412	41.1
2853.822	31.1
2857.229	38.1
2860.634	37.1
2864.035	40.1
2867.434	42.1
2870.83	41.1
2874.223	45.1
2877.613	44.1
2881	44.1
2884.385	54.1
2887.766	49.1
2891.145	48.1
2894.521	52.1
2897.894	49.1
2901.264	46.1
2904.631	47.1
2907.996	53.1
2911.358	59.1
2914.717	52.1
2918.073	52.1
2921.426	54.1
2924.777	58.1
2928.124	58.1
2931.469	67.1
2934.811	65.1
2938.15	69.1
2941.487	70.1
2944.821	66.1
2948.152	76.1
2951.48	63.1
2954.805	72.1
2958.128	69.1
2961.447	73.1
2964.765	70.1
2968.079	59.1
2971.39	63.1
2974.699	61.1
2978.005	71.1
2981.308	61.1
2984.609	60.1
2987.907	54.1
2991.202	66.1
2994.494	56.1
2997.784	57.1
3001.07	61.1
3004.355	62.1
3007.636	62.1
3010.915	70.1
3014.191	59.1
3017.464	66.1
3020.734	72.1
3024.002	82.1
3027.267	72.1
3030.53	78.1
3033.789	78.1
3037.046	74.1
3040.301	81.1
3043.552	84.1
3046.801	91.1
3050.048	90.1
3053.291	82.1
3056.532	92.1
3059.771	93.1
3063.006	104.1
3066.239	110.1
3069.469	113.1
3072.697	114.1
3075.922	116.1
3079.144	120.1
3082.364	122.1
3085.581	131.1
3088.795	131.1
3092.007	140.1
3095.216	139.1
3098.423	137.1
3101.627	140.1
3104.828	144.1
3108.026	147.1
3111.222	152.1
3114.416	160.1
3117.607	159.1
3120.795	161.1
3123.98	158.1
3127.163	175.1
3130.344	173.1
3133.521	176.1
3136.696	179.1
3139.869	174.1
3143.039	189.1
3146.206	194.1
3149.371	188.1
3152.533	203.1
3155.693	202.1
3158.85	199.1
3162.005	200.1
3165.157	204.1
3168.306	199.1
3171.453	197.1
3174.597	199.1
3177.739	207.1
3180.878	200.1
3184.014	202.1
3187.149	203.1
3190.28	202.1
3193.409	210.1
3196.536	201.1
3199.659	204.1
3202.781	214.1
3205.9	201.1
3209.016	205.1
3212.13	202.1
3215.241	200.1
3218.35	193.1
3221.456	203.1
3224.56	193.1
3227.661	191.1
3230.76	193.1
3233.856	185.1
3236.95	189.1
3240.041	177.1
3243.13	184.1
3246.216	167.1
3249.3	168.1
3252.382	167.1
3255.46	167.1
3258.537	160.1
3261.611	155.1
3264.682	162.1
3267.751	159.1
3270.818	148.1
3273.882	161.1
3276.943	156.1
3280.002	151.1
3283.059	155.1
3286.113	144.1
3289.165	150.1
3292.214	149.1
3295.261	146.1
3298.306	145.1
3301.348	145.1
3304.387	143.1
3307.425	149.1
3310.459	139.1
3313.492	133.1
3316.521	133.1
3319.549	143.1
3322.574	136.1
3325.597	139.1
3328.617	134.1
3331.635	154.1
3334.65	145.1
3337.663	139.1
3340.674	143.1
3343.682	143.1
3346.688	130.1
3349.691	134.1
3352.692	143.1
3355.691	143.1
3358.687	136.1
3361.681	137.1
3364.673	131.1
3367.662	130.1
3370.649	129.1
3373.633	123.1
3376.615	125.1
3379.595	122.1
3382.572	123.1
3385.547	128.1
3388.52	118.1
3391.49	111.1
3394.458	108.1
3397.424	113.1
3400.387	116.1
3403.348	106.1
3406.307	102.1
3409.263	105.1
3412.217	106.1
3415.168	110.1
3418.118	98.1
3421.065	101.1
3424.009	93.1
3426.951	98.1
3429.891	87.1
3432.829	91.1
3435.764	88.1
3438.697	89.1
3441.628	74.1
3444.557	76.1
3447.483	75.1
3450.407	73.1
3453.328	69.1
3456.247	67.1
3459.164	66.1
3462.079	61.1
3464.991	55.1
3467.902	48.1
3470.809	54.1
3473.715	49.1
3476.618	41.1
3479.519	39.1
3482.418	31.1
3485.315	37.1
3488.209	27.1
3491.101	27.1
3493.99	27.1
3496.878	19.1
3499.763	17.1
3502.646	15.1
3505.527	22.1
3508.405	18.1
3511.281	19.1
3514.155	14.1
3517.027	7.1
3519.897	13.1
3522.764	7.1
3525.629	2.1
3528.492	0.1
3531.352	-1.9
3534.211	-6.9
3537.067	-2.9
3539.921	-3.9
3542.773	-13.9
3545.622	-11.9
3548.469	-12.9
3551.315	-13.9
3554.157	-14.9
3556.998	-16.9
3559.837	-17.9
3562.673	-13.9
3565.507	-16.9
3568.339	-16.9
3571.169	-16.9
3573.996	-10.9
3576.822	-25.9
3579.645	-22.9
3582.466	-22.9
3585.285	-25.9
3588.101	-30.9
3590.916	-23.9
3593.728	-31.9
3596.538	-33.9
3599.346	-33.9
3602.152	-30.9
3604.956	-27.9
3607.757	-30.9
3610.556	-30.9
3613.354	-38.9
3616.149	-39.9
3618.942	-30.9
3621.732	-39.9
3624.521	-34.9
3627.307	-31.9
3630.092	-37.9
3632.874	-37.9
3635.654	-37.9
3638.432	-34.9
3641.208	-41.9
3643.982	-34.9
3646.753	-46.9
3649.523	-39.9
3652.29	-39.9
3655.055	-42.9
3657.818	-46.9
3660.579	-49.9
3663.338	-40.9
3666.095	-46.9
3668.849	-47.9
3671.602	-46.9
3674.352	-42.9
3677.101	-49.9
3679.847	-44.9
3682.591	-49.9
3685.333	-42.9
3688.073	-47.9
3690.811	-41.9
3693.547	-42.9
3696.281	-43.9
3699.013	-44.9
3701.742	-50.9
3704.47	-40.9
3707.195	-46.9
3709.919	-53.9
3712.64	-53.9
3715.359	-49.9
3718.076	-50.9
3720.792	-50.9
3723.505	-50.9
3726.216	-48.9
3728.925	-54.9
3731.632	-50.9
3734.336	-50.9
3737.039	-49.9
3739.74	-55.9
3742.439	-61.9
3745.136	-53.9
3747.83	-50.9
3750.523	-54.9
3753.213	-61.9
3755.902	-47.9
3758.589	-50.9
3761.273	-51.9
3763.956	-50.9
3766.636	-46.9
3769.315	-46.9
3771.991	-48.9
3774.665	-52.9
3777.338	-53.9
3780.008	-49.9
3782.677	-56.9
3785.343	-56.9
3788.007	-55.9
3790.67	-54.9
3793.33	-55.9
3795.989	-52.9
3798.645	-57.9
3801.299	-50.9
3803.952	-49.9
3806.602	-54.9
3809.251	-55.9
3811.897	-58.9
3814.542	-61.9
3817.184	-55.9
3819.825	-52.9
3822.463	-55.9
3825.1	-53.9
3827.735	-59.9
3830.367	-58.9
3832.998	-57.9
3835.627	-54.9
3838.253	-53.9
3840.878	-52.9
3843.501	-49.9
3846.122	-53.9
3848.741	-54.9
3851.358	-48.9
3853.973	-51.9
3856.586	-54.9
3859.197	-53.9
3861.806	-59.9
3864.414	-55.9
3867.019	-52.9
3869.622	-47.9
3872.224	-48.9
3874.823	-34.9
3877.421	-30.9
3880.016	-21.9
3882.61	-9.9
3885.202	-12.9
3887.792	-12.9
3890.38	-30.9
3892.966	-49.9
3895.55	-56.9
3898.132	-57.9
3900.713	-59.9
3903.291	-58.9
3905.868	-53.9
3908.442	-54.9
3911.015	-51.9
3913.586	-58.9
3916.155	-54.9
3918.722	-55.9
3921.287	-55.9
3923.85	-46.9
3926.411	-57.9
3928.971	-59.9
3931.528	-54.9
3934.084	-53.9
3936.638	-51.9
3939.19	-61.9
3941.74	-55.9
3944.288	-57.9
3946.834	-56.9
3949.378	-56.9
3951.921	-61.9
3954.462	-58.9
3957	-52.9
3959.537	-48.9
3962.072	-50.9
3964.606	-54.9
3967.137	-48.9
3969.667	-56.9
3972.194	-52.9
3974.72	-45.9
3977.244	-45.9
3979.766	-58.9
3982.286	-51.9
3984.805	-60.9
3987.321	-53.9
3989.836	-53.9
3992.349	-54.9
3994.86	-58.9
3997.369	-57.9
3999.877	-57.9
4002.382	-56.9
4004.886	-54.9
4007.388	-60.9
4009.888	-56.9
4012.386	-53.9
4014.883	-52.9
4017.377	-49.9
4019.87	-49.9
4022.361	-57.9
4024.85	-49.9
4027.338	-54.9
4029.823	-54.9
4032.307	-55.9
4034.789	-54.9
4037.269	-53.9
4039.747	-53.9
4042.224	-59.9
4044.699	-61.9
4047.172	-56.9
4049.643	-60.9
4052.112	-55.9
4054.58	-57.9
4057.046	-52.9
4059.51	-63.9
4061.972	-59.9
4064.432	-51.9
4066.891	-48.9
4069.348	-52.9
4071.803	-52.9
4074.256	-52.9
4076.708	-54.9
4079.158	-56.9
4081.606	-51.9
4084.052	-54.9
4086.497	-54.9
4088.939	-52.9
4091.38	-58.9
4093.819	-60.9
4096.257	-56.9
4098.693	-57.9
4101.127	-52.9
4103.559	-63.9
4105.989	2.1
4108.418	2.1
4110.845	-1.9
4113.27	5.1
4115.694	5.1
4118.115	1.1
4120.535	-55.9
4122.954	-55.9
4125.37	-54.9
4127.785	-54.9
4130.198	-51.9
4132.609	-56.9
4135.019	-59.9
4137.427	-56.9
4139.833	-56.9
4142.237	-59.9
