Data from 2018-3-7_conc=4_n=2_RamanShift_04.txt Node
Date: Wed Mar 07 11:53:22 IST 2018
User: aro
Spectrometer: QEPB0276
Trigger mode: 0
Integration Time (sec): 3.000000E1
Scans to average: 1
Electric dark correction enabled: true
Nonlinearity correction enabled: false
Boxcar width: 0
XAxis mode: Raman Shifts
Number of Pixels in Spectrum: 1044
>>>>>Begin Spectral Data<<<<<
160.701	24.2
166.742	20.2
172.777	47.2
178.805	118.2
184.826	298.2
190.841	611.2
196.849	1026.2
202.85	1312.2
208.845	1431.2
214.833	1436.2
220.815	1420.2
226.789	1408.2
232.758	1426.2
238.719	1417.2
244.674	1428.2
250.623	1415.2
256.565	1422.2
262.5	1375.2
268.429	1386.2
274.351	1393.2
280.267	1412.2
286.176	1358.2
292.079	1362.2
297.975	1357.2
303.865	1364.2
309.748	1362.2
315.625	1350.2
321.495	1353.2
327.359	1368.2
333.217	1383.2
339.068	1377.2
344.912	1366.2
350.751	1374.2
356.583	1382.2
362.408	1388.2
368.227	1399.2
374.04	1393.2
379.847	1408.2
385.647	1417.2
391.44	1412.2
397.228	1422.2
403.009	1431.2
408.784	1432.2
414.553	1441.2
420.315	1441.2
426.071	1445.2
431.821	1441.2
437.565	1440.2
443.302	1454.2
449.033	1454.2
454.758	1430.2
460.477	1418.2
466.189	1412.2
471.896	1389.2
477.596	1361.2
483.29	1390.2
488.978	1371.2
494.66	1368.2
500.335	1331.2
506.005	1291.2
511.668	1223.2
517.325	1190.2
522.977	1123.2
528.622	1101.2
534.261	1085.2
539.894	1054.2
545.521	1054.2
551.141	1034.2
556.756	1024.2
562.365	1016.2
567.968	1003.2
573.565	1003.2
579.155	988.2
584.74	991.2
590.319	984.2
595.892	992.2
601.459	983.2
607.02	979.2
612.575	980.2
618.124	951.2
623.667	944.2
629.204	940.2
634.735	913.2
640.261	916.2
645.781	920.2
651.294	923.2
656.802	899.2
662.304	908.2
667.8	901.2
673.29	894.2
678.775	906.2
684.254	897.2
689.726	898.2
695.193	889.2
700.655	876.2
706.11	872.2
711.56	858.2
717.004	864.2
722.442	853.2
727.874	852.2
733.301	845.2
738.722	849.2
744.137	850.2
749.547	842.2
754.951	845.2
760.349	851.2
765.741	845.2
771.128	838.2
776.509	854.2
781.885	866.2
787.254	874.2
792.618	873.2
797.977	876.2
803.33	858.2
808.677	862.2
814.019	848.2
819.355	848.2
824.686	828.2
830.011	847.2
835.33	835.2
840.644	826.2
845.952	835.2
851.255	818.2
856.552	825.2
861.844	814.2
867.13	807.2
872.41	782.2
877.686	794.2
882.955	790.2
888.219	778.2
893.478	763.2
898.731	753.2
903.979	736.2
909.221	743.2
914.458	741.2
919.69	738.2
924.916	748.2
930.136	733.2
935.351	724.2
940.561	737.2
945.766	740.2
950.965	735.2
956.158	737.2
961.347	718.2
966.529	711.2
971.707	700.2
976.879	683.2
982.046	689.2
987.208	691.2
992.364	677.2
997.515	686.2
1002.66	695.2
1007.801	695.2
1012.936	700.2
1018.066	705.2
1023.19	712.2
1028.309	699.2
1033.423	698.2
1038.532	680.2
1043.636	682.2
1048.734	686.2
1053.827	682.2
1058.915	673.2
1063.998	665.2
1069.075	666.2
1074.147	660.2
1079.214	663.2
1084.276	668.2
1089.333	673.2
1094.385	679.2
1099.431	669.2
1104.472	674.2
1109.509	660.2
1114.54	650.2
1119.565	642.2
1124.586	639.2
1129.602	624.2
1134.613	627.2
1139.618	631.2
1144.619	621.2
1149.614	615.2
1154.604	612.2
1159.589	619.2
1164.57	627.2
1169.545	625.2
1174.515	615.2
1179.48	633.2
1184.44	617.2
1189.395	620.2
1194.345	605.2
1199.29	600.2
1204.23	616.2
1209.165	597.2
1214.095	613.2
1219.021	622.2
1223.941	616.2
1228.856	612.2
1233.766	628.2
1238.672	615.2
1243.572	618.2
1248.467	607.2
1253.358	604.2
1258.244	594.2
1263.124	580.2
1268	576.2
1272.871	575.2
1277.737	570.2
1282.599	566.2
1287.455	561.2
1292.306	563.2
1297.153	556.2
1301.995	577.2
1306.832	569.2
1311.664	556.2
1316.491	575.2
1321.314	566.2
1326.132	561.2
1330.945	559.2
1335.753	538.2
1340.556	533.2
1345.354	523.2
1350.148	533.2
1354.937	506.2
1359.722	484.2
1364.501	487.2
1369.276	480.2
1374.046	478.2
1378.811	471.2
1383.572	470.2
1388.327	461.2
1393.079	456.2
1397.825	467.2
1402.567	473.2
1407.304	475.2
1412.036	472.2
1416.764	462.2
1421.487	479.2
1426.205	476.2
1430.919	463.2
1435.628	482.2
1440.333	493.2
1445.032	475.2
1449.727	491.2
1454.418	492.2
1459.104	484.2
1463.785	476.2
1468.462	475.2
1473.134	448.2
1477.802	447.2
1482.465	432.2
1487.123	431.2
1491.777	411.2
1496.426	412.2
1501.071	410.2
1505.711	404.2
1510.347	403.2
1514.978	402.2
1519.604	402.2
1524.226	401.2
1528.844	410.2
1533.457	394.2
1538.065	405.2
1542.669	387.2
1547.269	391.2
1551.864	398.2
1556.454	395.2
1561.041	405.2
1565.622	406.2
1570.199	406.2
1574.772	411.2
1579.34	434.2
1583.904	427.2
1588.464	437.2
1593.019	431.2
1597.569	430.2
1602.115	439.2
1606.657	432.2
1611.195	427.2
1615.728	426.2
1620.256	422.2
1624.78	420.2
1629.3	412.2
1633.816	425.2
1638.327	424.2
1642.834	422.2
1647.336	412.2
1651.834	411.2
1656.328	419.2
1660.817	428.2
1665.302	426.2
1669.783	414.2
1674.259	400.2
1678.732	394.2
1683.199	383.2
1687.663	370.2
1692.122	345.2
1696.577	335.2
1701.028	326.2
1705.474	305.2
1709.917	310.2
1714.355	300.2
1718.788	303.2
1723.218	296.2
1727.643	289.2
1732.064	297.2
1736.481	302.2
1740.893	285.2
1745.301	282.2
1749.705	266.2
1754.105	264.2
1758.501	258.2
1762.893	255.2
1767.28	250.2
1771.663	253.2
1776.042	247.2
1780.417	240.2
1784.787	242.2
1789.154	235.2
1793.516	227.2
1797.874	227.2
1802.228	221.2
1806.578	229.2
1810.924	216.2
1815.266	229.2
1819.603	217.2
1823.937	220.2
1828.266	228.2
1832.591	221.2
1836.913	217.2
1841.23	217.2
1845.543	210.2
1849.852	222.2
1854.156	229.2
1858.457	222.2
1862.754	225.2
1867.047	210.2
1871.335	220.2
1875.62	225.2
1879.9	223.2
1884.177	228.2
1888.449	217.2
1892.718	223.2
1896.982	210.2
1901.243	203.2
1905.499	207.2
1909.752	196.2
1914	198.2
1918.245	188.2
1922.485	187.2
1926.722	185.2
1930.954	186.2
1935.183	189.2
1939.408	188.2
1943.628	182.2
1947.845	191.2
1952.058	185.2
1956.267	178.2
1960.472	180.2
1964.673	174.2
1968.87	173.2
1973.063	177.2
1977.252	170.2
1981.438	175.2
1985.619	170.2
1989.797	171.2
1993.971	171.2
1998.14	170.2
2002.306	176.2
2006.469	172.2
2010.627	167.2
2014.781	173.2
2018.932	171.2
2023.078	173.2
2027.221	166.2
2031.36	166.2
2035.495	161.2
2039.627	159.2
2043.754	156.2
2047.878	156.2
2051.998	159.2
2056.114	157.2
2060.226	147.2
2064.334	146.2
2068.439	142.2
2072.54	150.2
2076.637	147.2
2080.73	154.2
2084.82	147.2
2088.906	146.2
2092.988	140.2
2097.066	142.2
2101.14	140.2
2105.211	140.2
2109.278	143.2
2113.342	137.2
2117.401	136.2
2121.457	132.2
2125.509	132.2
2129.558	132.2
2133.602	137.2
2137.643	136.2
2141.681	126.2
2145.714	135.2
2149.744	141.2
2153.77	130.2
2157.793	137.2
2161.812	135.2
2165.827	122.2
2169.838	126.2
2173.846	120.2
2177.851	121.2
2181.851	125.2
2185.848	119.2
2189.841	118.2
2193.831	120.2
2197.817	123.2
2201.799	119.2
2205.778	116.2
2209.753	120.2
2213.725	119.2
2217.693	119.2
2221.657	121.2
2225.618	109.2
2229.575	95.2
2233.529	106.2
2237.479	121.2
2241.425	109.2
2245.368	110.2
2249.307	113.2
2253.243	101.2
2257.175	107.2
2261.104	94.2
2265.029	98.2
2268.95	102.2
2272.868	101.2
2276.783	100.2
2280.694	92.2
2284.601	90.2
2288.505	94.2
2292.405	96.2
2296.302	97.2
2300.195	91.2
2304.085	85.2
2307.971	86.2
2311.854	80.2
2315.734	76.2
2319.609	89.2
2323.482	83.2
2327.351	86.2
2331.216	95.2
2335.078	107.2
2338.937	92.2
2342.792	93.2
2346.643	83.2
2350.492	81.2
2354.336	85.2
2358.178	70.2
2362.015	82.2
2365.85	77.2
2369.681	84.2
2373.508	88.2
2377.333	85.2
2381.153	84.2
2384.971	78.2
2388.785	81.2
2392.595	79.2
2396.402	88.2
2400.206	84.2
2404.007	79.2
2407.804	78.2
2411.597	77.2
2415.388	79.2
2419.174	83.2
2422.958	75.2
2426.738	82.2
2430.515	75.2
2434.289	77.2
2438.059	70.2
2441.825	70.2
2445.589	72.2
2449.349	70.2
2453.106	71.2
2456.859	64.2
2460.61	64.2
2464.356	67.2
2468.1	63.2
2471.84	70.2
2475.577	66.2
2479.311	65.2
2483.041	63.2
2486.768	62.2
2490.492	58.2
2494.213	67.2
2497.93	59.2
2501.644	64.2
2505.355	47.2
2509.062	56.2
2512.766	59.2
2516.467	51.2
2520.165	57.2
2523.859	60.2
2527.551	53.2
2531.239	56.2
2534.923	53.2
2538.605	52.2
2542.283	42.2
2545.958	55.2
2549.63	52.2
2553.299	50.2
2556.964	42.2
2560.626	46.2
2564.285	51.2
2567.941	44.2
2571.594	45.2
2575.243	44.2
2578.89	42.2
2582.533	38.2
2586.173	40.2
2589.809	41.2
2593.443	48.2
2597.073	44.2
2600.701	47.2
2604.325	36.2
2607.946	34.2
2611.564	42.2
2615.178	40.2
2618.79	38.2
2622.398	41.2
2626.004	34.2
2629.606	31.2
2633.205	36.2
2636.801	27.2
2640.394	33.2
2643.983	31.2
2647.57	33.2
2651.153	27.2
2654.734	28.2
2658.311	30.2
2661.885	37.2
2665.456	38.2
2669.025	37.2
2672.589	31.2
2676.151	31.2
2679.71	26.2
2683.266	28.2
2686.819	27.2
2690.368	27.2
2693.915	29.2
2697.458	23.2
2700.999	30.2
2704.536	28.2
2708.071	24.2
2711.602	24.2
2715.13	13.2
2718.656	22.2
2722.178	17.2
2725.697	24.2
2729.214	17.2
2732.727	20.2
2736.237	24.2
2739.744	13.2
2743.249	14.2
2746.75	11.2
2750.248	16.2
2753.743	11.2
2757.236	12.2
2760.725	16.2
2764.211	10.2
2767.695	6.2
2771.175	11.2
2774.652	13.2
2778.127	10.2
2781.598	15.2
2785.067	15.2
2788.532	7.2
2791.995	14.2
2795.455	12.2
2798.911	12.2
2802.365	14.2
2805.816	5.2
2809.264	5.2
2812.709	11.2
2816.151	9.2
2819.59	17.2
2823.026	6.2
2826.46	18.2
2829.89	9.2
2833.318	10.2
2836.742	14.2
2840.164	20.2
2843.583	14.2
2846.999	18.2
2850.412	14.2
2853.822	13.2
2857.229	19.2
2860.634	10.2
2864.035	10.2
2867.434	13.2
2870.83	19.2
2874.223	15.2
2877.613	17.2
2881	21.2
2884.385	22.2
2887.766	25.2
2891.145	20.2
2894.521	22.2
2897.894	22.2
2901.264	23.2
2904.631	22.2
2907.996	20.2
2911.358	27.2
2914.717	22.2
2918.073	16.2
2921.426	16.2
2924.777	21.2
2928.124	25.2
2931.469	23.2
2934.811	41.2
2938.15	34.2
2941.487	32.2
2944.821	32.2
2948.152	37.2
2951.48	31.2
2954.805	39.2
2958.128	29.2
2961.447	34.2
2964.765	28.2
2968.079	28.2
2971.39	29.2
2974.699	27.2
2978.005	28.2
2981.308	20.2
2984.609	22.2
2987.907	29.2
2991.202	27.2
2994.494	24.2
2997.784	21.2
3001.07	26.2
3004.355	29.2
3007.636	27.2
3010.915	32.2
3014.191	31.2
3017.464	24.2
3020.734	31.2
3024.002	29.2
3027.267	35.2
3030.53	33.2
3033.789	35.2
3037.046	29.2
3040.301	34.2
3043.552	37.2
3046.801	35.2
3050.048	40.2
3053.291	44.2
3056.532	45.2
3059.771	48.2
3063.006	48.2
3066.239	46.2
3069.469	58.2
3072.697	54.2
3075.922	55.2
3079.144	57.2
3082.364	56.2
3085.581	56.2
3088.795	64.2
3092.007	67.2
3095.216	69.2
3098.423	69.2
3101.627	67.2
3104.828	80.2
3108.026	81.2
3111.222	84.2
3114.416	81.2
3117.607	83.2
3120.795	82.2
3123.98	82.2
3127.163	94.2
3130.344	93.2
3133.521	88.2
3136.696	90.2
3139.869	101.2
3143.039	99.2
3146.206	97.2
3149.371	96.2
3152.533	103.2
3155.693	118.2
3158.85	115.2
3162.005	106.2
3165.157	108.2
3168.306	111.2
3171.453	112.2
3174.597	104.2
3177.739	112.2
3180.878	108.2
3184.014	100.2
3187.149	104.2
3190.28	103.2
3193.409	112.2
3196.536	107.2
3199.659	111.2
3202.781	112.2
3205.9	106.2
3209.016	113.2
3212.13	110.2
3215.241	116.2
3218.35	101.2
3221.456	105.2
3224.56	101.2
3227.661	99.2
3230.76	101.2
3233.856	102.2
3236.95	94.2
3240.041	88.2
3243.13	94.2
3246.216	88.2
3249.3	82.2
3252.382	85.2
3255.46	93.2
3258.537	86.2
3261.611	88.2
3264.682	88.2
3267.751	92.2
3270.818	74.2
3273.882	87.2
3276.943	79.2
3280.002	85.2
3283.059	79.2
3286.113	74.2
3289.165	73.2
3292.214	77.2
3295.261	74.2
3298.306	77.2
3301.348	68.2
3304.387	72.2
3307.425	70.2
3310.459	62.2
3313.492	74.2
3316.521	75.2
3319.549	76.2
3322.574	70.2
3325.597	72.2
3328.617	70.2
3331.635	75.2
3334.65	75.2
3337.663	64.2
3340.674	68.2
3343.682	68.2
3346.688	65.2
3349.691	74.2
3352.692	61.2
3355.691	68.2
3358.687	63.2
3361.681	62.2
3364.673	68.2
3367.662	69.2
3370.649	68.2
3373.633	60.2
3376.615	62.2
3379.595	59.2
3382.572	51.2
3385.547	58.2
3388.52	55.2
3391.49	49.2
3394.458	49.2
3397.424	51.2
3400.387	50.2
3403.348	42.2
3406.307	45.2
3409.263	50.2
3412.217	41.2
3415.168	49.2
3418.118	47.2
3421.065	38.2
3424.009	42.2
3426.951	42.2
3429.891	41.2
3432.829	39.2
3435.764	43.2
3438.697	42.2
3441.628	27.2
3444.557	36.2
3447.483	33.2
3450.407	22.2
3453.328	27.2
3456.247	20.2
3459.164	25.2
3462.079	14.2
3464.991	20.2
3467.902	12.2
3470.809	14.2
3473.715	11.2
3476.618	14.2
3479.519	3.2
3482.418	-2.8
3485.315	9.2
3488.209	-1.8
3491.101	1.2
3493.99	12.2
3496.878	4.2
3499.763	-2.8
3502.646	-2.8
3505.527	-4.8
3508.405	-6.8
3511.281	-3.8
3514.155	-6.8
3517.027	-9.8
3519.897	-5.8
3522.764	-16.8
3525.629	-16.8
3528.492	-12.8
3531.352	-17.8
3534.211	-16.8
3537.067	-16.8
3539.921	-13.8
3542.773	-22.8
3545.622	-13.8
3548.469	-17.8
3551.315	-19.8
3554.157	-23.8
3556.998	-20.8
3559.837	-29.8
3562.673	-25.8
3565.507	-29.8
3568.339	-20.8
3571.169	-27.8
3573.996	-21.8
3576.822	-29.8
3579.645	-26.8
3582.466	-30.8
3585.285	-26.8
3588.101	-29.8
3590.916	-28.8
3593.728	-33.8
3596.538	-30.8
3599.346	-32.8
3602.152	-28.8
3604.956	-31.8
3607.757	-28.8
3610.556	-34.8
3613.354	-43.8
3616.149	-38.8
3618.942	-36.8
3621.732	-37.8
3624.521	-31.8
3627.307	-36.8
3630.092	-38.8
3632.874	-41.8
3635.654	-38.8
3638.432	-37.8
3641.208	-36.8
3643.982	-36.8
3646.753	-44.8
3649.523	-38.8
3652.29	-42.8
3655.055	-34.8
3657.818	-39.8
3660.579	-46.8
3663.338	-38.8
3666.095	-44.8
3668.849	-41.8
3671.602	-45.8
3674.352	-43.8
3677.101	-42.8
3679.847	-37.8
3682.591	-46.8
3685.333	-41.8
3688.073	-50.8
3690.811	-39.8
3693.547	-41.8
3696.281	-41.8
3699.013	-40.8
3701.742	-45.8
3704.47	-41.8
3707.195	-47.8
3709.919	-43.8
3712.64	-46.8
3715.359	-48.8
3718.076	-53.8
3720.792	-46.8
3723.505	-47.8
3726.216	-42.8
3728.925	-53.8
3731.632	-48.8
3734.336	-45.8
3737.039	-37.8
3739.74	-50.8
3742.439	-48.8
3745.136	-50.8
3747.83	-46.8
3750.523	-50.8
3753.213	-45.8
3755.902	-46.8
3758.589	-51.8
3761.273	-45.8
3763.956	-54.8
3766.636	-41.8
3769.315	-49.8
3771.991	-47.8
3774.665	-52.8
3777.338	-46.8
3780.008	-48.8
3782.677	-53.8
3785.343	-45.8
3788.007	-45.8
3790.67	-44.8
3793.33	-45.8
3795.989	-52.8
3798.645	-51.8
3801.299	-43.8
3803.952	-47.8
3806.602	-54.8
3809.251	-50.8
3811.897	-55.8
3814.542	-50.8
3817.184	-52.8
3819.825	-44.8
3822.463	-48.8
3825.1	-42.8
3827.735	-53.8
3830.367	-49.8
3832.998	-52.8
3835.627	-45.8
3838.253	-46.8
3840.878	-47.8
3843.501	-44.8
3846.122	-48.8
3848.741	-51.8
3851.358	-47.8
3853.973	-47.8
3856.586	-46.8
3859.197	-49.8
3861.806	-54.8
3864.414	-54.8
3867.019	-49.8
3869.622	-45.8
3872.224	-36.8
3874.823	-25.8
3877.421	-19.8
3880.016	-2.8
3882.61	11.2
3885.202	12.2
3887.792	-0.8
3890.38	-16.8
3892.966	-28.8
3895.55	-41.8
3898.132	-43.8
3900.713	-50.8
3903.291	-52.8
3905.868	-46.8
3908.442	-46.8
3911.015	-42.8
3913.586	-49.8
3916.155	-48.8
3918.722	-52.8
3921.287	-52.8
3923.85	-44.8
3926.411	-52.8
3928.971	-54.8
3931.528	-54.8
3934.084	-45.8
3936.638	-47.8
3939.19	-55.8
3941.74	-48.8
3944.288	-51.8
3946.834	-47.8
3949.378	-46.8
3951.921	-50.8
3954.462	-47.8
3957	-42.8
3959.537	-41.8
3962.072	-46.8
3964.606	-49.8
3967.137	-47.8
3969.667	-50.8
3972.194	-47.8
3974.72	-46.8
3977.244	-45.8
3979.766	-52.8
3982.286	-53.8
3984.805	-57.8
3987.321	-49.8
3989.836	-48.8
3992.349	-50.8
3994.86	-49.8
3997.369	-48.8
3999.877	-48.8
4002.382	-51.8
4004.886	-46.8
4007.388	-50.8
4009.888	-45.8
4012.386	-47.8
4014.883	-46.8
4017.377	-49.8
4019.87	-49.8
4022.361	-53.8
4024.85	-42.8
4027.338	-53.8
4029.823	-50.8
4032.307	-51.8
4034.789	-47.8
4037.269	-49.8
4039.747	-48.8
4042.224	-51.8
4044.699	-52.8
4047.172	-52.8
4049.643	-49.8
4052.112	-49.8
4054.58	-46.8
4057.046	-45.8
4059.51	-50.8
4061.972	-52.8
4064.432	-49.8
4066.891	-50.8
4069.348	-48.8
4071.803	-44.8
4074.256	-51.8
4076.708	-45.8
4079.158	-53.8
4081.606	-53.8
4084.052	-47.8
4086.497	-41.8
4088.939	-39.8
4091.38	-50.8
4093.819	-55.8
4096.257	-51.8
4098.693	-54.8
4101.127	-48.8
4103.559	-51.8
4105.989	33.2
4108.418	20.2
4110.845	11.2
4113.27	18.2
4115.694	25.2
4118.115	24.2
4120.535	-50.8
4122.954	-46.8
4125.37	-51.8
4127.785	-46.8
4130.198	-53.8
4132.609	-54.8
4135.019	-54.8
4137.427	-51.8
4139.833	-51.8
4142.237	-51.8
