Data from 2018-3-7_conc=4_n=6_RamanShift_01.txt Node
Date: Wed Mar 07 12:05:22 IST 2018
User: aro
Spectrometer: QEPB0276
Trigger mode: 0
Integration Time (sec): 3.000000E1
Scans to average: 1
Electric dark correction enabled: true
Nonlinearity correction enabled: false
Boxcar width: 0
XAxis mode: Raman Shifts
Number of Pixels in Spectrum: 1044
>>>>>Begin Spectral Data<<<<<
160.701	13.6
166.742	25.6
172.777	51.6
178.805	137.6
184.826	348.6
190.841	735.6
196.849	1208.6
202.85	1578.6
208.845	1711.6
214.833	1723.6
220.815	1699.6
226.789	1705.6
232.758	1720.6
238.719	1696.6
244.674	1691.6
250.623	1679.6
256.565	1664.6
262.5	1628.6
268.429	1626.6
274.351	1612.6
280.267	1599.6
286.176	1616.6
292.079	1612.6
297.975	1606.6
303.865	1602.6
309.748	1602.6
315.625	1597.6
321.495	1597.6
327.359	1598.6
333.217	1605.6
339.068	1611.6
344.912	1610.6
350.751	1605.6
356.583	1600.6
362.408	1602.6
368.227	1625.6
374.04	1609.6
379.847	1624.6
385.647	1629.6
391.44	1644.6
397.228	1639.6
403.009	1671.6
408.784	1658.6
414.553	1663.6
420.315	1673.6
426.071	1680.6
431.821	1673.6
437.565	1667.6
443.302	1673.6
449.033	1662.6
454.758	1660.6
460.477	1636.6
466.189	1621.6
471.896	1616.6
477.596	1609.6
483.29	1606.6
488.978	1581.6
494.66	1601.6
500.335	1575.6
506.005	1509.6
511.668	1451.6
517.325	1407.6
522.977	1346.6
528.622	1317.6
534.261	1292.6
539.894	1271.6
545.521	1266.6
551.141	1249.6
556.756	1245.6
562.365	1229.6
567.968	1201.6
573.565	1213.6
579.155	1200.6
584.74	1211.6
590.319	1181.6
595.892	1208.6
601.459	1192.6
607.02	1196.6
612.575	1174.6
618.124	1176.6
623.667	1157.6
629.204	1151.6
634.735	1131.6
640.261	1136.6
645.781	1107.6
651.294	1126.6
656.802	1111.6
662.304	1107.6
667.8	1085.6
673.29	1103.6
678.775	1098.6
684.254	1101.6
689.726	1089.6
695.193	1094.6
700.655	1079.6
706.11	1069.6
711.56	1057.6
717.004	1059.6
722.442	1043.6
727.874	1060.6
733.301	1048.6
738.722	1042.6
744.137	1030.6
749.547	1044.6
754.951	1027.6
760.349	1020.6
765.741	1024.6
771.128	1037.6
776.509	1035.6
781.885	1070.6
787.254	1063.6
792.618	1065.6
797.977	1058.6
803.33	1047.6
808.677	1048.6
814.019	1060.6
819.355	1022.6
824.686	1016.6
830.011	1015.6
835.33	1003.6
840.644	1005.6
845.952	1008.6
851.255	995.6
856.552	995.6
861.844	988.6
867.13	974.6
872.41	985.6
877.686	968.6
882.955	973.6
888.219	955.6
893.478	939.6
898.731	912.6
903.979	925.6
909.221	913.6
914.458	904.6
919.69	917.6
924.916	915.6
930.136	908.6
935.351	909.6
940.561	909.6
945.766	900.6
950.965	917.6
956.158	897.6
961.347	872.6
966.529	879.6
971.707	855.6
976.879	855.6
982.046	844.6
987.208	832.6
992.364	858.6
997.515	844.6
1002.66	854.6
1007.801	851.6
1012.936	861.6
1018.066	872.6
1023.19	866.6
1028.309	866.6
1033.423	857.6
1038.532	870.6
1043.636	834.6
1048.734	850.6
1053.827	832.6
1058.915	830.6
1063.998	826.6
1069.075	813.6
1074.147	803.6
1079.214	819.6
1084.276	826.6
1089.333	831.6
1094.385	822.6
1099.431	813.6
1104.472	827.6
1109.509	815.6
1114.54	805.6
1119.565	798.6
1124.586	783.6
1129.602	775.6
1134.613	770.6
1139.618	764.6
1144.619	767.6
1149.614	764.6
1154.604	776.6
1159.589	771.6
1164.57	775.6
1169.545	777.6
1174.515	773.6
1179.48	768.6
1184.44	764.6
1189.395	759.6
1194.345	750.6
1199.29	743.6
1204.23	753.6
1209.165	734.6
1214.095	747.6
1219.021	757.6
1223.941	757.6
1228.856	758.6
1233.766	769.6
1238.672	770.6
1243.572	757.6
1248.467	763.6
1253.358	747.6
1258.244	736.6
1263.124	718.6
1268	717.6
1272.871	704.6
1277.737	699.6
1282.599	704.6
1287.455	689.6
1292.306	703.6
1297.153	697.6
1301.995	693.6
1306.832	706.6
1311.664	706.6
1316.491	722.6
1321.314	712.6
1326.132	699.6
1330.945	695.6
1335.753	687.6
1340.556	647.6
1345.354	649.6
1350.148	637.6
1354.937	624.6
1359.722	608.6
1364.501	586.6
1369.276	601.6
1374.046	579.6
1378.811	586.6
1383.572	579.6
1388.327	577.6
1393.079	569.6
1397.825	577.6
1402.567	573.6
1407.304	585.6
1412.036	586.6
1416.764	585.6
1421.487	579.6
1426.205	576.6
1430.919	576.6
1435.628	586.6
1440.333	593.6
1445.032	589.6
1449.727	619.6
1454.418	614.6
1459.104	599.6
1463.785	592.6
1468.462	581.6
1473.134	566.6
1477.802	550.6
1482.465	532.6
1487.123	528.6
1491.777	523.6
1496.426	507.6
1501.071	507.6
1505.711	488.6
1510.347	494.6
1514.978	492.6
1519.604	482.6
1524.226	491.6
1528.844	491.6
1533.457	477.6
1538.065	491.6
1542.669	485.6
1547.269	481.6
1551.864	486.6
1556.454	494.6
1561.041	510.6
1565.622	512.6
1570.199	515.6
1574.772	511.6
1579.34	516.6
1583.904	521.6
1588.464	530.6
1593.019	534.6
1597.569	520.6
1602.115	520.6
1606.657	526.6
1611.195	515.6
1615.728	521.6
1620.256	512.6
1624.78	520.6
1629.3	526.6
1633.816	516.6
1638.327	528.6
1642.834	517.6
1647.336	522.6
1651.834	522.6
1656.328	525.6
1660.817	517.6
1665.302	500.6
1669.783	498.6
1674.259	490.6
1678.732	467.6
1683.199	455.6
1687.663	451.6
1692.122	420.6
1696.577	402.6
1701.028	386.6
1705.474	359.6
1709.917	370.6
1714.355	361.6
1718.788	350.6
1723.218	362.6
1727.643	355.6
1732.064	349.6
1736.481	353.6
1740.893	341.6
1745.301	340.6
1749.705	329.6
1754.105	309.6
1758.501	308.6
1762.893	307.6
1767.28	295.6
1771.663	291.6
1776.042	286.6
1780.417	282.6
1784.787	284.6
1789.154	277.6
1793.516	258.6
1797.874	266.6
1802.228	277.6
1806.578	261.6
1810.924	255.6
1815.266	256.6
1819.603	262.6
1823.937	273.6
1828.266	257.6
1832.591	269.6
1836.913	258.6
1841.23	259.6
1845.543	262.6
1849.852	268.6
1854.156	264.6
1858.457	265.6
1862.754	259.6
1867.047	265.6
1871.335	266.6
1875.62	250.6
1879.9	269.6
1884.177	250.6
1888.449	261.6
1892.718	259.6
1896.982	249.6
1901.243	240.6
1905.499	228.6
1909.752	230.6
1914	229.6
1918.245	217.6
1922.485	218.6
1926.722	213.6
1930.954	213.6
1935.183	208.6
1939.408	223.6
1943.628	212.6
1947.845	213.6
1952.058	214.6
1956.267	208.6
1960.472	209.6
1964.673	200.6
1968.87	202.6
1973.063	202.6
1977.252	203.6
1981.438	206.6
1985.619	202.6
1989.797	203.6
1993.971	203.6
1998.14	203.6
2002.306	202.6
2006.469	209.6
2010.627	197.6
2014.781	198.6
2018.932	197.6
2023.078	200.6
2027.221	196.6
2031.36	191.6
2035.495	189.6
2039.627	183.6
2043.754	190.6
2047.878	189.6
2051.998	192.6
2056.114	197.6
2060.226	180.6
2064.334	181.6
2068.439	174.6
2072.54	172.6
2076.637	178.6
2080.73	175.6
2084.82	181.6
2088.906	170.6
2092.988	173.6
2097.066	168.6
2101.14	165.6
2105.211	166.6
2109.278	164.6
2113.342	149.6
2117.401	159.6
2121.457	150.6
2125.509	161.6
2129.558	157.6
2133.602	156.6
2137.643	153.6
2141.681	150.6
2145.714	162.6
2149.744	155.6
2153.77	160.6
2157.793	163.6
2161.812	161.6
2165.827	154.6
2169.838	158.6
2173.846	141.6
2177.851	146.6
2181.851	147.6
2185.848	143.6
2189.841	145.6
2193.831	140.6
2197.817	144.6
2201.799	144.6
2205.778	142.6
2209.753	147.6
2213.725	138.6
2217.693	139.6
2221.657	140.6
2225.618	130.6
2229.575	143.6
2233.529	134.6
2237.479	135.6
2241.425	125.6
2245.368	132.6
2249.307	135.6
2253.243	117.6
2257.175	124.6
2261.104	112.6
2265.029	122.6
2268.95	118.6
2272.868	122.6
2276.783	114.6
2280.694	116.6
2284.601	112.6
2288.505	116.6
2292.405	119.6
2296.302	122.6
2300.195	102.6
2304.085	99.6
2307.971	113.6
2311.854	103.6
2315.734	101.6
2319.609	106.6
2323.482	107.6
2327.351	108.6
2331.216	111.6
2335.078	132.6
2338.937	111.6
2342.792	109.6
2346.643	109.6
2350.492	108.6
2354.336	107.6
2358.178	104.6
2362.015	105.6
2365.85	98.6
2369.681	110.6
2373.508	110.6
2377.333	113.6
2381.153	100.6
2384.971	100.6
2388.785	99.6
2392.595	95.6
2396.402	104.6
2400.206	103.6
2404.007	106.6
2407.804	99.6
2411.597	100.6
2415.388	106.6
2419.174	101.6
2422.958	97.6
2426.738	102.6
2430.515	92.6
2434.289	96.6
2438.059	93.6
2441.825	90.6
2445.589	92.6
2449.349	86.6
2453.106	94.6
2456.859	85.6
2460.61	89.6
2464.356	87.6
2468.1	88.6
2471.84	84.6
2475.577	81.6
2479.311	80.6
2483.041	81.6
2486.768	81.6
2490.492	77.6
2494.213	74.6
2497.93	78.6
2501.644	79.6
2505.355	65.6
2509.062	72.6
2512.766	78.6
2516.467	69.6
2520.165	73.6
2523.859	66.6
2527.551	66.6
2531.239	68.6
2534.923	70.6
2538.605	61.6
2542.283	60.6
2545.958	64.6
2549.63	56.6
2553.299	58.6
2556.964	57.6
2560.626	59.6
2564.285	61.6
2567.941	51.6
2571.594	50.6
2575.243	61.6
2578.89	56.6
2582.533	53.6
2586.173	59.6
2589.809	59.6
2593.443	61.6
2597.073	55.6
2600.701	55.6
2604.325	47.6
2607.946	39.6
2611.564	46.6
2615.178	46.6
2618.79	48.6
2622.398	50.6
2626.004	46.6
2629.606	37.6
2633.205	47.6
2636.801	37.6
2640.394	52.6
2643.983	45.6
2647.57	43.6
2651.153	38.6
2654.734	42.6
2658.311	45.6
2661.885	50.6
2665.456	40.6
2669.025	40.6
2672.589	31.6
2676.151	34.6
2679.71	35.6
2683.266	35.6
2686.819	42.6
2690.368	37.6
2693.915	35.6
2697.458	24.6
2700.999	40.6
2704.536	36.6
2708.071	34.6
2711.602	29.6
2715.13	28.6
2718.656	29.6
2722.178	26.6
2725.697	24.6
2729.214	28.6
2732.727	29.6
2736.237	26.6
2739.744	15.6
2743.249	25.6
2746.75	20.6
2750.248	21.6
2753.743	15.6
2757.236	18.6
2760.725	18.6
2764.211	13.6
2767.695	9.6
2771.175	14.6
2774.652	11.6
2778.127	16.6
2781.598	17.6
2785.067	17.6
2788.532	13.6
2791.995	15.6
2795.455	18.6
2798.911	14.6
2802.365	20.6
2805.816	14.6
2809.264	16.6
2812.709	11.6
2816.151	18.6
2819.59	24.6
2823.026	19.6
2826.46	17.6
2829.89	14.6
2833.318	17.6
2836.742	25.6
2840.164	17.6
2843.583	22.6
2846.999	22.6
2850.412	18.6
2853.822	18.6
2857.229	25.6
2860.634	17.6
2864.035	19.6
2867.434	21.6
2870.83	26.6
2874.223	25.6
2877.613	19.6
2881	21.6
2884.385	29.6
2887.766	30.6
2891.145	24.6
2894.521	28.6
2897.894	26.6
2901.264	34.6
2904.631	24.6
2907.996	34.6
2911.358	27.6
2914.717	32.6
2918.073	32.6
2921.426	30.6
2924.777	33.6
2928.124	34.6
2931.469	42.6
2934.811	42.6
2938.15	41.6
2941.487	48.6
2944.821	37.6
2948.152	39.6
2951.48	30.6
2954.805	43.6
2958.128	34.6
2961.447	38.6
2964.765	34.6
2968.079	40.6
2971.39	38.6
2974.699	35.6
2978.005	39.6
2981.308	34.6
2984.609	38.6
2987.907	34.6
2991.202	38.6
2994.494	35.6
2997.784	35.6
3001.07	36.6
3004.355	38.6
3007.636	35.6
3010.915	43.6
3014.191	36.6
3017.464	41.6
3020.734	36.6
3024.002	46.6
3027.267	46.6
3030.53	49.6
3033.789	50.6
3037.046	41.6
3040.301	42.6
3043.552	50.6
3046.801	54.6
3050.048	53.6
3053.291	57.6
3056.532	58.6
3059.771	63.6
3063.006	62.6
3066.239	67.6
3069.469	73.6
3072.697	68.6
3075.922	82.6
3079.144	78.6
3082.364	78.6
3085.581	79.6
3088.795	88.6
3092.007	96.6
3095.216	95.6
3098.423	93.6
3101.627	94.6
3104.828	101.6
3108.026	99.6
3111.222	105.6
3114.416	104.6
3117.607	111.6
3120.795	112.6
3123.98	109.6
3127.163	121.6
3130.344	117.6
3133.521	122.6
3136.696	127.6
3139.869	129.6
3143.039	128.6
3146.206	132.6
3149.371	130.6
3152.533	140.6
3155.693	141.6
3158.85	144.6
3162.005	139.6
3165.157	144.6
3168.306	142.6
3171.453	142.6
3174.597	143.6
3177.739	150.6
3180.878	151.6
3184.014	135.6
3187.149	136.6
3190.28	135.6
3193.409	143.6
3196.536	135.6
3199.659	144.6
3202.781	148.6
3205.9	137.6
3209.016	139.6
3212.13	139.6
3215.241	137.6
3218.35	133.6
3221.456	143.6
3224.56	131.6
3227.661	133.6
3230.76	127.6
3233.856	135.6
3236.95	124.6
3240.041	118.6
3243.13	125.6
3246.216	113.6
3249.3	104.6
3252.382	117.6
3255.46	120.6
3258.537	110.6
3261.611	109.6
3264.682	109.6
3267.751	114.6
3270.818	96.6
3273.882	114.6
3276.943	104.6
3280.002	106.6
3283.059	109.6
3286.113	102.6
3289.165	103.6
3292.214	101.6
3295.261	104.6
3298.306	96.6
3301.348	97.6
3304.387	96.6
3307.425	100.6
3310.459	90.6
3313.492	89.6
3316.521	91.6
3319.549	99.6
3322.574	86.6
3325.597	91.6
3328.617	85.6
3331.635	98.6
3334.65	94.6
3337.663	87.6
3340.674	98.6
3343.682	96.6
3346.688	90.6
3349.691	91.6
3352.692	93.6
3355.691	101.6
3358.687	92.6
3361.681	89.6
3364.673	96.6
3367.662	86.6
3370.649	88.6
3373.633	86.6
3376.615	80.6
3379.595	72.6
3382.572	76.6
3385.547	74.6
3388.52	75.6
3391.49	71.6
3394.458	66.6
3397.424	79.6
3400.387	72.6
3403.348	64.6
3406.307	68.6
3409.263	69.6
3412.217	65.6
3415.168	66.6
3418.118	58.6
3421.065	60.6
3424.009	57.6
3426.951	56.6
3429.891	58.6
3432.829	51.6
3435.764	53.6
3438.697	55.6
3441.628	43.6
3444.557	44.6
3447.483	45.6
3450.407	40.6
3453.328	43.6
3456.247	40.6
3459.164	36.6
3462.079	26.6
3464.991	28.6
3467.902	25.6
3470.809	18.6
3473.715	19.6
3476.618	16.6
3479.519	10.6
3482.418	13.6
3485.315	18.6
3488.209	2.6
3491.101	4.6
3493.99	7.6
3496.878	4.6
3499.763	-3.4
3502.646	2.6
3505.527	4.6
3508.405	-5.4
3511.281	-6.4
3514.155	-7.4
3517.027	-9.4
3519.897	-1.4
3522.764	-7.4
3525.629	-6.4
3528.492	-18.4
3531.352	-20.4
3534.211	-21.4
3537.067	-19.4
3539.921	-17.4
3542.773	-21.4
3545.622	-21.4
3548.469	-18.4
3551.315	-15.4
3554.157	-26.4
3556.998	-21.4
3559.837	-28.4
3562.673	-27.4
3565.507	-25.4
3568.339	-20.4
3571.169	-26.4
3573.996	-25.4
3576.822	-33.4
3579.645	-33.4
3582.466	-36.4
3585.285	-30.4
3588.101	-38.4
3590.916	-32.4
3593.728	-31.4
3596.538	-37.4
3599.346	-39.4
3602.152	-37.4
3604.956	-37.4
3607.757	-28.4
3610.556	-33.4
3613.354	-43.4
3616.149	-43.4
3618.942	-39.4
3621.732	-40.4
3624.521	-40.4
3627.307	-42.4
3630.092	-44.4
3632.874	-46.4
3635.654	-45.4
3638.432	-38.4
3641.208	-38.4
3643.982	-37.4
3646.753	-42.4
3649.523	-40.4
3652.29	-46.4
3655.055	-44.4
3657.818	-50.4
3660.579	-46.4
3663.338	-40.4
3666.095	-46.4
3668.849	-52.4
3671.602	-47.4
3674.352	-47.4
3677.101	-45.4
3679.847	-47.4
3682.591	-56.4
3685.333	-47.4
3688.073	-55.4
3690.811	-48.4
3693.547	-57.4
3696.281	-50.4
3699.013	-49.4
3701.742	-55.4
3704.47	-46.4
3707.195	-47.4
3709.919	-52.4
3712.64	-49.4
3715.359	-47.4
3718.076	-53.4
3720.792	-52.4
3723.505	-52.4
3726.216	-48.4
3728.925	-55.4
3731.632	-53.4
3734.336	-55.4
3737.039	-48.4
3739.74	-57.4
3742.439	-60.4
3745.136	-54.4
3747.83	-50.4
3750.523	-57.4
3753.213	-52.4
3755.902	-52.4
3758.589	-53.4
3761.273	-55.4
3763.956	-57.4
3766.636	-54.4
3769.315	-49.4
3771.991	-55.4
3774.665	-60.4
3777.338	-56.4
3780.008	-58.4
3782.677	-57.4
3785.343	-56.4
3788.007	-56.4
3790.67	-61.4
3793.33	-55.4
3795.989	-54.4
3798.645	-55.4
3801.299	-54.4
3803.952	-61.4
3806.602	-61.4
3809.251	-56.4
3811.897	-60.4
3814.542	-64.4
3817.184	-59.4
3819.825	-55.4
3822.463	-57.4
3825.1	-53.4
3827.735	-62.4
3830.367	-55.4
3832.998	-57.4
3835.627	-57.4
3838.253	-51.4
3840.878	-47.4
3843.501	-51.4
3846.122	-58.4
3848.741	-56.4
3851.358	-52.4
3853.973	-57.4
3856.586	-55.4
3859.197	-59.4
3861.806	-55.4
3864.414	-57.4
3867.019	-57.4
3869.622	-50.4
3872.224	-46.4
3874.823	-33.4
3877.421	-25.4
3880.016	-15.4
3882.61	3.6
3885.202	4.6
3887.792	-5.4
3890.38	-20.4
3892.966	-45.4
3895.55	-47.4
3898.132	-52.4
3900.713	-55.4
3903.291	-58.4
3905.868	-49.4
3908.442	-61.4
3911.015	-54.4
3913.586	-61.4
3916.155	-58.4
3918.722	-64.4
3921.287	-61.4
3923.85	-49.4
3926.411	-59.4
3928.971	-64.4
3931.528	-54.4
3934.084	-54.4
3936.638	-52.4
3939.19	-61.4
3941.74	-55.4
3944.288	-58.4
3946.834	-60.4
3949.378	-57.4
3951.921	-58.4
3954.462	-59.4
3957	-52.4
3959.537	-46.4
3962.072	-52.4
3964.606	-57.4
3967.137	-53.4
3969.667	-57.4
3972.194	-53.4
3974.72	-51.4
3977.244	-51.4
3979.766	-55.4
3982.286	-54.4
3984.805	-67.4
3987.321	-54.4
3989.836	-54.4
3992.349	-58.4
3994.86	-59.4
3997.369	-64.4
3999.877	-59.4
4002.382	-59.4
4004.886	-60.4
4007.388	-59.4
4009.888	-53.4
4012.386	-54.4
4014.883	-54.4
4017.377	-53.4
4019.87	-53.4
4022.361	-61.4
4024.85	-54.4
4027.338	-61.4
4029.823	-57.4
4032.307	-55.4
4034.789	-54.4
4037.269	-57.4
4039.747	-57.4
4042.224	-57.4
4044.699	-61.4
4047.172	-59.4
4049.643	-61.4
4052.112	-60.4
4054.58	-59.4
4057.046	-50.4
4059.51	-57.4
4061.972	-58.4
4064.432	-60.4
4066.891	-47.4
4069.348	-53.4
4071.803	-55.4
4074.256	-51.4
4076.708	-56.4
4079.158	-60.4
4081.606	-54.4
4084.052	-55.4
4086.497	-53.4
4088.939	-55.4
4091.38	-58.4
4093.819	-63.4
4096.257	-63.4
4098.693	-59.4
4101.127	-54.4
4103.559	-61.4
4105.989	19.6
4108.418	21.6
4110.845	10.6
4113.27	16.6
4115.694	19.6
4118.115	15.6
4120.535	-59.4
4122.954	-54.4
4125.37	-54.4
4127.785	-56.4
4130.198	-60.4
4132.609	-54.4
4135.019	-55.4
4137.427	-58.4
4139.833	-56.4
4142.237	-58.4
