Data from 2018-3-7_conc=6_n=1_RamanShift_03.txt Node
Date: Wed Mar 07 12:57:52 IST 2018
User: aro
Spectrometer: QEPB0276
Trigger mode: 0
Integration Time (sec): 3.000000E1
Scans to average: 1
Electric dark correction enabled: true
Nonlinearity correction enabled: false
Boxcar width: 0
XAxis mode: Raman Shifts
Number of Pixels in Spectrum: 1044
>>>>>Begin Spectral Data<<<<<
160.701	2.6
166.742	17.6
172.777	58.6
178.805	177.6
184.826	481.6
190.841	1050.6
196.849	1740.6
202.85	2317.6
208.845	2530.6
214.833	2529.6
220.815	2494.6
226.789	2475.6
232.758	2461.6
238.719	2481.6
244.674	2459.6
250.623	2448.6
256.565	2398.6
262.5	2377.6
268.429	2341.6
274.351	2331.6
280.267	2280.6
286.176	2279.6
292.079	2285.6
297.975	2255.6
303.865	2240.6
309.748	2231.6
315.625	2245.6
321.495	2225.6
327.359	2222.6
333.217	2233.6
339.068	2249.6
344.912	2239.6
350.751	2236.6
356.583	2249.6
362.408	2240.6
368.227	2240.6
374.04	2260.6
379.847	2267.6
385.647	2262.6
391.44	2273.6
397.228	2279.6
403.009	2309.6
408.784	2289.6
414.553	2300.6
420.315	2320.6
426.071	2295.6
431.821	2295.6
437.565	2309.6
443.302	2283.6
449.033	2318.6
454.758	2280.6
460.477	2271.6
466.189	2273.6
471.896	2259.6
477.596	2250.6
483.29	2242.6
488.978	2235.6
494.66	2213.6
500.335	2186.6
506.005	2157.6
511.668	2090.6
517.325	2054.6
522.977	2000.6
528.622	1966.6
534.261	1932.6
539.894	1922.6
545.521	1908.6
551.141	1892.6
556.756	1895.6
562.365	1874.6
567.968	1845.6
573.565	1865.6
579.155	1837.6
584.74	1831.6
590.319	1814.6
595.892	1822.6
601.459	1803.6
607.02	1794.6
612.575	1785.6
618.124	1780.6
623.667	1747.6
629.204	1769.6
634.735	1726.6
640.261	1715.6
645.781	1719.6
651.294	1721.6
656.802	1689.6
662.304	1705.6
667.8	1716.6
673.29	1690.6
678.775	1698.6
684.254	1692.6
689.726	1677.6
695.193	1681.6
700.655	1672.6
706.11	1661.6
711.56	1651.6
717.004	1629.6
722.442	1606.6
727.874	1618.6
733.301	1600.6
738.722	1586.6
744.137	1597.6
749.547	1614.6
754.951	1602.6
760.349	1600.6
765.741	1594.6
771.128	1598.6
776.509	1621.6
781.885	1628.6
787.254	1604.6
792.618	1616.6
797.977	1600.6
803.33	1601.6
808.677	1605.6
814.019	1578.6
819.355	1567.6
824.686	1567.6
830.011	1553.6
835.33	1547.6
840.644	1540.6
845.952	1557.6
851.255	1557.6
856.552	1534.6
861.844	1535.6
867.13	1517.6
872.41	1542.6
877.686	1526.6
882.955	1499.6
888.219	1482.6
893.478	1478.6
898.731	1444.6
903.979	1425.6
909.221	1418.6
914.458	1416.6
919.69	1423.6
924.916	1434.6
930.136	1425.6
935.351	1422.6
940.561	1414.6
945.766	1423.6
950.965	1416.6
956.158	1413.6
961.347	1389.6
966.529	1375.6
971.707	1342.6
976.879	1351.6
982.046	1326.6
987.208	1341.6
992.364	1308.6
997.515	1331.6
1002.66	1320.6
1007.801	1349.6
1012.936	1366.6
1018.066	1372.6
1023.19	1352.6
1028.309	1340.6
1033.423	1345.6
1038.532	1333.6
1043.636	1346.6
1048.734	1320.6
1053.827	1295.6
1058.915	1285.6
1063.998	1277.6
1069.075	1262.6
1074.147	1281.6
1079.214	1276.6
1084.276	1294.6
1089.333	1295.6
1094.385	1300.6
1099.431	1289.6
1104.472	1293.6
1109.509	1285.6
1114.54	1276.6
1119.565	1266.6
1124.586	1240.6
1129.602	1239.6
1134.613	1215.6
1139.618	1202.6
1144.619	1187.6
1149.614	1205.6
1154.604	1203.6
1159.589	1213.6
1164.57	1205.6
1169.545	1217.6
1174.515	1214.6
1179.48	1214.6
1184.44	1192.6
1189.395	1198.6
1194.345	1178.6
1199.29	1164.6
1204.23	1188.6
1209.165	1174.6
1214.095	1176.6
1219.021	1196.6
1223.941	1198.6
1228.856	1208.6
1233.766	1214.6
1238.672	1208.6
1243.572	1214.6
1248.467	1193.6
1253.358	1174.6
1258.244	1164.6
1263.124	1150.6
1268	1124.6
1272.871	1135.6
1277.737	1109.6
1282.599	1105.6
1287.455	1107.6
1292.306	1107.6
1297.153	1099.6
1301.995	1115.6
1306.832	1118.6
1311.664	1138.6
1316.491	1127.6
1321.314	1113.6
1326.132	1141.6
1330.945	1091.6
1335.753	1096.6
1340.556	1061.6
1345.354	1022.6
1350.148	1020.6
1354.937	976.6
1359.722	953.6
1364.501	917.6
1369.276	909.6
1374.046	884.6
1378.811	887.6
1383.572	894.6
1388.327	884.6
1393.079	877.6
1397.825	913.6
1402.567	919.6
1407.304	917.6
1412.036	921.6
1416.764	928.6
1421.487	927.6
1426.205	924.6
1430.919	917.6
1435.628	946.6
1440.333	944.6
1445.032	931.6
1449.727	958.6
1454.418	944.6
1459.104	924.6
1463.785	926.6
1468.462	912.6
1473.134	881.6
1477.802	861.6
1482.465	833.6
1487.123	814.6
1491.777	797.6
1496.426	782.6
1501.071	769.6
1505.711	761.6
1510.347	753.6
1514.978	744.6
1519.604	739.6
1524.226	736.6
1528.844	721.6
1533.457	734.6
1538.065	723.6
1542.669	731.6
1547.269	735.6
1551.864	732.6
1556.454	757.6
1561.041	772.6
1565.622	774.6
1570.199	774.6
1574.772	788.6
1579.34	804.6
1583.904	811.6
1588.464	830.6
1593.019	832.6
1597.569	831.6
1602.115	826.6
1606.657	828.6
1611.195	835.6
1615.728	816.6
1620.256	816.6
1624.78	822.6
1629.3	814.6
1633.816	820.6
1638.327	820.6
1642.834	811.6
1647.336	807.6
1651.834	812.6
1656.328	808.6
1660.817	802.6
1665.302	788.6
1669.783	772.6
1674.259	749.6
1678.732	722.6
1683.199	697.6
1687.663	675.6
1692.122	627.6
1696.577	588.6
1701.028	555.6
1705.474	506.6
1709.917	513.6
1714.355	506.6
1718.788	505.6
1723.218	512.6
1727.643	512.6
1732.064	528.6
1736.481	523.6
1740.893	506.6
1745.301	493.6
1749.705	501.6
1754.105	474.6
1758.501	455.6
1762.893	454.6
1767.28	445.6
1771.663	442.6
1776.042	435.6
1780.417	420.6
1784.787	404.6
1789.154	387.6
1793.516	376.6
1797.874	363.6
1802.228	374.6
1806.578	353.6
1810.924	362.6
1815.266	356.6
1819.603	371.6
1823.937	380.6
1828.266	377.6
1832.591	378.6
1836.913	396.6
1841.23	394.6
1845.543	392.6
1849.852	396.6
1854.156	398.6
1858.457	404.6
1862.754	398.6
1867.047	395.6
1871.335	387.6
1875.62	375.6
1879.9	391.6
1884.177	375.6
1888.449	378.6
1892.718	368.6
1896.982	351.6
1901.243	345.6
1905.499	338.6
1909.752	318.6
1914	332.6
1918.245	317.6
1922.485	309.6
1926.722	291.6
1930.954	286.6
1935.183	295.6
1939.408	295.6
1943.628	284.6
1947.845	271.6
1952.058	285.6
1956.267	279.6
1960.472	274.6
1964.673	276.6
1968.87	271.6
1973.063	274.6
1977.252	280.6
1981.438	285.6
1985.619	280.6
1989.797	287.6
1993.971	299.6
1998.14	290.6
2002.306	300.6
2006.469	317.6
2010.627	298.6
2014.781	305.6
2018.932	296.6
2023.078	301.6
2027.221	307.6
2031.36	297.6
2035.495	291.6
2039.627	282.6
2043.754	286.6
2047.878	275.6
2051.998	276.6
2056.114	269.6
2060.226	271.6
2064.334	258.6
2068.439	259.6
2072.54	252.6
2076.637	259.6
2080.73	249.6
2084.82	250.6
2088.906	239.6
2092.988	239.6
2097.066	232.6
2101.14	233.6
2105.211	233.6
2109.278	227.6
2113.342	214.6
2117.401	225.6
2121.457	223.6
2125.509	225.6
2129.558	213.6
2133.602	223.6
2137.643	231.6
2141.681	223.6
2145.714	230.6
2149.744	226.6
2153.77	238.6
2157.793	233.6
2161.812	233.6
2165.827	241.6
2169.838	228.6
2173.846	219.6
2177.851	229.6
2181.851	218.6
2185.848	226.6
2189.841	220.6
2193.831	211.6
2197.817	221.6
2201.799	220.6
2205.778	216.6
2209.753	216.6
2213.725	216.6
2217.693	226.6
2221.657	216.6
2225.618	213.6
2229.575	214.6
2233.529	216.6
2237.479	224.6
2241.425	207.6
2245.368	214.6
2249.307	211.6
2253.243	207.6
2257.175	202.6
2261.104	191.6
2265.029	197.6
2268.95	194.6
2272.868	190.6
2276.783	188.6
2280.694	187.6
2284.601	183.6
2288.505	183.6
2292.405	186.6
2296.302	187.6
2300.195	177.6
2304.085	180.6
2307.971	177.6
2311.854	176.6
2315.734	177.6
2319.609	178.6
2323.482	181.6
2327.351	170.6
2331.216	179.6
2335.078	189.6
2338.937	185.6
2342.792	178.6
2346.643	179.6
2350.492	175.6
2354.336	180.6
2358.178	168.6
2362.015	182.6
2365.85	176.6
2369.681	183.6
2373.508	176.6
2377.333	175.6
2381.153	180.6
2384.971	178.6
2388.785	182.6
2392.595	180.6
2396.402	185.6
2400.206	178.6
2404.007	178.6
2407.804	176.6
2411.597	173.6
2415.388	183.6
2419.174	180.6
2422.958	173.6
2426.738	180.6
2430.515	170.6
2434.289	173.6
2438.059	163.6
2441.825	155.6
2445.589	169.6
2449.349	159.6
2453.106	162.6
2456.859	160.6
2460.61	159.6
2464.356	167.6
2468.1	152.6
2471.84	148.6
2475.577	148.6
2479.311	151.6
2483.041	144.6
2486.768	143.6
2490.492	142.6
2494.213	144.6
2497.93	142.6
2501.644	147.6
2505.355	136.6
2509.062	139.6
2512.766	132.6
2516.467	125.6
2520.165	130.6
2523.859	129.6
2527.551	120.6
2531.239	128.6
2534.923	117.6
2538.605	113.6
2542.283	109.6
2545.958	116.6
2549.63	113.6
2553.299	117.6
2556.964	105.6
2560.626	112.6
2564.285	106.6
2567.941	102.6
2571.594	104.6
2575.243	103.6
2578.89	104.6
2582.533	94.6
2586.173	94.6
2589.809	102.6
2593.443	102.6
2597.073	101.6
2600.701	97.6
2604.325	90.6
2607.946	84.6
2611.564	93.6
2615.178	96.6
2618.79	94.6
2622.398	95.6
2626.004	94.6
2629.606	92.6
2633.205	87.6
2636.801	82.6
2640.394	97.6
2643.983	89.6
2647.57	89.6
2651.153	84.6
2654.734	82.6
2658.311	87.6
2661.885	93.6
2665.456	86.6
2669.025	84.6
2672.589	75.6
2676.151	81.6
2679.71	69.6
2683.266	80.6
2686.819	80.6
2690.368	83.6
2693.915	83.6
2697.458	65.6
2700.999	77.6
2704.536	77.6
2708.071	72.6
2711.602	69.6
2715.13	66.6
2718.656	66.6
2722.178	64.6
2725.697	56.6
2729.214	57.6
2732.727	65.6
2736.237	59.6
2739.744	46.6
2743.249	47.6
2746.75	44.6
2750.248	44.6
2753.743	45.6
2757.236	47.6
2760.725	44.6
2764.211	39.6
2767.695	37.6
2771.175	34.6
2774.652	36.6
2778.127	44.6
2781.598	38.6
2785.067	43.6
2788.532	34.6
2791.995	45.6
2795.455	31.6
2798.911	37.6
2802.365	41.6
2805.816	43.6
2809.264	42.6
2812.709	43.6
2816.151	42.6
2819.59	54.6
2823.026	50.6
2826.46	44.6
2829.89	38.6
2833.318	41.6
2836.742	48.6
2840.164	40.6
2843.583	46.6
2846.999	49.6
2850.412	52.6
2853.822	42.6
2857.229	47.6
2860.634	47.6
2864.035	42.6
2867.434	46.6
2870.83	58.6
2874.223	51.6
2877.613	57.6
2881	54.6
2884.385	56.6
2887.766	56.6
2891.145	60.6
2894.521	64.6
2897.894	63.6
2901.264	56.6
2904.631	58.6
2907.996	62.6
2911.358	69.6
2914.717	67.6
2918.073	72.6
2921.426	66.6
2924.777	75.6
2928.124	71.6
2931.469	75.6
2934.811	78.6
2938.15	86.6
2941.487	88.6
2944.821	78.6
2948.152	85.6
2951.48	84.6
2954.805	77.6
2958.128	70.6
2961.447	76.6
2964.765	76.6
2968.079	74.6
2971.39	79.6
2974.699	74.6
2978.005	78.6
2981.308	66.6
2984.609	69.6
2987.907	70.6
2991.202	71.6
2994.494	71.6
2997.784	68.6
3001.07	71.6
3004.355	74.6
3007.636	78.6
3010.915	77.6
3014.191	73.6
3017.464	77.6
3020.734	82.6
3024.002	88.6
3027.267	83.6
3030.53	88.6
3033.789	86.6
3037.046	91.6
3040.301	93.6
3043.552	100.6
3046.801	108.6
3050.048	111.6
3053.291	110.6
3056.532	122.6
3059.771	117.6
3063.006	127.6
3066.239	129.6
3069.469	136.6
3072.697	139.6
3075.922	142.6
3079.144	141.6
3082.364	149.6
3085.581	151.6
3088.795	156.6
3092.007	152.6
3095.216	154.6
3098.423	159.6
3101.627	164.6
3104.828	167.6
3108.026	167.6
3111.222	168.6
3114.416	182.6
3117.607	185.6
3120.795	189.6
3123.98	191.6
3127.163	201.6
3130.344	204.6
3133.521	207.6
3136.696	215.6
3139.869	220.6
3143.039	217.6
3146.206	224.6
3149.371	220.6
3152.533	242.6
3155.693	226.6
3158.85	226.6
3162.005	228.6
3165.157	232.6
3168.306	231.6
3171.453	234.6
3174.597	231.6
3177.739	224.6
3180.878	247.6
3184.014	229.6
3187.149	234.6
3190.28	239.6
3193.409	240.6
3196.536	233.6
3199.659	244.6
3202.781	250.6
3205.9	252.6
3209.016	235.6
3212.13	246.6
3215.241	244.6
3218.35	241.6
3221.456	234.6
3224.56	235.6
3227.661	223.6
3230.76	224.6
3233.856	225.6
3236.95	211.6
3240.041	207.6
3243.13	205.6
3246.216	197.6
3249.3	192.6
3252.382	192.6
3255.46	200.6
3258.537	188.6
3261.611	181.6
3264.682	184.6
3267.751	190.6
3270.818	178.6
3273.882	178.6
3276.943	175.6
3280.002	174.6
3283.059	179.6
3286.113	174.6
3289.165	176.6
3292.214	173.6
3295.261	172.6
3298.306	171.6
3301.348	176.6
3304.387	163.6
3307.425	166.6
3310.459	164.6
3313.492	168.6
3316.521	175.6
3319.549	171.6
3322.574	166.6
3325.597	166.6
3328.617	164.6
3331.635	167.6
3334.65	178.6
3337.663	159.6
3340.674	166.6
3343.682	170.6
3346.688	160.6
3349.691	168.6
3352.692	167.6
3355.691	173.6
3358.687	164.6
3361.681	168.6
3364.673	156.6
3367.662	159.6
3370.649	159.6
3373.633	147.6
3376.615	154.6
3379.595	147.6
3382.572	132.6
3385.547	135.6
3388.52	141.6
3391.49	130.6
3394.458	132.6
3397.424	138.6
3400.387	139.6
3403.348	117.6
3406.307	123.6
3409.263	123.6
3412.217	122.6
3415.168	123.6
3418.118	120.6
3421.065	111.6
3424.009	119.6
3426.951	107.6
3429.891	109.6
3432.829	107.6
3435.764	106.6
3438.697	100.6
3441.628	90.6
3444.557	98.6
3447.483	85.6
3450.407	77.6
3453.328	80.6
3456.247	71.6
3459.164	70.6
3462.079	65.6
3464.991	64.6
3467.902	58.6
3470.809	56.6
3473.715	54.6
3476.618	49.6
3479.519	43.6
3482.418	39.6
3485.315	44.6
3488.209	39.6
3491.101	27.6
3493.99	37.6
3496.878	22.6
3499.763	20.6
3502.646	21.6
3505.527	22.6
3508.405	16.6
3511.281	20.6
3514.155	12.6
3517.027	-0.4
3519.897	9.6
3522.764	10.6
3525.629	5.6
3528.492	-4.4
3531.352	-5.4
3534.211	-11.4
3537.067	-13.4
3539.921	-6.4
3542.773	-19.4
3545.622	-9.4
3548.469	-8.4
3551.315	-13.4
3554.157	-8.4
3556.998	-18.4
3559.837	-18.4
3562.673	-17.4
3565.507	-18.4
3568.339	-15.4
3571.169	-23.4
3573.996	-19.4
3576.822	-31.4
3579.645	-24.4
3582.466	-30.4
3585.285	-33.4
3588.101	-31.4
3590.916	-27.4
3593.728	-36.4
3596.538	-41.4
3599.346	-33.4
3602.152	-37.4
3604.956	-37.4
3607.757	-32.4
3610.556	-36.4
3613.354	-40.4
3616.149	-37.4
3618.942	-41.4
3621.732	-42.4
3624.521	-41.4
3627.307	-38.4
3630.092	-41.4
3632.874	-41.4
3635.654	-44.4
3638.432	-42.4
3641.208	-41.4
3643.982	-44.4
3646.753	-51.4
3649.523	-41.4
3652.29	-50.4
3655.055	-47.4
3657.818	-52.4
3660.579	-51.4
3663.338	-50.4
3666.095	-47.4
3668.849	-51.4
3671.602	-49.4
3674.352	-50.4
3677.101	-51.4
3679.847	-45.4
3682.591	-55.4
3685.333	-49.4
3688.073	-57.4
3690.811	-50.4
3693.547	-56.4
3696.281	-48.4
3699.013	-55.4
3701.742	-59.4
3704.47	-47.4
3707.195	-51.4
3709.919	-56.4
3712.64	-53.4
3715.359	-53.4
3718.076	-57.4
3720.792	-56.4
3723.505	-58.4
3726.216	-52.4
3728.925	-57.4
3731.632	-55.4
3734.336	-57.4
3737.039	-53.4
3739.74	-59.4
3742.439	-65.4
3745.136	-60.4
3747.83	-58.4
3750.523	-60.4
3753.213	-67.4
3755.902	-60.4
3758.589	-57.4
3761.273	-61.4
3763.956	-62.4
3766.636	-58.4
3769.315	-57.4
3771.991	-59.4
3774.665	-64.4
3777.338	-64.4
3780.008	-61.4
3782.677	-63.4
3785.343	-62.4
3788.007	-61.4
3790.67	-60.4
3793.33	-59.4
3795.989	-60.4
3798.645	-57.4
3801.299	-57.4
3803.952	-58.4
3806.602	-59.4
3809.251	-65.4
3811.897	-62.4
3814.542	-65.4
3817.184	-64.4
3819.825	-59.4
3822.463	-62.4
3825.1	-57.4
3827.735	-65.4
3830.367	-61.4
3832.998	-65.4
3835.627	-67.4
3838.253	-53.4
3840.878	-61.4
3843.501	-57.4
3846.122	-66.4
3848.741	-63.4
3851.358	-62.4
3853.973	-54.4
3856.586	-63.4
3859.197	-61.4
3861.806	-55.4
3864.414	-59.4
3867.019	-63.4
3869.622	-53.4
3872.224	-47.4
3874.823	-44.4
3877.421	-41.4
3880.016	-33.4
3882.61	-22.4
3885.202	-19.4
3887.792	-24.4
3890.38	-40.4
3892.966	-49.4
3895.55	-56.4
3898.132	-58.4
3900.713	-60.4
3903.291	-63.4
3905.868	-58.4
3908.442	-61.4
3911.015	-58.4
3913.586	-65.4
3916.155	-61.4
3918.722	-63.4
3921.287	-64.4
3923.85	-54.4
3926.411	-65.4
3928.971	-69.4
3931.528	-63.4
3934.084	-58.4
3936.638	-62.4
3939.19	-74.4
3941.74	-62.4
3944.288	-64.4
3946.834	-63.4
3949.378	-68.4
3951.921	-66.4
3954.462	-59.4
3957	-55.4
3959.537	-54.4
3962.072	-56.4
3964.606	-58.4
3967.137	-59.4
3969.667	-66.4
3972.194	-56.4
3974.72	-63.4
3977.244	-60.4
3979.766	-63.4
3982.286	-61.4
3984.805	-74.4
3987.321	-60.4
3989.836	-58.4
3992.349	-61.4
3994.86	-62.4
3997.369	-63.4
3999.877	-66.4
4002.382	-63.4
4004.886	-57.4
4007.388	-64.4
4009.888	-59.4
4012.386	-62.4
4014.883	-60.4
4017.377	-59.4
4019.87	-62.4
4022.361	-62.4
4024.85	-63.4
4027.338	-67.4
4029.823	-63.4
4032.307	-65.4
4034.789	-62.4
4037.269	-64.4
4039.747	-67.4
4042.224	-67.4
4044.699	-69.4
4047.172	-73.4
4049.643	-62.4
4052.112	-66.4
4054.58	-59.4
4057.046	-53.4
4059.51	-65.4
4061.972	-60.4
4064.432	-61.4
4066.891	-59.4
4069.348	-60.4
4071.803	-53.4
4074.256	-58.4
4076.708	-61.4
4079.158	-67.4
4081.606	-63.4
4084.052	-65.4
4086.497	-60.4
4088.939	-58.4
4091.38	-69.4
4093.819	-63.4
4096.257	-67.4
4098.693	-65.4
4101.127	-59.4
4103.559	-70.4
4105.989	-7.4
4108.418	-11.4
4110.845	-17.4
4113.27	-5.4
4115.694	-0.4
4118.115	-1.4
4120.535	-69.4
4122.954	-62.4
4125.37	-61.4
4127.785	-61.4
4130.198	-62.4
4132.609	-64.4
4135.019	-65.4
4137.427	-65.4
4139.833	-61.4
4142.237	-64.4
