Data from 2018-3-7_conc=4_n=6_RamanShift_02.txt Node
Date: Wed Mar 07 12:05:52 IST 2018
User: aro
Spectrometer: QEPB0276
Trigger mode: 0
Integration Time (sec): 3.000000E1
Scans to average: 1
Electric dark correction enabled: true
Nonlinearity correction enabled: false
Boxcar width: 0
XAxis mode: Raman Shifts
Number of Pixels in Spectrum: 1044
>>>>>Begin Spectral Data<<<<<
160.701	15.1
166.742	25.1
172.777	52.1
178.805	141.1
184.826	362.1
190.841	767.1
196.849	1245.1
202.85	1641.1
208.845	1783.1
214.833	1795.1
220.815	1754.1
226.789	1759.1
232.758	1762.1
238.719	1758.1
244.674	1753.1
250.623	1724.1
256.565	1724.1
262.5	1683.1
268.429	1692.1
274.351	1662.1
280.267	1659.1
286.176	1645.1
292.079	1654.1
297.975	1642.1
303.865	1657.1
309.748	1636.1
315.625	1634.1
321.495	1623.1
327.359	1651.1
333.217	1636.1
339.068	1645.1
344.912	1641.1
350.751	1670.1
356.583	1647.1
362.408	1669.1
368.227	1648.1
374.04	1680.1
379.847	1703.1
385.647	1673.1
391.44	1690.1
397.228	1706.1
403.009	1714.1
408.784	1715.1
414.553	1715.1
420.315	1737.1
426.071	1716.1
431.821	1726.1
437.565	1714.1
443.302	1725.1
449.033	1702.1
454.758	1706.1
460.477	1697.1
466.189	1687.1
471.896	1669.1
477.596	1655.1
483.29	1648.1
488.978	1674.1
494.66	1643.1
500.335	1622.1
506.005	1546.1
511.668	1501.1
517.325	1448.1
522.977	1407.1
528.622	1363.1
534.261	1345.1
539.894	1317.1
545.521	1307.1
551.141	1297.1
556.756	1291.1
562.365	1264.1
567.968	1269.1
573.565	1254.1
579.155	1250.1
584.74	1244.1
590.319	1241.1
595.892	1237.1
601.459	1228.1
607.02	1229.1
612.575	1221.1
618.124	1189.1
623.667	1188.1
629.204	1165.1
634.735	1167.1
640.261	1158.1
645.781	1160.1
651.294	1165.1
656.802	1160.1
662.304	1141.1
667.8	1151.1
673.29	1144.1
678.775	1143.1
684.254	1145.1
689.726	1132.1
695.193	1119.1
700.655	1125.1
706.11	1112.1
711.56	1109.1
717.004	1098.1
722.442	1081.1
727.874	1084.1
733.301	1087.1
738.722	1074.1
744.137	1081.1
749.547	1077.1
754.951	1059.1
760.349	1062.1
765.741	1068.1
771.128	1087.1
776.509	1086.1
781.885	1109.1
787.254	1112.1
792.618	1097.1
797.977	1097.1
803.33	1081.1
808.677	1097.1
814.019	1085.1
819.355	1072.1
824.686	1051.1
830.011	1045.1
835.33	1051.1
840.644	1040.1
845.952	1039.1
851.255	1044.1
856.552	1045.1
861.844	1028.1
867.13	1006.1
872.41	1017.1
877.686	1000.1
882.955	1005.1
888.219	987.1
893.478	991.1
898.731	972.1
903.979	947.1
909.221	940.1
914.458	929.1
919.69	939.1
924.916	952.1
930.136	942.1
935.351	944.1
940.561	943.1
945.766	957.1
950.965	946.1
956.158	933.1
961.347	911.1
966.529	911.1
971.707	896.1
976.879	879.1
982.046	877.1
987.208	871.1
992.364	869.1
997.515	874.1
1002.66	864.1
1007.801	878.1
1012.936	899.1
1018.066	910.1
1023.19	905.1
1028.309	891.1
1033.423	888.1
1038.532	894.1
1043.636	890.1
1048.734	880.1
1053.827	876.1
1058.915	852.1
1063.998	839.1
1069.075	841.1
1074.147	851.1
1079.214	851.1
1084.276	853.1
1089.333	867.1
1094.385	857.1
1099.431	843.1
1104.472	844.1
1109.509	844.1
1114.54	840.1
1119.565	825.1
1124.586	807.1
1129.602	797.1
1134.613	807.1
1139.618	801.1
1144.619	779.1
1149.614	797.1
1154.604	800.1
1159.589	809.1
1164.57	804.1
1169.545	791.1
1174.515	797.1
1179.48	800.1
1184.44	801.1
1189.395	788.1
1194.345	772.1
1199.29	763.1
1204.23	776.1
1209.165	765.1
1214.095	769.1
1219.021	763.1
1223.941	784.1
1228.856	785.1
1233.766	785.1
1238.672	790.1
1243.572	790.1
1248.467	785.1
1253.358	779.1
1258.244	775.1
1263.124	762.1
1268	731.1
1272.871	731.1
1277.737	723.1
1282.599	722.1
1287.455	715.1
1292.306	719.1
1297.153	719.1
1301.995	727.1
1306.832	727.1
1311.664	739.1
1316.491	721.1
1321.314	726.1
1326.132	721.1
1330.945	715.1
1335.753	694.1
1340.556	693.1
1345.354	669.1
1350.148	665.1
1354.937	653.1
1359.722	626.1
1364.501	616.1
1369.276	608.1
1374.046	594.1
1378.811	600.1
1383.572	597.1
1388.327	589.1
1393.079	589.1
1397.825	589.1
1402.567	595.1
1407.304	595.1
1412.036	609.1
1416.764	607.1
1421.487	602.1
1426.205	610.1
1430.919	594.1
1435.628	609.1
1440.333	620.1
1445.032	609.1
1449.727	623.1
1454.418	621.1
1459.104	619.1
1463.785	617.1
1468.462	606.1
1473.134	589.1
1477.802	563.1
1482.465	551.1
1487.123	537.1
1491.777	527.1
1496.426	525.1
1501.071	527.1
1505.711	514.1
1510.347	515.1
1514.978	507.1
1519.604	509.1
1524.226	502.1
1528.844	507.1
1533.457	500.1
1538.065	493.1
1542.669	496.1
1547.269	494.1
1551.864	510.1
1556.454	511.1
1561.041	517.1
1565.622	517.1
1570.199	522.1
1574.772	525.1
1579.34	520.1
1583.904	527.1
1588.464	546.1
1593.019	541.1
1597.569	543.1
1602.115	554.1
1606.657	540.1
1611.195	532.1
1615.728	539.1
1620.256	532.1
1624.78	535.1
1629.3	537.1
1633.816	530.1
1638.327	535.1
1642.834	535.1
1647.336	522.1
1651.834	533.1
1656.328	533.1
1660.817	538.1
1665.302	529.1
1669.783	516.1
1674.259	504.1
1678.732	493.1
1683.199	470.1
1687.663	455.1
1692.122	439.1
1696.577	424.1
1701.028	399.1
1705.474	373.1
1709.917	375.1
1714.355	369.1
1718.788	365.1
1723.218	366.1
1727.643	373.1
1732.064	366.1
1736.481	353.1
1740.893	356.1
1745.301	338.1
1749.705	336.1
1754.105	323.1
1758.501	320.1
1762.893	320.1
1767.28	307.1
1771.663	303.1
1776.042	309.1
1780.417	302.1
1784.787	293.1
1789.154	283.1
1793.516	277.1
1797.874	271.1
1802.228	276.1
1806.578	277.1
1810.924	263.1
1815.266	266.1
1819.603	259.1
1823.937	267.1
1828.266	266.1
1832.591	270.1
1836.913	259.1
1841.23	276.1
1845.543	267.1
1849.852	275.1
1854.156	277.1
1858.457	278.1
1862.754	280.1
1867.047	277.1
1871.335	271.1
1875.62	263.1
1879.9	272.1
1884.177	261.1
1888.449	256.1
1892.718	263.1
1896.982	252.1
1901.243	243.1
1905.499	238.1
1909.752	237.1
1914	244.1
1918.245	241.1
1922.485	226.1
1926.722	227.1
1930.954	224.1
1935.183	227.1
1939.408	228.1
1943.628	220.1
1947.845	217.1
1952.058	217.1
1956.267	208.1
1960.472	210.1
1964.673	209.1
1968.87	210.1
1973.063	214.1
1977.252	204.1
1981.438	201.1
1985.619	198.1
1989.797	211.1
1993.971	207.1
1998.14	205.1
2002.306	208.1
2006.469	213.1
2010.627	218.1
2014.781	217.1
2018.932	209.1
2023.078	205.1
2027.221	213.1
2031.36	209.1
2035.495	189.1
2039.627	188.1
2043.754	187.1
2047.878	189.1
2051.998	194.1
2056.114	189.1
2060.226	187.1
2064.334	184.1
2068.439	187.1
2072.54	184.1
2076.637	186.1
2080.73	182.1
2084.82	184.1
2088.906	181.1
2092.988	174.1
2097.066	169.1
2101.14	174.1
2105.211	176.1
2109.278	171.1
2113.342	161.1
2117.401	171.1
2121.457	158.1
2125.509	158.1
2129.558	158.1
2133.602	161.1
2137.643	160.1
2141.681	155.1
2145.714	162.1
2149.744	157.1
2153.77	164.1
2157.793	163.1
2161.812	169.1
2165.827	164.1
2169.838	155.1
2173.846	154.1
2177.851	148.1
2181.851	156.1
2185.848	144.1
2189.841	149.1
2193.831	138.1
2197.817	145.1
2201.799	143.1
2205.778	145.1
2209.753	143.1
2213.725	142.1
2217.693	146.1
2221.657	141.1
2225.618	136.1
2229.575	136.1
2233.529	141.1
2237.479	148.1
2241.425	134.1
2245.368	137.1
2249.307	144.1
2253.243	128.1
2257.175	124.1
2261.104	117.1
2265.029	126.1
2268.95	123.1
2272.868	122.1
2276.783	118.1
2280.694	115.1
2284.601	111.1
2288.505	123.1
2292.405	123.1
2296.302	118.1
2300.195	117.1
2304.085	114.1
2307.971	107.1
2311.854	101.1
2315.734	100.1
2319.609	108.1
2323.482	111.1
2327.351	110.1
2331.216	112.1
2335.078	131.1
2338.937	118.1
2342.792	106.1
2346.643	115.1
2350.492	109.1
2354.336	107.1
2358.178	102.1
2362.015	107.1
2365.85	110.1
2369.681	107.1
2373.508	113.1
2377.333	112.1
2381.153	111.1
2384.971	108.1
2388.785	98.1
2392.595	109.1
2396.402	105.1
2400.206	98.1
2404.007	105.1
2407.804	108.1
2411.597	104.1
2415.388	99.1
2419.174	105.1
2422.958	97.1
2426.738	104.1
2430.515	106.1
2434.289	100.1
2438.059	97.1
2441.825	90.1
2445.589	90.1
2449.349	94.1
2453.106	94.1
2456.859	86.1
2460.61	91.1
2464.356	87.1
2468.1	90.1
2471.84	84.1
2475.577	77.1
2479.311	86.1
2483.041	79.1
2486.768	78.1
2490.492	86.1
2494.213	81.1
2497.93	80.1
2501.644	90.1
2505.355	77.1
2509.062	81.1
2512.766	72.1
2516.467	73.1
2520.165	74.1
2523.859	76.1
2527.551	67.1
2531.239	70.1
2534.923	63.1
2538.605	60.1
2542.283	62.1
2545.958	65.1
2549.63	63.1
2553.299	70.1
2556.964	59.1
2560.626	58.1
2564.285	67.1
2567.941	63.1
2571.594	56.1
2575.243	61.1
2578.89	52.1
2582.533	57.1
2586.173	58.1
2589.809	55.1
2593.443	61.1
2597.073	48.1
2600.701	61.1
2604.325	48.1
2607.946	41.1
2611.564	60.1
2615.178	53.1
2618.79	53.1
2622.398	53.1
2626.004	46.1
2629.606	40.1
2633.205	47.1
2636.801	46.1
2640.394	51.1
2643.983	46.1
2647.57	42.1
2651.153	41.1
2654.734	46.1
2658.311	42.1
2661.885	41.1
2665.456	45.1
2669.025	49.1
2672.589	38.1
2676.151	41.1
2679.71	39.1
2683.266	37.1
2686.819	41.1
2690.368	39.1
2693.915	39.1
2697.458	33.1
2700.999	42.1
2704.536	39.1
2708.071	33.1
2711.602	42.1
2715.13	26.1
2718.656	29.1
2722.178	27.1
2725.697	27.1
2729.214	29.1
2732.727	32.1
2736.237	25.1
2739.744	25.1
2743.249	28.1
2746.75	22.1
2750.248	19.1
2753.743	22.1
2757.236	17.1
2760.725	24.1
2764.211	18.1
2767.695	14.1
2771.175	15.1
2774.652	15.1
2778.127	19.1
2781.598	17.1
2785.067	10.1
2788.532	11.1
2791.995	22.1
2795.455	20.1
2798.911	23.1
2802.365	21.1
2805.816	18.1
2809.264	18.1
2812.709	14.1
2816.151	23.1
2819.59	29.1
2823.026	15.1
2826.46	24.1
2829.89	18.1
2833.318	12.1
2836.742	18.1
2840.164	19.1
2843.583	17.1
2846.999	21.1
2850.412	17.1
2853.822	19.1
2857.229	25.1
2860.634	16.1
2864.035	24.1
2867.434	18.1
2870.83	28.1
2874.223	26.1
2877.613	29.1
2881	28.1
2884.385	37.1
2887.766	32.1
2891.145	27.1
2894.521	33.1
2897.894	36.1
2901.264	31.1
2904.631	28.1
2907.996	30.1
2911.358	35.1
2914.717	30.1
2918.073	31.1
2921.426	30.1
2924.777	37.1
2928.124	32.1
2931.469	37.1
2934.811	45.1
2938.15	49.1
2941.487	50.1
2944.821	46.1
2948.152	52.1
2951.48	48.1
2954.805	44.1
2958.128	49.1
2961.447	47.1
2964.765	42.1
2968.079	33.1
2971.39	36.1
2974.699	33.1
2978.005	42.1
2981.308	37.1
2984.609	34.1
2987.907	41.1
2991.202	42.1
2994.494	41.1
2997.784	32.1
3001.07	36.1
3004.355	44.1
3007.636	45.1
3010.915	39.1
3014.191	40.1
3017.464	49.1
3020.734	49.1
3024.002	47.1
3027.267	45.1
3030.53	47.1
3033.789	49.1
3037.046	42.1
3040.301	48.1
3043.552	52.1
3046.801	54.1
3050.048	61.1
3053.291	61.1
3056.532	61.1
3059.771	65.1
3063.006	68.1
3066.239	80.1
3069.469	80.1
3072.697	79.1
3075.922	83.1
3079.144	81.1
3082.364	84.1
3085.581	90.1
3088.795	91.1
3092.007	93.1
3095.216	93.1
3098.423	94.1
3101.627	87.1
3104.828	104.1
3108.026	110.1
3111.222	103.1
3114.416	107.1
3117.607	112.1
3120.795	117.1
3123.98	113.1
3127.163	132.1
3130.344	123.1
3133.521	126.1
3136.696	133.1
3139.869	135.1
3143.039	129.1
3146.206	143.1
3149.371	139.1
3152.533	141.1
3155.693	147.1
3158.85	150.1
3162.005	143.1
3165.157	143.1
3168.306	142.1
3171.453	139.1
3174.597	138.1
3177.739	145.1
3180.878	158.1
3184.014	146.1
3187.149	146.1
3190.28	150.1
3193.409	156.1
3196.536	151.1
3199.659	152.1
3202.781	149.1
3205.9	144.1
3209.016	145.1
3212.13	151.1
3215.241	149.1
3218.35	137.1
3221.456	148.1
3224.56	136.1
3227.661	139.1
3230.76	129.1
3233.856	138.1
3236.95	133.1
3240.041	132.1
3243.13	138.1
3246.216	122.1
3249.3	116.1
3252.382	122.1
3255.46	122.1
3258.537	115.1
3261.611	109.1
3264.682	114.1
3267.751	125.1
3270.818	99.1
3273.882	106.1
3276.943	105.1
3280.002	111.1
3283.059	111.1
3286.113	102.1
3289.165	105.1
3292.214	111.1
3295.261	99.1
3298.306	104.1
3301.348	107.1
3304.387	100.1
3307.425	103.1
3310.459	95.1
3313.492	91.1
3316.521	96.1
3319.549	104.1
3322.574	98.1
3325.597	101.1
3328.617	103.1
3331.635	99.1
3334.65	95.1
3337.663	84.1
3340.674	96.1
3343.682	99.1
3346.688	99.1
3349.691	95.1
3352.692	95.1
3355.691	106.1
3358.687	98.1
3361.681	98.1
3364.673	100.1
3367.662	95.1
3370.649	96.1
3373.633	91.1
3376.615	85.1
3379.595	86.1
3382.572	85.1
3385.547	81.1
3388.52	79.1
3391.49	73.1
3394.458	68.1
3397.424	74.1
3400.387	78.1
3403.348	70.1
3406.307	76.1
3409.263	69.1
3412.217	66.1
3415.168	75.1
3418.118	63.1
3421.065	66.1
3424.009	62.1
3426.951	64.1
3429.891	59.1
3432.829	60.1
3435.764	59.1
3438.697	53.1
3441.628	44.1
3444.557	54.1
3447.483	51.1
3450.407	40.1
3453.328	47.1
3456.247	38.1
3459.164	35.1
3462.079	31.1
3464.991	28.1
3467.902	31.1
3470.809	24.1
3473.715	29.1
3476.618	16.1
3479.519	19.1
3482.418	18.1
3485.315	7.1
3488.209	10.1
3491.101	5.1
3493.99	17.1
3496.878	8.1
3499.763	2.1
3502.646	3.1
3505.527	2.1
3508.405	5.1
3511.281	-0.9
3514.155	0.1
3517.027	-1.9
3519.897	-2.9
3522.764	-7.9
3525.629	-9.9
3528.492	-12.9
3531.352	-18.9
3534.211	-22.9
3537.067	-18.9
3539.921	-19.9
3542.773	-18.9
3545.622	-23.9
3548.469	-19.9
3551.315	-15.9
3554.157	-19.9
3556.998	-20.9
3559.837	-24.9
3562.673	-28.9
3565.507	-24.9
3568.339	-25.9
3571.169	-25.9
3573.996	-24.9
3576.822	-36.9
3579.645	-35.9
3582.466	-28.9
3585.285	-34.9
3588.101	-35.9
3590.916	-30.9
3593.728	-30.9
3596.538	-35.9
3599.346	-36.9
3602.152	-36.9
3604.956	-31.9
3607.757	-31.9
3610.556	-32.9
3613.354	-38.9
3616.149	-43.9
3618.942	-40.9
3621.732	-37.9
3624.521	-38.9
3627.307	-35.9
3630.092	-44.9
3632.874	-46.9
3635.654	-44.9
3638.432	-40.9
3641.208	-43.9
3643.982	-38.9
3646.753	-45.9
3649.523	-41.9
3652.29	-45.9
3655.055	-37.9
3657.818	-46.9
3660.579	-44.9
3663.338	-41.9
3666.095	-44.9
3668.849	-49.9
3671.602	-48.9
3674.352	-46.9
3677.101	-44.9
3679.847	-49.9
3682.591	-53.9
3685.333	-47.9
3688.073	-48.9
3690.811	-45.9
3693.547	-49.9
3696.281	-45.9
3699.013	-40.9
3701.742	-52.9
3704.47	-44.9
3707.195	-47.9
3709.919	-47.9
3712.64	-45.9
3715.359	-46.9
3718.076	-48.9
3720.792	-49.9
3723.505	-57.9
3726.216	-50.9
3728.925	-55.9
3731.632	-47.9
3734.336	-51.9
3737.039	-50.9
3739.74	-56.9
3742.439	-57.9
3745.136	-53.9
3747.83	-50.9
3750.523	-52.9
3753.213	-56.9
3755.902	-53.9
3758.589	-48.9
3761.273	-53.9
3763.956	-57.9
3766.636	-50.9
3769.315	-51.9
3771.991	-56.9
3774.665	-58.9
3777.338	-52.9
3780.008	-58.9
3782.677	-57.9
3785.343	-52.9
3788.007	-52.9
3790.67	-54.9
3793.33	-50.9
3795.989	-52.9
3798.645	-55.9
3801.299	-51.9
3803.952	-55.9
3806.602	-52.9
3809.251	-55.9
3811.897	-54.9
3814.542	-62.9
3817.184	-57.9
3819.825	-50.9
3822.463	-55.9
3825.1	-52.9
3827.735	-58.9
3830.367	-60.9
3832.998	-55.9
3835.627	-54.9
3838.253	-47.9
3840.878	-47.9
3843.501	-50.9
3846.122	-55.9
3848.741	-54.9
3851.358	-53.9
3853.973	-51.9
3856.586	-51.9
3859.197	-54.9
3861.806	-58.9
3864.414	-56.9
3867.019	-52.9
3869.622	-48.9
3872.224	-45.9
3874.823	-30.9
3877.421	-28.9
3880.016	-5.9
3882.61	7.1
3885.202	9.1
3887.792	-1.9
3890.38	-19.9
3892.966	-38.9
3895.55	-49.9
3898.132	-47.9
3900.713	-56.9
3903.291	-59.9
3905.868	-55.9
3908.442	-57.9
3911.015	-54.9
3913.586	-55.9
3916.155	-58.9
3918.722	-58.9
3921.287	-56.9
3923.85	-47.9
3926.411	-55.9
3928.971	-62.9
3931.528	-56.9
3934.084	-50.9
3936.638	-53.9
3939.19	-61.9
3941.74	-52.9
3944.288	-53.9
3946.834	-56.9
3949.378	-53.9
3951.921	-56.9
3954.462	-55.9
3957	-52.9
3959.537	-45.9
3962.072	-52.9
3964.606	-55.9
3967.137	-53.9
3969.667	-57.9
3972.194	-52.9
3974.72	-50.9
3977.244	-50.9
3979.766	-57.9
3982.286	-56.9
3984.805	-58.9
3987.321	-54.9
3989.836	-48.9
3992.349	-58.9
3994.86	-52.9
3997.369	-53.9
3999.877	-53.9
4002.382	-53.9
4004.886	-54.9
4007.388	-53.9
4009.888	-56.9
4012.386	-58.9
4014.883	-56.9
4017.377	-54.9
4019.87	-50.9
4022.361	-56.9
4024.85	-53.9
4027.338	-54.9
4029.823	-51.9
4032.307	-54.9
4034.789	-52.9
4037.269	-53.9
4039.747	-57.9
4042.224	-52.9
4044.699	-54.9
4047.172	-55.9
4049.643	-55.9
4052.112	-56.9
4054.58	-58.9
4057.046	-48.9
4059.51	-57.9
4061.972	-58.9
4064.432	-54.9
4066.891	-49.9
4069.348	-53.9
4071.803	-49.9
4074.256	-55.9
4076.708	-56.9
4079.158	-53.9
4081.606	-52.9
4084.052	-55.9
4086.497	-47.9
4088.939	-52.9
4091.38	-53.9
4093.819	-63.9
4096.257	-57.9
4098.693	-57.9
4101.127	-54.9
4103.559	-56.9
4105.989	33.1
4108.418	19.1
4110.845	16.1
4113.27	13.1
4115.694	27.1
4118.115	20.1
4120.535	-56.9
4122.954	-52.9
4125.37	-55.9
4127.785	-54.9
4130.198	-51.9
4132.609	-61.9
4135.019	-56.9
4137.427	-58.9
4139.833	-58.9
4142.237	-58.9
