Data from 2018-3-7_conc=6_n=5_RamanShift_04.txt Node
Date: Wed Mar 07 13:10:52 IST 2018
User: aro
Spectrometer: QEPB0276
Trigger mode: 0
Integration Time (sec): 3.000000E1
Scans to average: 1
Electric dark correction enabled: true
Nonlinearity correction enabled: false
Boxcar width: 0
XAxis mode: Raman Shifts
Number of Pixels in Spectrum: 1044
>>>>>Begin Spectral Data<<<<<
160.701	8.1
166.742	15.1
172.777	47.1
178.805	147.1
184.826	399.1
190.841	857.1
196.849	1418.1
202.85	1867.1
208.845	2049.1
214.833	2061.1
220.815	2039.1
226.789	2006.1
232.758	2022.1
238.719	2014.1
244.674	2011.1
250.623	1996.1
256.565	1980.1
262.5	1933.1
268.429	1918.1
274.351	1901.1
280.267	1882.1
286.176	1850.1
292.079	1883.1
297.975	1867.1
303.865	1876.1
309.748	1849.1
315.625	1851.1
321.495	1834.1
327.359	1850.1
333.217	1838.1
339.068	1857.1
344.912	1843.1
350.751	1853.1
356.583	1856.1
362.408	1847.1
368.227	1852.1
374.04	1863.1
379.847	1875.1
385.647	1881.1
391.44	1886.1
397.228	1900.1
403.009	1907.1
408.784	1921.1
414.553	1921.1
420.315	1929.1
426.071	1910.1
431.821	1913.1
437.565	1906.1
443.302	1922.1
449.033	1893.1
454.758	1917.1
460.477	1878.1
466.189	1878.1
471.896	1872.1
477.596	1839.1
483.29	1845.1
488.978	1851.1
494.66	1850.1
500.335	1807.1
506.005	1756.1
511.668	1729.1
517.325	1664.1
522.977	1607.1
528.622	1583.1
534.261	1558.1
539.894	1539.1
545.521	1539.1
551.141	1506.1
556.756	1500.1
562.365	1491.1
567.968	1477.1
573.565	1471.1
579.155	1468.1
584.74	1460.1
590.319	1450.1
595.892	1469.1
601.459	1457.1
607.02	1446.1
612.575	1436.1
618.124	1431.1
623.667	1404.1
629.204	1389.1
634.735	1366.1
640.261	1393.1
645.781	1357.1
651.294	1365.1
656.802	1359.1
662.304	1364.1
667.8	1357.1
673.29	1353.1
678.775	1353.1
684.254	1352.1
689.726	1331.1
695.193	1330.1
700.655	1321.1
706.11	1305.1
711.56	1299.1
717.004	1287.1
722.442	1287.1
727.874	1274.1
733.301	1286.1
738.722	1273.1
744.137	1276.1
749.547	1280.1
754.951	1276.1
760.349	1272.1
765.741	1273.1
771.128	1272.1
776.509	1276.1
781.885	1298.1
787.254	1295.1
792.618	1291.1
797.977	1288.1
803.33	1272.1
808.677	1274.1
814.019	1259.1
819.355	1256.1
824.686	1244.1
830.011	1234.1
835.33	1237.1
840.644	1223.1
845.952	1235.1
851.255	1217.1
856.552	1231.1
861.844	1225.1
867.13	1201.1
872.41	1200.1
877.686	1200.1
882.955	1193.1
888.219	1194.1
893.478	1172.1
898.731	1143.1
903.979	1120.1
909.221	1134.1
914.458	1112.1
919.69	1116.1
924.916	1134.1
930.136	1133.1
935.351	1115.1
940.561	1124.1
945.766	1128.1
950.965	1141.1
956.158	1109.1
961.347	1093.1
966.529	1079.1
971.707	1073.1
976.879	1048.1
982.046	1042.1
987.208	1032.1
992.364	1024.1
997.515	1044.1
1002.66	1048.1
1007.801	1061.1
1012.936	1074.1
1018.066	1069.1
1023.19	1073.1
1028.309	1088.1
1033.423	1071.1
1038.532	1065.1
1043.636	1055.1
1048.734	1047.1
1053.827	1042.1
1058.915	1015.1
1063.998	1005.1
1069.075	1010.1
1074.147	1011.1
1079.214	1009.1
1084.276	1018.1
1089.333	1027.1
1094.385	1023.1
1099.431	1013.1
1104.472	1023.1
1109.509	1010.1
1114.54	999.1
1119.565	990.1
1124.586	965.1
1129.602	969.1
1134.613	955.1
1139.618	952.1
1144.619	951.1
1149.614	960.1
1154.604	952.1
1159.589	964.1
1164.57	945.1
1169.545	943.1
1174.515	957.1
1179.48	957.1
1184.44	948.1
1189.395	936.1
1194.345	933.1
1199.29	926.1
1204.23	915.1
1209.165	917.1
1214.095	931.1
1219.021	934.1
1223.941	948.1
1228.856	951.1
1233.766	943.1
1238.672	957.1
1243.572	955.1
1248.467	949.1
1253.358	939.1
1258.244	926.1
1263.124	897.1
1268	885.1
1272.871	871.1
1277.737	880.1
1282.599	864.1
1287.455	865.1
1292.306	869.1
1297.153	862.1
1301.995	873.1
1306.832	883.1
1311.664	880.1
1316.491	888.1
1321.314	888.1
1326.132	872.1
1330.945	858.1
1335.753	848.1
1340.556	818.1
1345.354	821.1
1350.148	809.1
1354.937	793.1
1359.722	770.1
1364.501	756.1
1369.276	734.1
1374.046	718.1
1378.811	721.1
1383.572	700.1
1388.327	706.1
1393.079	709.1
1397.825	715.1
1402.567	717.1
1407.304	718.1
1412.036	736.1
1416.764	730.1
1421.487	735.1
1426.205	732.1
1430.919	725.1
1435.628	724.1
1440.333	741.1
1445.032	732.1
1449.727	759.1
1454.418	757.1
1459.104	740.1
1463.785	737.1
1468.462	717.1
1473.134	715.1
1477.802	682.1
1482.465	669.1
1487.123	668.1
1491.777	653.1
1496.426	645.1
1501.071	636.1
1505.711	629.1
1510.347	622.1
1514.978	605.1
1519.604	607.1
1524.226	602.1
1528.844	603.1
1533.457	594.1
1538.065	593.1
1542.669	597.1
1547.269	587.1
1551.864	614.1
1556.454	603.1
1561.041	619.1
1565.622	609.1
1570.199	631.1
1574.772	636.1
1579.34	638.1
1583.904	650.1
1588.464	653.1
1593.019	661.1
1597.569	660.1
1602.115	657.1
1606.657	665.1
1611.195	649.1
1615.728	668.1
1620.256	650.1
1624.78	665.1
1629.3	656.1
1633.816	648.1
1638.327	650.1
1642.834	651.1
1647.336	653.1
1651.834	661.1
1656.328	656.1
1660.817	647.1
1665.302	646.1
1669.783	624.1
1674.259	601.1
1678.732	601.1
1683.199	580.1
1687.663	554.1
1692.122	530.1
1696.577	499.1
1701.028	473.1
1705.474	444.1
1709.917	442.1
1714.355	440.1
1718.788	425.1
1723.218	431.1
1727.643	431.1
1732.064	432.1
1736.481	439.1
1740.893	413.1
1745.301	414.1
1749.705	411.1
1754.105	397.1
1758.501	374.1
1762.893	382.1
1767.28	365.1
1771.663	369.1
1776.042	370.1
1780.417	361.1
1784.787	355.1
1789.154	336.1
1793.516	341.1
1797.874	324.1
1802.228	321.1
1806.578	309.1
1810.924	313.1
1815.266	313.1
1819.603	310.1
1823.937	308.1
1828.266	322.1
1832.591	320.1
1836.913	324.1
1841.23	327.1
1845.543	328.1
1849.852	328.1
1854.156	329.1
1858.457	343.1
1862.754	338.1
1867.047	335.1
1871.335	328.1
1875.62	328.1
1879.9	328.1
1884.177	324.1
1888.449	327.1
1892.718	318.1
1896.982	309.1
1901.243	305.1
1905.499	296.1
1909.752	288.1
1914	289.1
1918.245	272.1
1922.485	267.1
1926.722	273.1
1930.954	261.1
1935.183	265.1
1939.408	270.1
1943.628	259.1
1947.845	250.1
1952.058	249.1
1956.267	246.1
1960.472	247.1
1964.673	247.1
1968.87	243.1
1973.063	251.1
1977.252	248.1
1981.438	249.1
1985.619	242.1
1989.797	245.1
1993.971	243.1
1998.14	243.1
2002.306	251.1
2006.469	261.1
2010.627	260.1
2014.781	264.1
2018.932	253.1
2023.078	250.1
2027.221	248.1
2031.36	247.1
2035.495	246.1
2039.627	247.1
2043.754	235.1
2047.878	246.1
2051.998	243.1
2056.114	241.1
2060.226	227.1
2064.334	235.1
2068.439	222.1
2072.54	221.1
2076.637	226.1
2080.73	221.1
2084.82	227.1
2088.906	209.1
2092.988	205.1
2097.066	212.1
2101.14	210.1
2105.211	198.1
2109.278	202.1
2113.342	193.1
2117.401	198.1
2121.457	192.1
2125.509	196.1
2129.558	196.1
2133.602	195.1
2137.643	196.1
2141.681	193.1
2145.714	196.1
2149.744	203.1
2153.77	205.1
2157.793	196.1
2161.812	198.1
2165.827	200.1
2169.838	199.1
2173.846	192.1
2177.851	194.1
2181.851	191.1
2185.848	187.1
2189.841	187.1
2193.831	179.1
2197.817	176.1
2201.799	177.1
2205.778	178.1
2209.753	183.1
2213.725	180.1
2217.693	184.1
2221.657	180.1
2225.618	185.1
2229.575	173.1
2233.529	176.1
2237.479	181.1
2241.425	176.1
2245.368	173.1
2249.307	178.1
2253.243	165.1
2257.175	173.1
2261.104	162.1
2265.029	161.1
2268.95	163.1
2272.868	166.1
2276.783	153.1
2280.694	149.1
2284.601	145.1
2288.505	151.1
2292.405	149.1
2296.302	160.1
2300.195	149.1
2304.085	139.1
2307.971	148.1
2311.854	141.1
2315.734	142.1
2319.609	150.1
2323.482	140.1
2327.351	142.1
2331.216	146.1
2335.078	153.1
2338.937	150.1
2342.792	143.1
2346.643	142.1
2350.492	142.1
2354.336	139.1
2358.178	135.1
2362.015	139.1
2365.85	136.1
2369.681	146.1
2373.508	149.1
2377.333	146.1
2381.153	153.1
2384.971	133.1
2388.785	142.1
2392.595	141.1
2396.402	147.1
2400.206	135.1
2404.007	142.1
2407.804	143.1
2411.597	137.1
2415.388	139.1
2419.174	145.1
2422.958	134.1
2426.738	134.1
2430.515	139.1
2434.289	135.1
2438.059	130.1
2441.825	131.1
2445.589	135.1
2449.349	124.1
2453.106	131.1
2456.859	128.1
2460.61	125.1
2464.356	123.1
2468.1	124.1
2471.84	115.1
2475.577	113.1
2479.311	116.1
2483.041	124.1
2486.768	113.1
2490.492	117.1
2494.213	114.1
2497.93	116.1
2501.644	117.1
2505.355	102.1
2509.062	111.1
2512.766	105.1
2516.467	110.1
2520.165	106.1
2523.859	108.1
2527.551	103.1
2531.239	96.1
2534.923	97.1
2538.605	96.1
2542.283	86.1
2545.958	94.1
2549.63	92.1
2553.299	90.1
2556.964	82.1
2560.626	91.1
2564.285	94.1
2567.941	83.1
2571.594	86.1
2575.243	91.1
2578.89	85.1
2582.533	81.1
2586.173	84.1
2589.809	81.1
2593.443	87.1
2597.073	82.1
2600.701	79.1
2604.325	69.1
2607.946	71.1
2611.564	79.1
2615.178	75.1
2618.79	73.1
2622.398	75.1
2626.004	67.1
2629.606	69.1
2633.205	68.1
2636.801	70.1
2640.394	72.1
2643.983	64.1
2647.57	65.1
2651.153	66.1
2654.734	66.1
2658.311	66.1
2661.885	67.1
2665.456	78.1
2669.025	69.1
2672.589	59.1
2676.151	64.1
2679.71	59.1
2683.266	70.1
2686.819	67.1
2690.368	67.1
2693.915	63.1
2697.458	56.1
2700.999	60.1
2704.536	64.1
2708.071	54.1
2711.602	54.1
2715.13	47.1
2718.656	55.1
2722.178	52.1
2725.697	47.1
2729.214	49.1
2732.727	53.1
2736.237	54.1
2739.744	45.1
2743.249	44.1
2746.75	42.1
2750.248	41.1
2753.743	43.1
2757.236	38.1
2760.725	38.1
2764.211	34.1
2767.695	33.1
2771.175	35.1
2774.652	40.1
2778.127	32.1
2781.598	33.1
2785.067	26.1
2788.532	31.1
2791.995	30.1
2795.455	33.1
2798.911	31.1
2802.365	39.1
2805.816	34.1
2809.264	37.1
2812.709	30.1
2816.151	35.1
2819.59	43.1
2823.026	40.1
2826.46	37.1
2829.89	49.1
2833.318	33.1
2836.742	41.1
2840.164	36.1
2843.583	35.1
2846.999	41.1
2850.412	36.1
2853.822	39.1
2857.229	36.1
2860.634	35.1
2864.035	36.1
2867.434	43.1
2870.83	45.1
2874.223	45.1
2877.613	41.1
2881	44.1
2884.385	55.1
2887.766	51.1
2891.145	45.1
2894.521	50.1
2897.894	51.1
2901.264	50.1
2904.631	45.1
2907.996	56.1
2911.358	58.1
2914.717	52.1
2918.073	49.1
2921.426	56.1
2924.777	58.1
2928.124	57.1
2931.469	62.1
2934.811	69.1
2938.15	71.1
2941.487	69.1
2944.821	73.1
2948.152	71.1
2951.48	68.1
2954.805	62.1
2958.128	61.1
2961.447	70.1
2964.765	63.1
2968.079	62.1
2971.39	64.1
2974.699	60.1
2978.005	64.1
2981.308	59.1
2984.609	59.1
2987.907	63.1
2991.202	58.1
2994.494	64.1
2997.784	56.1
3001.07	62.1
3004.355	64.1
3007.636	70.1
3010.915	66.1
3014.191	67.1
3017.464	64.1
3020.734	70.1
3024.002	70.1
3027.267	77.1
3030.53	69.1
3033.789	73.1
3037.046	74.1
3040.301	72.1
3043.552	82.1
3046.801	84.1
3050.048	84.1
3053.291	81.1
3056.532	100.1
3059.771	90.1
3063.006	101.1
3066.239	112.1
3069.469	113.1
3072.697	110.1
3075.922	123.1
3079.144	119.1
3082.364	119.1
3085.581	120.1
3088.795	130.1
3092.007	127.1
3095.216	137.1
3098.423	129.1
3101.627	126.1
3104.828	143.1
3108.026	143.1
3111.222	146.1
3114.416	151.1
3117.607	156.1
3120.795	154.1
3123.98	156.1
3127.163	169.1
3130.344	172.1
3133.521	176.1
3136.696	172.1
3139.869	182.1
3143.039	177.1
3146.206	184.1
3149.371	178.1
3152.533	202.1
3155.693	201.1
3158.85	191.1
3162.005	188.1
3165.157	192.1
3168.306	194.1
3171.453	187.1
3174.597	193.1
3177.739	197.1
3180.878	191.1
3184.014	192.1
3187.149	193.1
3190.28	196.1
3193.409	189.1
3196.536	191.1
3199.659	205.1
3202.781	204.1
3205.9	199.1
3209.016	199.1
3212.13	195.1
3215.241	198.1
3218.35	188.1
3221.456	194.1
3224.56	188.1
3227.661	186.1
3230.76	187.1
3233.856	186.1
3236.95	168.1
3240.041	165.1
3243.13	172.1
3246.216	166.1
3249.3	162.1
3252.382	161.1
3255.46	156.1
3258.537	157.1
3261.611	156.1
3264.682	161.1
3267.751	160.1
3270.818	146.1
3273.882	157.1
3276.943	152.1
3280.002	154.1
3283.059	146.1
3286.113	145.1
3289.165	148.1
3292.214	145.1
3295.261	148.1
3298.306	138.1
3301.348	140.1
3304.387	136.1
3307.425	134.1
3310.459	132.1
3313.492	137.1
3316.521	134.1
3319.549	132.1
3322.574	128.1
3325.597	135.1
3328.617	138.1
3331.635	138.1
3334.65	141.1
3337.663	129.1
3340.674	138.1
3343.682	138.1
3346.688	125.1
3349.691	137.1
3352.692	138.1
3355.691	139.1
3358.687	138.1
3361.681	134.1
3364.673	131.1
3367.662	135.1
3370.649	127.1
3373.633	123.1
3376.615	121.1
3379.595	123.1
3382.572	111.1
3385.547	117.1
3388.52	118.1
3391.49	111.1
3394.458	103.1
3397.424	111.1
3400.387	111.1
3403.348	102.1
3406.307	104.1
3409.263	108.1
3412.217	103.1
3415.168	106.1
3418.118	95.1
3421.065	94.1
3424.009	94.1
3426.951	91.1
3429.891	86.1
3432.829	85.1
3435.764	85.1
3438.697	82.1
3441.628	73.1
3444.557	73.1
3447.483	74.1
3450.407	69.1
3453.328	68.1
3456.247	63.1
3459.164	60.1
3462.079	59.1
3464.991	54.1
3467.902	54.1
3470.809	47.1
3473.715	50.1
3476.618	45.1
3479.519	40.1
3482.418	32.1
3485.315	31.1
3488.209	27.1
3491.101	20.1
3493.99	31.1
3496.878	22.1
3499.763	18.1
3502.646	20.1
3505.527	22.1
3508.405	11.1
3511.281	9.1
3514.155	16.1
3517.027	8.1
3519.897	6.1
3522.764	10.1
3525.629	7.1
3528.492	3.1
3531.352	-1.9
3534.211	-2.9
3537.067	-4.9
3539.921	-6.9
3542.773	-15.9
3545.622	-10.9
3548.469	-13.9
3551.315	-8.9
3554.157	-14.9
3556.998	-12.9
3559.837	-14.9
3562.673	-15.9
3565.507	-15.9
3568.339	-11.9
3571.169	-22.9
3573.996	-14.9
3576.822	-24.9
3579.645	-24.9
3582.466	-19.9
3585.285	-23.9
3588.101	-21.9
3590.916	-19.9
3593.728	-23.9
3596.538	-30.9
3599.346	-30.9
3602.152	-30.9
3604.956	-29.9
3607.757	-31.9
3610.556	-26.9
3613.354	-38.9
3616.149	-36.9
3618.942	-29.9
3621.732	-36.9
3624.521	-33.9
3627.307	-29.9
3630.092	-35.9
3632.874	-37.9
3635.654	-36.9
3638.432	-29.9
3641.208	-33.9
3643.982	-30.9
3646.753	-35.9
3649.523	-34.9
3652.29	-39.9
3655.055	-36.9
3657.818	-46.9
3660.579	-43.9
3663.338	-36.9
3666.095	-39.9
3668.849	-38.9
3671.602	-35.9
3674.352	-40.9
3677.101	-40.9
3679.847	-42.9
3682.591	-43.9
3685.333	-39.9
3688.073	-50.9
3690.811	-38.9
3693.547	-48.9
3696.281	-40.9
3699.013	-38.9
3701.742	-44.9
3704.47	-40.9
3707.195	-42.9
3709.919	-46.9
3712.64	-46.9
3715.359	-45.9
3718.076	-51.9
3720.792	-42.9
3723.505	-52.9
3726.216	-43.9
3728.925	-57.9
3731.632	-47.9
3734.336	-47.9
3737.039	-49.9
3739.74	-53.9
3742.439	-53.9
3745.136	-48.9
3747.83	-52.9
3750.523	-56.9
3753.213	-49.9
3755.902	-48.9
3758.589	-50.9
3761.273	-46.9
3763.956	-50.9
3766.636	-46.9
3769.315	-44.9
3771.991	-47.9
3774.665	-51.9
3777.338	-48.9
3780.008	-52.9
3782.677	-56.9
3785.343	-55.9
3788.007	-50.9
3790.67	-51.9
3793.33	-48.9
3795.989	-55.9
3798.645	-55.9
3801.299	-51.9
3803.952	-50.9
3806.602	-55.9
3809.251	-57.9
3811.897	-51.9
3814.542	-54.9
3817.184	-49.9
3819.825	-42.9
3822.463	-51.9
3825.1	-46.9
3827.735	-53.9
3830.367	-50.9
3832.998	-55.9
3835.627	-52.9
3838.253	-48.9
3840.878	-47.9
3843.501	-49.9
3846.122	-57.9
3848.741	-53.9
3851.358	-52.9
3853.973	-46.9
3856.586	-50.9
3859.197	-53.9
3861.806	-52.9
3864.414	-54.9
3867.019	-54.9
3869.622	-48.9
3872.224	-42.9
3874.823	-34.9
3877.421	-32.9
3880.016	-14.9
3882.61	-2.9
3885.202	4.1
3887.792	-9.9
3890.38	-22.9
3892.966	-38.9
3895.55	-41.9
3898.132	-48.9
3900.713	-52.9
3903.291	-54.9
3905.868	-51.9
3908.442	-52.9
3911.015	-48.9
3913.586	-54.9
3916.155	-52.9
3918.722	-53.9
3921.287	-51.9
3923.85	-41.9
3926.411	-55.9
3928.971	-60.9
3931.528	-58.9
3934.084	-50.9
3936.638	-52.9
3939.19	-61.9
3941.74	-48.9
3944.288	-59.9
3946.834	-53.9
3949.378	-53.9
3951.921	-54.9
3954.462	-56.9
3957	-46.9
3959.537	-40.9
3962.072	-47.9
3964.606	-50.9
3967.137	-52.9
3969.667	-50.9
3972.194	-46.9
3974.72	-48.9
3977.244	-44.9
3979.766	-53.9
3982.286	-54.9
3984.805	-61.9
3987.321	-53.9
3989.836	-50.9
3992.349	-53.9
3994.86	-51.9
3997.369	-50.9
3999.877	-53.9
4002.382	-52.9
4004.886	-49.9
4007.388	-54.9
4009.888	-48.9
4012.386	-55.9
4014.883	-49.9
4017.377	-44.9
4019.87	-52.9
4022.361	-54.9
4024.85	-52.9
4027.338	-58.9
4029.823	-54.9
4032.307	-57.9
4034.789	-50.9
4037.269	-53.9
4039.747	-54.9
4042.224	-52.9
4044.699	-55.9
4047.172	-51.9
4049.643	-57.9
4052.112	-53.9
4054.58	-49.9
4057.046	-49.9
4059.51	-51.9
4061.972	-52.9
4064.432	-52.9
4066.891	-49.9
4069.348	-48.9
4071.803	-49.9
4074.256	-48.9
4076.708	-50.9
4079.158	-53.9
4081.606	-53.9
4084.052	-52.9
4086.497	-49.9
4088.939	-48.9
4091.38	-54.9
4093.819	-58.9
4096.257	-50.9
4098.693	-55.9
4101.127	-49.9
4103.559	-57.9
4105.989	4.1
4108.418	2.1
4110.845	-1.9
4113.27	-2.9
4115.694	4.1
4118.115	4.1
4120.535	-55.9
4122.954	-48.9
4125.37	-54.9
4127.785	-50.9
4130.198	-53.9
4132.609	-51.9
4135.019	-55.9
4137.427	-57.9
4139.833	-49.9
4142.237	-53.9
