Data from 2018-3-7_conc=2_n=10_RamanShift_05.txt Node
Date: Wed Mar 07 11:09:52 IST 2018
User: aro
Spectrometer: QEPB0276
Trigger mode: 0
Integration Time (sec): 3.000000E1
Scans to average: 1
Electric dark correction enabled: true
Nonlinearity correction enabled: false
Boxcar width: 0
XAxis mode: Raman Shifts
Number of Pixels in Spectrum: 1044
>>>>>Begin Spectral Data<<<<<
160.701	10.1
166.742	25.1
172.777	46.1
178.805	121.1
184.826	311.1
190.841	662.1
196.849	1078.1
202.85	1390.1
208.845	1549.1
214.833	1540.1
220.815	1540.1
226.789	1529.1
232.758	1548.1
238.719	1531.1
244.674	1540.1
250.623	1551.1
256.565	1524.1
262.5	1506.1
268.429	1507.1
274.351	1496.1
280.267	1499.1
286.176	1495.1
292.079	1502.1
297.975	1501.1
303.865	1515.1
309.748	1498.1
315.625	1509.1
321.495	1499.1
327.359	1512.1
333.217	1500.1
339.068	1526.1
344.912	1509.1
350.751	1523.1
356.583	1545.1
362.408	1531.1
368.227	1535.1
374.04	1533.1
379.847	1547.1
385.647	1553.1
391.44	1568.1
397.228	1579.1
403.009	1575.1
408.784	1578.1
414.553	1593.1
420.315	1591.1
426.071	1600.1
431.821	1602.1
437.565	1609.1
443.302	1576.1
449.033	1604.1
454.758	1578.1
460.477	1595.1
466.189	1553.1
471.896	1523.1
477.596	1533.1
483.29	1518.1
488.978	1524.1
494.66	1494.1
500.335	1473.1
506.005	1421.1
511.668	1359.1
517.325	1292.1
522.977	1250.1
528.622	1209.1
534.261	1180.1
539.894	1152.1
545.521	1133.1
551.141	1132.1
556.756	1123.1
562.365	1101.1
567.968	1092.1
573.565	1093.1
579.155	1066.1
584.74	1085.1
590.319	1081.1
595.892	1082.1
601.459	1099.1
607.02	1069.1
612.575	1065.1
618.124	1046.1
623.667	1032.1
629.204	1009.1
634.735	1003.1
640.261	999.1
645.781	985.1
651.294	982.1
656.802	981.1
662.304	971.1
667.8	981.1
673.29	990.1
678.775	974.1
684.254	984.1
689.726	979.1
695.193	953.1
700.655	957.1
706.11	948.1
711.56	933.1
717.004	929.1
722.442	921.1
727.874	924.1
733.301	932.1
738.722	911.1
744.137	926.1
749.547	914.1
754.951	915.1
760.349	917.1
765.741	928.1
771.128	911.1
776.509	936.1
781.885	955.1
787.254	957.1
792.618	944.1
797.977	940.1
803.33	940.1
808.677	937.1
814.019	928.1
819.355	932.1
824.686	904.1
830.011	919.1
835.33	896.1
840.644	915.1
845.952	905.1
851.255	895.1
856.552	893.1
861.844	870.1
867.13	866.1
872.41	862.1
877.686	864.1
882.955	857.1
888.219	853.1
893.478	829.1
898.731	820.1
903.979	801.1
909.221	801.1
914.458	796.1
919.69	797.1
924.916	795.1
930.136	792.1
935.351	795.1
940.561	796.1
945.766	786.1
950.965	780.1
956.158	785.1
961.347	781.1
966.529	766.1
971.707	750.1
976.879	751.1
982.046	742.1
987.208	740.1
992.364	736.1
997.515	730.1
1002.66	736.1
1007.801	762.1
1012.936	738.1
1018.066	759.1
1023.19	755.1
1028.309	764.1
1033.423	764.1
1038.532	748.1
1043.636	759.1
1048.734	745.1
1053.827	732.1
1058.915	734.1
1063.998	728.1
1069.075	714.1
1074.147	734.1
1079.214	722.1
1084.276	719.1
1089.333	729.1
1094.385	726.1
1099.431	728.1
1104.472	726.1
1109.509	723.1
1114.54	696.1
1119.565	690.1
1124.586	694.1
1129.602	694.1
1134.613	665.1
1139.618	669.1
1144.619	668.1
1149.614	678.1
1154.604	664.1
1159.589	665.1
1164.57	672.1
1169.545	666.1
1174.515	676.1
1179.48	664.1
1184.44	671.1
1189.395	665.1
1194.345	654.1
1199.29	648.1
1204.23	660.1
1209.165	655.1
1214.095	644.1
1219.021	654.1
1223.941	660.1
1228.856	663.1
1233.766	672.1
1238.672	675.1
1243.572	668.1
1248.467	660.1
1253.358	647.1
1258.244	641.1
1263.124	623.1
1268	619.1
1272.871	611.1
1277.737	608.1
1282.599	604.1
1287.455	588.1
1292.306	608.1
1297.153	613.1
1301.995	616.1
1306.832	618.1
1311.664	622.1
1316.491	618.1
1321.314	605.1
1326.132	610.1
1330.945	586.1
1335.753	581.1
1340.556	565.1
1345.354	554.1
1350.148	552.1
1354.937	538.1
1359.722	519.1
1364.501	520.1
1369.276	515.1
1374.046	505.1
1378.811	506.1
1383.572	511.1
1388.327	504.1
1393.079	497.1
1397.825	515.1
1402.567	512.1
1407.304	510.1
1412.036	508.1
1416.764	504.1
1421.487	503.1
1426.205	500.1
1430.919	503.1
1435.628	511.1
1440.333	519.1
1445.032	517.1
1449.727	539.1
1454.418	524.1
1459.104	520.1
1463.785	518.1
1468.462	504.1
1473.134	490.1
1477.802	474.1
1482.465	458.1
1487.123	447.1
1491.777	443.1
1496.426	455.1
1501.071	447.1
1505.711	441.1
1510.347	432.1
1514.978	426.1
1519.604	439.1
1524.226	433.1
1528.844	428.1
1533.457	430.1
1538.065	419.1
1542.669	426.1
1547.269	417.1
1551.864	423.1
1556.454	439.1
1561.041	437.1
1565.622	432.1
1570.199	441.1
1574.772	446.1
1579.34	459.1
1583.904	450.1
1588.464	468.1
1593.019	468.1
1597.569	459.1
1602.115	456.1
1606.657	460.1
1611.195	456.1
1615.728	452.1
1620.256	447.1
1624.78	445.1
1629.3	450.1
1633.816	444.1
1638.327	452.1
1642.834	445.1
1647.336	452.1
1651.834	441.1
1656.328	459.1
1660.817	452.1
1665.302	432.1
1669.783	431.1
1674.259	435.1
1678.732	414.1
1683.199	393.1
1687.663	377.1
1692.122	369.1
1696.577	351.1
1701.028	337.1
1705.474	327.1
1709.917	313.1
1714.355	311.1
1718.788	309.1
1723.218	311.1
1727.643	316.1
1732.064	321.1
1736.481	309.1
1740.893	301.1
1745.301	296.1
1749.705	304.1
1754.105	282.1
1758.501	274.1
1762.893	271.1
1767.28	263.1
1771.663	266.1
1776.042	262.1
1780.417	253.1
1784.787	258.1
1789.154	244.1
1793.516	242.1
1797.874	231.1
1802.228	243.1
1806.578	231.1
1810.924	224.1
1815.266	231.1
1819.603	226.1
1823.937	243.1
1828.266	234.1
1832.591	237.1
1836.913	236.1
1841.23	240.1
1845.543	232.1
1849.852	242.1
1854.156	242.1
1858.457	230.1
1862.754	244.1
1867.047	232.1
1871.335	236.1
1875.62	231.1
1879.9	230.1
1884.177	222.1
1888.449	224.1
1892.718	217.1
1896.982	219.1
1901.243	213.1
1905.499	217.1
1909.752	212.1
1914	207.1
1918.245	198.1
1922.485	200.1
1926.722	193.1
1930.954	189.1
1935.183	200.1
1939.408	192.1
1943.628	184.1
1947.845	189.1
1952.058	195.1
1956.267	191.1
1960.472	184.1
1964.673	174.1
1968.87	182.1
1973.063	191.1
1977.252	181.1
1981.438	184.1
1985.619	179.1
1989.797	181.1
1993.971	179.1
1998.14	183.1
2002.306	183.1
2006.469	187.1
2010.627	181.1
2014.781	180.1
2018.932	176.1
2023.078	179.1
2027.221	177.1
2031.36	185.1
2035.495	167.1
2039.627	169.1
2043.754	169.1
2047.878	170.1
2051.998	170.1
2056.114	166.1
2060.226	161.1
2064.334	157.1
2068.439	155.1
2072.54	156.1
2076.637	159.1
2080.73	161.1
2084.82	153.1
2088.906	155.1
2092.988	154.1
2097.066	153.1
2101.14	152.1
2105.211	153.1
2109.278	150.1
2113.342	138.1
2117.401	142.1
2121.457	138.1
2125.509	142.1
2129.558	134.1
2133.602	136.1
2137.643	139.1
2141.681	134.1
2145.714	134.1
2149.744	142.1
2153.77	144.1
2157.793	139.1
2161.812	140.1
2165.827	143.1
2169.838	134.1
2173.846	140.1
2177.851	132.1
2181.851	128.1
2185.848	125.1
2189.841	128.1
2193.831	112.1
2197.817	125.1
2201.799	124.1
2205.778	124.1
2209.753	131.1
2213.725	125.1
2217.693	131.1
2221.657	131.1
2225.618	122.1
2229.575	115.1
2233.529	114.1
2237.479	122.1
2241.425	111.1
2245.368	119.1
2249.307	114.1
2253.243	111.1
2257.175	103.1
2261.104	102.1
2265.029	110.1
2268.95	117.1
2272.868	103.1
2276.783	101.1
2280.694	105.1
2284.601	97.1
2288.505	104.1
2292.405	103.1
2296.302	105.1
2300.195	94.1
2304.085	91.1
2307.971	94.1
2311.854	94.1
2315.734	84.1
2319.609	100.1
2323.482	97.1
2327.351	97.1
2331.216	96.1
2335.078	113.1
2338.937	107.1
2342.792	97.1
2346.643	95.1
2350.492	94.1
2354.336	96.1
2358.178	84.1
2362.015	90.1
2365.85	87.1
2369.681	89.1
2373.508	92.1
2377.333	96.1
2381.153	92.1
2384.971	88.1
2388.785	87.1
2392.595	90.1
2396.402	87.1
2400.206	93.1
2404.007	87.1
2407.804	86.1
2411.597	86.1
2415.388	84.1
2419.174	93.1
2422.958	82.1
2426.738	85.1
2430.515	81.1
2434.289	82.1
2438.059	81.1
2441.825	79.1
2445.589	79.1
2449.349	71.1
2453.106	85.1
2456.859	73.1
2460.61	73.1
2464.356	77.1
2468.1	69.1
2471.84	65.1
2475.577	67.1
2479.311	68.1
2483.041	70.1
2486.768	67.1
2490.492	69.1
2494.213	68.1
2497.93	67.1
2501.644	71.1
2505.355	61.1
2509.062	67.1
2512.766	56.1
2516.467	61.1
2520.165	61.1
2523.859	62.1
2527.551	62.1
2531.239	60.1
2534.923	56.1
2538.605	61.1
2542.283	52.1
2545.958	53.1
2549.63	55.1
2553.299	52.1
2556.964	51.1
2560.626	55.1
2564.285	51.1
2567.941	41.1
2571.594	46.1
2575.243	49.1
2578.89	52.1
2582.533	44.1
2586.173	45.1
2589.809	50.1
2593.443	53.1
2597.073	44.1
2600.701	47.1
2604.325	43.1
2607.946	37.1
2611.564	41.1
2615.178	42.1
2618.79	36.1
2622.398	40.1
2626.004	43.1
2629.606	41.1
2633.205	41.1
2636.801	40.1
2640.394	47.1
2643.983	43.1
2647.57	37.1
2651.153	30.1
2654.734	34.1
2658.311	40.1
2661.885	39.1
2665.456	39.1
2669.025	37.1
2672.589	34.1
2676.151	39.1
2679.71	32.1
2683.266	34.1
2686.819	39.1
2690.368	31.1
2693.915	31.1
2697.458	24.1
2700.999	31.1
2704.536	32.1
2708.071	30.1
2711.602	22.1
2715.13	14.1
2718.656	21.1
2722.178	26.1
2725.697	24.1
2729.214	23.1
2732.727	30.1
2736.237	25.1
2739.744	25.1
2743.249	22.1
2746.75	23.1
2750.248	20.1
2753.743	15.1
2757.236	17.1
2760.725	21.1
2764.211	11.1
2767.695	12.1
2771.175	11.1
2774.652	15.1
2778.127	16.1
2781.598	20.1
2785.067	13.1
2788.532	16.1
2791.995	18.1
2795.455	16.1
2798.911	14.1
2802.365	17.1
2805.816	18.1
2809.264	16.1
2812.709	10.1
2816.151	19.1
2819.59	23.1
2823.026	19.1
2826.46	16.1
2829.89	22.1
2833.318	19.1
2836.742	20.1
2840.164	18.1
2843.583	11.1
2846.999	23.1
2850.412	16.1
2853.822	15.1
2857.229	17.1
2860.634	8.1
2864.035	5.1
2867.434	13.1
2870.83	24.1
2874.223	22.1
2877.613	22.1
2881	27.1
2884.385	31.1
2887.766	25.1
2891.145	25.1
2894.521	29.1
2897.894	31.1
2901.264	29.1
2904.631	20.1
2907.996	22.1
2911.358	32.1
2914.717	22.1
2918.073	32.1
2921.426	32.1
2924.777	32.1
2928.124	37.1
2931.469	32.1
2934.811	41.1
2938.15	40.1
2941.487	44.1
2944.821	34.1
2948.152	38.1
2951.48	36.1
2954.805	35.1
2958.128	36.1
2961.447	36.1
2964.765	34.1
2968.079	34.1
2971.39	32.1
2974.699	33.1
2978.005	36.1
2981.308	23.1
2984.609	25.1
2987.907	28.1
2991.202	33.1
2994.494	28.1
2997.784	21.1
3001.07	32.1
3004.355	32.1
3007.636	36.1
3010.915	36.1
3014.191	35.1
3017.464	37.1
3020.734	39.1
3024.002	42.1
3027.267	38.1
3030.53	35.1
3033.789	40.1
3037.046	42.1
3040.301	42.1
3043.552	47.1
3046.801	47.1
3050.048	41.1
3053.291	47.1
3056.532	50.1
3059.771	50.1
3063.006	55.1
3066.239	56.1
3069.469	63.1
3072.697	62.1
3075.922	70.1
3079.144	60.1
3082.364	63.1
3085.581	63.1
3088.795	71.1
3092.007	77.1
3095.216	80.1
3098.423	78.1
3101.627	80.1
3104.828	91.1
3108.026	86.1
3111.222	88.1
3114.416	93.1
3117.607	89.1
3120.795	89.1
3123.98	93.1
3127.163	105.1
3130.344	93.1
3133.521	101.1
3136.696	101.1
3139.869	111.1
3143.039	112.1
3146.206	109.1
3149.371	106.1
3152.533	118.1
3155.693	124.1
3158.85	119.1
3162.005	121.1
3165.157	118.1
3168.306	115.1
3171.453	121.1
3174.597	112.1
3177.739	119.1
3180.878	124.1
3184.014	111.1
3187.149	117.1
3190.28	116.1
3193.409	126.1
3196.536	114.1
3199.659	117.1
3202.781	119.1
3205.9	109.1
3209.016	119.1
3212.13	117.1
3215.241	118.1
3218.35	115.1
3221.456	117.1
3224.56	118.1
3227.661	111.1
3230.76	111.1
3233.856	111.1
3236.95	102.1
3240.041	105.1
3243.13	108.1
3246.216	91.1
3249.3	98.1
3252.382	98.1
3255.46	101.1
3258.537	103.1
3261.611	89.1
3264.682	98.1
3267.751	92.1
3270.818	83.1
3273.882	93.1
3276.943	89.1
3280.002	83.1
3283.059	90.1
3286.113	88.1
3289.165	74.1
3292.214	89.1
3295.261	81.1
3298.306	91.1
3301.348	89.1
3304.387	86.1
3307.425	81.1
3310.459	73.1
3313.492	81.1
3316.521	81.1
3319.549	81.1
3322.574	71.1
3325.597	72.1
3328.617	77.1
3331.635	76.1
3334.65	80.1
3337.663	75.1
3340.674	78.1
3343.682	81.1
3346.688	76.1
3349.691	80.1
3352.692	75.1
3355.691	83.1
3358.687	71.1
3361.681	71.1
3364.673	76.1
3367.662	77.1
3370.649	74.1
3373.633	65.1
3376.615	74.1
3379.595	62.1
3382.572	62.1
3385.547	70.1
3388.52	60.1
3391.49	57.1
3394.458	60.1
3397.424	56.1
3400.387	62.1
3403.348	50.1
3406.307	52.1
3409.263	52.1
3412.217	53.1
3415.168	55.1
3418.118	53.1
3421.065	57.1
3424.009	49.1
3426.951	47.1
3429.891	47.1
3432.829	46.1
3435.764	44.1
3438.697	44.1
3441.628	32.1
3444.557	38.1
3447.483	40.1
3450.407	33.1
3453.328	31.1
3456.247	30.1
3459.164	33.1
3462.079	24.1
3464.991	27.1
3467.902	24.1
3470.809	20.1
3473.715	22.1
3476.618	18.1
3479.519	10.1
3482.418	11.1
3485.315	13.1
3488.209	3.1
3491.101	4.1
3493.99	8.1
3496.878	10.1
3499.763	0.1
3502.646	4.1
3505.527	4.1
3508.405	1.1
3511.281	2.1
3514.155	-2.9
3517.027	-6.9
3519.897	-10.9
3522.764	-6.9
3525.629	-5.9
3528.492	-8.9
3531.352	-16.9
3534.211	-16.9
3537.067	-18.9
3539.921	-17.9
3542.773	-17.9
3545.622	-16.9
3548.469	-5.9
3551.315	-17.9
3554.157	-18.9
3556.998	-19.9
3559.837	-18.9
3562.673	-19.9
3565.507	-25.9
3568.339	-20.9
3571.169	-26.9
3573.996	-22.9
3576.822	-36.9
3579.645	-27.9
3582.466	-28.9
3585.285	-23.9
3588.101	-30.9
3590.916	-18.9
3593.728	-30.9
3596.538	-29.9
3599.346	-30.9
3602.152	-30.9
3604.956	-29.9
3607.757	-23.9
3610.556	-29.9
3613.354	-32.9
3616.149	-36.9
3618.942	-32.9
3621.732	-29.9
3624.521	-31.9
3627.307	-29.9
3630.092	-33.9
3632.874	-35.9
3635.654	-32.9
3638.432	-34.9
3641.208	-36.9
3643.982	-28.9
3646.753	-37.9
3649.523	-35.9
3652.29	-38.9
3655.055	-41.9
3657.818	-40.9
3660.579	-40.9
3663.338	-36.9
3666.095	-38.9
3668.849	-40.9
3671.602	-34.9
3674.352	-32.9
3677.101	-36.9
3679.847	-34.9
3682.591	-43.9
3685.333	-36.9
3688.073	-43.9
3690.811	-37.9
3693.547	-45.9
3696.281	-40.9
3699.013	-38.9
3701.742	-43.9
3704.47	-33.9
3707.195	-39.9
3709.919	-41.9
3712.64	-37.9
3715.359	-44.9
3718.076	-44.9
3720.792	-41.9
3723.505	-39.9
3726.216	-38.9
3728.925	-50.9
3731.632	-41.9
3734.336	-45.9
3737.039	-38.9
3739.74	-44.9
3742.439	-46.9
3745.136	-43.9
3747.83	-41.9
3750.523	-44.9
3753.213	-56.9
3755.902	-45.9
3758.589	-47.9
3761.273	-43.9
3763.956	-46.9
3766.636	-42.9
3769.315	-40.9
3771.991	-44.9
3774.665	-46.9
3777.338	-39.9
3780.008	-42.9
3782.677	-46.9
3785.343	-44.9
3788.007	-45.9
3790.67	-43.9
3793.33	-42.9
3795.989	-44.9
3798.645	-47.9
3801.299	-44.9
3803.952	-42.9
3806.602	-46.9
3809.251	-49.9
3811.897	-48.9
3814.542	-53.9
3817.184	-44.9
3819.825	-40.9
3822.463	-40.9
3825.1	-44.9
3827.735	-50.9
3830.367	-45.9
3832.998	-51.9
3835.627	-51.9
3838.253	-43.9
3840.878	-44.9
3843.501	-43.9
3846.122	-50.9
3848.741	-45.9
3851.358	-46.9
3853.973	-43.9
3856.586	-40.9
3859.197	-43.9
3861.806	-48.9
3864.414	-47.9
3867.019	-44.9
3869.622	-40.9
3872.224	-41.9
3874.823	-28.9
3877.421	-19.9
3880.016	-6.9
3882.61	16.1
3885.202	11.1
3887.792	7.1
3890.38	-11.9
3892.966	-32.9
3895.55	-40.9
3898.132	-41.9
3900.713	-39.9
3903.291	-51.9
3905.868	-39.9
3908.442	-47.9
3911.015	-44.9
3913.586	-47.9
3916.155	-46.9
3918.722	-47.9
3921.287	-50.9
3923.85	-39.9
3926.411	-47.9
3928.971	-49.9
3931.528	-46.9
3934.084	-39.9
3936.638	-43.9
3939.19	-52.9
3941.74	-43.9
3944.288	-46.9
3946.834	-46.9
3949.378	-46.9
3951.921	-49.9
3954.462	-50.9
3957	-35.9
3959.537	-34.9
3962.072	-41.9
3964.606	-41.9
3967.137	-42.9
3969.667	-50.9
3972.194	-46.9
3974.72	-43.9
3977.244	-44.9
3979.766	-48.9
3982.286	-46.9
3984.805	-55.9
3987.321	-44.9
3989.836	-43.9
3992.349	-44.9
3994.86	-39.9
3997.369	-44.9
3999.877	-45.9
4002.382	-44.9
4004.886	-47.9
4007.388	-46.9
4009.888	-44.9
4012.386	-52.9
4014.883	-48.9
4017.377	-40.9
4019.87	-44.9
4022.361	-49.9
4024.85	-42.9
4027.338	-42.9
4029.823	-48.9
4032.307	-44.9
4034.789	-39.9
4037.269	-45.9
4039.747	-44.9
4042.224	-48.9
4044.699	-51.9
4047.172	-48.9
4049.643	-50.9
4052.112	-47.9
4054.58	-50.9
4057.046	-39.9
4059.51	-51.9
4061.972	-48.9
4064.432	-44.9
4066.891	-40.9
4069.348	-41.9
4071.803	-43.9
4074.256	-44.9
4076.708	-49.9
4079.158	-51.9
4081.606	-44.9
4084.052	-44.9
4086.497	-43.9
4088.939	-43.9
4091.38	-50.9
4093.819	-45.9
4096.257	-49.9
4098.693	-47.9
4101.127	-41.9
4103.559	-49.9
4105.989	23.1
4108.418	23.1
4110.845	18.1
4113.27	18.1
4115.694	15.1
4118.115	17.1
4120.535	-42.9
4122.954	-43.9
4125.37	-46.9
4127.785	-40.9
4130.198	-40.9
4132.609	-48.9
4135.019	-50.9
4137.427	-51.9
4139.833	-49.9
4142.237	-49.9
