Data from 2018-3-7_conc=2_n=10_RamanShift_03.txt Node
Date: Wed Mar 07 11:08:52 IST 2018
User: aro
Spectrometer: QEPB0276
Trigger mode: 0
Integration Time (sec): 3.000000E1
Scans to average: 1
Electric dark correction enabled: true
Nonlinearity correction enabled: false
Boxcar width: 0
XAxis mode: Raman Shifts
Number of Pixels in Spectrum: 1044
>>>>>Begin Spectral Data<<<<<
160.701	15.6
166.742	25.6
172.777	46.6
178.805	129.6
184.826	342.6
190.841	723.6
196.849	1214.6
202.85	1561.6
208.845	1698.6
214.833	1704.6
220.815	1684.6
226.789	1687.6
232.758	1704.6
238.719	1715.6
244.674	1690.6
250.623	1695.6
256.565	1683.6
262.5	1654.6
268.429	1649.6
274.351	1644.6
280.267	1643.6
286.176	1629.6
292.079	1654.6
297.975	1626.6
303.865	1662.6
309.748	1638.6
315.625	1630.6
321.495	1658.6
327.359	1658.6
333.217	1660.6
339.068	1666.6
344.912	1684.6
350.751	1665.6
356.583	1677.6
362.408	1661.6
368.227	1694.6
374.04	1704.6
379.847	1677.6
385.647	1722.6
391.44	1705.6
397.228	1719.6
403.009	1737.6
408.784	1726.6
414.553	1755.6
420.315	1736.6
426.071	1756.6
431.821	1755.6
437.565	1751.6
443.302	1738.6
449.033	1738.6
454.758	1738.6
460.477	1716.6
466.189	1712.6
471.896	1682.6
477.596	1680.6
483.29	1674.6
488.978	1674.6
494.66	1654.6
500.335	1626.6
506.005	1543.6
511.668	1493.6
517.325	1423.6
522.977	1364.6
528.622	1325.6
534.261	1308.6
539.894	1291.6
545.521	1273.6
551.141	1258.6
556.756	1235.6
562.365	1251.6
567.968	1216.6
573.565	1201.6
579.155	1200.6
584.74	1211.6
590.319	1195.6
595.892	1193.6
601.459	1182.6
607.02	1194.6
612.575	1173.6
618.124	1161.6
623.667	1150.6
629.204	1129.6
634.735	1132.6
640.261	1120.6
645.781	1105.6
651.294	1116.6
656.802	1092.6
662.304	1094.6
667.8	1109.6
673.29	1109.6
678.775	1084.6
684.254	1071.6
689.726	1074.6
695.193	1070.6
700.655	1070.6
706.11	1052.6
711.56	1049.6
717.004	1043.6
722.442	1032.6
727.874	1028.6
733.301	1031.6
738.722	1039.6
744.137	1021.6
749.547	1033.6
754.951	1017.6
760.349	1010.6
765.741	1013.6
771.128	1016.6
776.509	1050.6
781.885	1054.6
787.254	1063.6
792.618	1070.6
797.977	1050.6
803.33	1051.6
808.677	1043.6
814.019	1037.6
819.355	1030.6
824.686	1029.6
830.011	1001.6
835.33	1007.6
840.644	991.6
845.952	1001.6
851.255	993.6
856.552	995.6
861.844	977.6
867.13	969.6
872.41	963.6
877.686	955.6
882.955	951.6
888.219	946.6
893.478	921.6
898.731	910.6
903.979	893.6
909.221	892.6
914.458	896.6
919.69	904.6
924.916	878.6
930.136	882.6
935.351	889.6
940.561	895.6
945.766	877.6
950.965	892.6
956.158	888.6
961.347	876.6
966.529	877.6
971.707	842.6
976.879	822.6
982.046	829.6
987.208	832.6
992.364	812.6
997.515	814.6
1002.66	828.6
1007.801	849.6
1012.936	842.6
1018.066	864.6
1023.19	856.6
1028.309	864.6
1033.423	856.6
1038.532	852.6
1043.636	840.6
1048.734	832.6
1053.827	829.6
1058.915	813.6
1063.998	809.6
1069.075	798.6
1074.147	806.6
1079.214	831.6
1084.276	809.6
1089.333	836.6
1094.385	810.6
1099.431	821.6
1104.472	818.6
1109.509	801.6
1114.54	783.6
1119.565	776.6
1124.586	777.6
1129.602	746.6
1134.613	757.6
1139.618	748.6
1144.619	747.6
1149.614	754.6
1154.604	759.6
1159.589	747.6
1164.57	758.6
1169.545	754.6
1174.515	768.6
1179.48	750.6
1184.44	748.6
1189.395	743.6
1194.345	730.6
1199.29	734.6
1204.23	737.6
1209.165	731.6
1214.095	740.6
1219.021	748.6
1223.941	744.6
1228.856	744.6
1233.766	751.6
1238.672	758.6
1243.572	747.6
1248.467	735.6
1253.358	735.6
1258.244	728.6
1263.124	699.6
1268	695.6
1272.871	684.6
1277.737	679.6
1282.599	677.6
1287.455	674.6
1292.306	664.6
1297.153	689.6
1301.995	685.6
1306.832	688.6
1311.664	692.6
1316.491	690.6
1321.314	692.6
1326.132	687.6
1330.945	673.6
1335.753	640.6
1340.556	643.6
1345.354	637.6
1350.148	627.6
1354.937	610.6
1359.722	599.6
1364.501	574.6
1369.276	572.6
1374.046	571.6
1378.811	575.6
1383.572	575.6
1388.327	560.6
1393.079	565.6
1397.825	567.6
1402.567	568.6
1407.304	568.6
1412.036	563.6
1416.764	578.6
1421.487	572.6
1426.205	568.6
1430.919	561.6
1435.628	578.6
1440.333	583.6
1445.032	576.6
1449.727	597.6
1454.418	597.6
1459.104	597.6
1463.785	572.6
1468.462	563.6
1473.134	552.6
1477.802	539.6
1482.465	527.6
1487.123	516.6
1491.777	499.6
1496.426	492.6
1501.071	491.6
1505.711	490.6
1510.347	488.6
1514.978	477.6
1519.604	487.6
1524.226	490.6
1528.844	475.6
1533.457	464.6
1538.065	468.6
1542.669	470.6
1547.269	464.6
1551.864	470.6
1556.454	487.6
1561.041	490.6
1565.622	495.6
1570.199	493.6
1574.772	498.6
1579.34	510.6
1583.904	500.6
1588.464	517.6
1593.019	519.6
1597.569	510.6
1602.115	516.6
1606.657	514.6
1611.195	506.6
1615.728	500.6
1620.256	497.6
1624.78	506.6
1629.3	505.6
1633.816	512.6
1638.327	510.6
1642.834	503.6
1647.336	507.6
1651.834	510.6
1656.328	508.6
1660.817	500.6
1665.302	484.6
1669.783	493.6
1674.259	471.6
1678.732	460.6
1683.199	424.6
1687.663	429.6
1692.122	402.6
1696.577	391.6
1701.028	384.6
1705.474	361.6
1709.917	358.6
1714.355	344.6
1718.788	346.6
1723.218	342.6
1727.643	342.6
1732.064	341.6
1736.481	347.6
1740.893	330.6
1745.301	327.6
1749.705	316.6
1754.105	311.6
1758.501	306.6
1762.893	298.6
1767.28	299.6
1771.663	295.6
1776.042	292.6
1780.417	281.6
1784.787	281.6
1789.154	271.6
1793.516	252.6
1797.874	258.6
1802.228	263.6
1806.578	249.6
1810.924	250.6
1815.266	252.6
1819.603	265.6
1823.937	263.6
1828.266	267.6
1832.591	261.6
1836.913	259.6
1841.23	259.6
1845.543	249.6
1849.852	260.6
1854.156	260.6
1858.457	257.6
1862.754	266.6
1867.047	263.6
1871.335	268.6
1875.62	254.6
1879.9	262.6
1884.177	253.6
1888.449	243.6
1892.718	254.6
1896.982	240.6
1901.243	235.6
1905.499	235.6
1909.752	223.6
1914	220.6
1918.245	224.6
1922.485	216.6
1926.722	218.6
1930.954	217.6
1935.183	214.6
1939.408	218.6
1943.628	209.6
1947.845	211.6
1952.058	203.6
1956.267	201.6
1960.472	199.6
1964.673	191.6
1968.87	195.6
1973.063	197.6
1977.252	202.6
1981.438	199.6
1985.619	199.6
1989.797	204.6
1993.971	200.6
1998.14	205.6
2002.306	201.6
2006.469	210.6
2010.627	199.6
2014.781	200.6
2018.932	195.6
2023.078	202.6
2027.221	193.6
2031.36	194.6
2035.495	191.6
2039.627	179.6
2043.754	194.6
2047.878	181.6
2051.998	187.6
2056.114	184.6
2060.226	178.6
2064.334	180.6
2068.439	165.6
2072.54	174.6
2076.637	167.6
2080.73	173.6
2084.82	170.6
2088.906	166.6
2092.988	175.6
2097.066	166.6
2101.14	169.6
2105.211	162.6
2109.278	166.6
2113.342	154.6
2117.401	159.6
2121.457	157.6
2125.509	152.6
2129.558	145.6
2133.602	151.6
2137.643	154.6
2141.681	145.6
2145.714	155.6
2149.744	154.6
2153.77	160.6
2157.793	159.6
2161.812	165.6
2165.827	150.6
2169.838	144.6
2173.846	147.6
2177.851	141.6
2181.851	141.6
2185.848	143.6
2189.841	134.6
2193.831	134.6
2197.817	141.6
2201.799	137.6
2205.778	138.6
2209.753	138.6
2213.725	137.6
2217.693	144.6
2221.657	141.6
2225.618	134.6
2229.575	137.6
2233.529	127.6
2237.479	141.6
2241.425	119.6
2245.368	128.6
2249.307	131.6
2253.243	124.6
2257.175	128.6
2261.104	114.6
2265.029	123.6
2268.95	117.6
2272.868	122.6
2276.783	118.6
2280.694	105.6
2284.601	104.6
2288.505	111.6
2292.405	113.6
2296.302	113.6
2300.195	108.6
2304.085	101.6
2307.971	101.6
2311.854	104.6
2315.734	96.6
2319.609	112.6
2323.482	101.6
2327.351	107.6
2331.216	107.6
2335.078	128.6
2338.937	110.6
2342.792	103.6
2346.643	106.6
2350.492	95.6
2354.336	102.6
2358.178	94.6
2362.015	111.6
2365.85	104.6
2369.681	102.6
2373.508	110.6
2377.333	109.6
2381.153	109.6
2384.971	97.6
2388.785	91.6
2392.595	97.6
2396.402	100.6
2400.206	90.6
2404.007	95.6
2407.804	93.6
2411.597	90.6
2415.388	101.6
2419.174	103.6
2422.958	92.6
2426.738	97.6
2430.515	94.6
2434.289	97.6
2438.059	92.6
2441.825	83.6
2445.589	86.6
2449.349	88.6
2453.106	85.6
2456.859	79.6
2460.61	86.6
2464.356	81.6
2468.1	87.6
2471.84	78.6
2475.577	78.6
2479.311	73.6
2483.041	84.6
2486.768	74.6
2490.492	74.6
2494.213	80.6
2497.93	76.6
2501.644	78.6
2505.355	71.6
2509.062	75.6
2512.766	70.6
2516.467	67.6
2520.165	67.6
2523.859	73.6
2527.551	65.6
2531.239	71.6
2534.923	65.6
2538.605	63.6
2542.283	55.6
2545.958	63.6
2549.63	57.6
2553.299	56.6
2556.964	54.6
2560.626	57.6
2564.285	57.6
2567.941	55.6
2571.594	54.6
2575.243	56.6
2578.89	47.6
2582.533	47.6
2586.173	49.6
2589.809	51.6
2593.443	50.6
2597.073	51.6
2600.701	50.6
2604.325	42.6
2607.946	40.6
2611.564	47.6
2615.178	54.6
2618.79	49.6
2622.398	47.6
2626.004	43.6
2629.606	44.6
2633.205	36.6
2636.801	49.6
2640.394	49.6
2643.983	46.6
2647.57	38.6
2651.153	40.6
2654.734	36.6
2658.311	39.6
2661.885	48.6
2665.456	44.6
2669.025	43.6
2672.589	32.6
2676.151	35.6
2679.71	35.6
2683.266	34.6
2686.819	38.6
2690.368	44.6
2693.915	41.6
2697.458	29.6
2700.999	37.6
2704.536	37.6
2708.071	37.6
2711.602	29.6
2715.13	24.6
2718.656	30.6
2722.178	21.6
2725.697	29.6
2729.214	22.6
2732.727	26.6
2736.237	26.6
2739.744	21.6
2743.249	30.6
2746.75	24.6
2750.248	16.6
2753.743	17.6
2757.236	21.6
2760.725	19.6
2764.211	20.6
2767.695	12.6
2771.175	9.6
2774.652	14.6
2778.127	10.6
2781.598	11.6
2785.067	15.6
2788.532	11.6
2791.995	16.6
2795.455	12.6
2798.911	14.6
2802.365	17.6
2805.816	14.6
2809.264	18.6
2812.709	15.6
2816.151	20.6
2819.59	30.6
2823.026	20.6
2826.46	24.6
2829.89	16.6
2833.318	12.6
2836.742	19.6
2840.164	13.6
2843.583	11.6
2846.999	23.6
2850.412	20.6
2853.822	19.6
2857.229	23.6
2860.634	17.6
2864.035	16.6
2867.434	18.6
2870.83	27.6
2874.223	21.6
2877.613	21.6
2881	20.6
2884.385	32.6
2887.766	23.6
2891.145	28.6
2894.521	30.6
2897.894	26.6
2901.264	35.6
2904.631	23.6
2907.996	33.6
2911.358	33.6
2914.717	29.6
2918.073	32.6
2921.426	24.6
2924.777	35.6
2928.124	32.6
2931.469	37.6
2934.811	39.6
2938.15	46.6
2941.487	44.6
2944.821	46.6
2948.152	44.6
2951.48	40.6
2954.805	46.6
2958.128	35.6
2961.447	44.6
2964.765	37.6
2968.079	33.6
2971.39	33.6
2974.699	30.6
2978.005	38.6
2981.308	30.6
2984.609	33.6
2987.907	34.6
2991.202	37.6
2994.494	35.6
2997.784	29.6
3001.07	33.6
3004.355	38.6
3007.636	39.6
3010.915	37.6
3014.191	35.6
3017.464	36.6
3020.734	42.6
3024.002	48.6
3027.267	44.6
3030.53	42.6
3033.789	44.6
3037.046	41.6
3040.301	45.6
3043.552	50.6
3046.801	53.6
3050.048	58.6
3053.291	51.6
3056.532	55.6
3059.771	55.6
3063.006	62.6
3066.239	68.6
3069.469	66.6
3072.697	73.6
3075.922	83.6
3079.144	72.6
3082.364	78.6
3085.581	86.6
3088.795	81.6
3092.007	93.6
3095.216	87.6
3098.423	89.6
3101.627	79.6
3104.828	92.6
3108.026	95.6
3111.222	100.6
3114.416	95.6
3117.607	102.6
3120.795	104.6
3123.98	106.6
3127.163	117.6
3130.344	112.6
3133.521	121.6
3136.696	122.6
3139.869	127.6
3143.039	119.6
3146.206	127.6
3149.371	121.6
3152.533	133.6
3155.693	135.6
3158.85	130.6
3162.005	131.6
3165.157	128.6
3168.306	127.6
3171.453	132.6
3174.597	138.6
3177.739	140.6
3180.878	140.6
3184.014	126.6
3187.149	129.6
3190.28	134.6
3193.409	134.6
3196.536	128.6
3199.659	136.6
3202.781	136.6
3205.9	130.6
3209.016	138.6
3212.13	136.6
3215.241	137.6
3218.35	135.6
3221.456	133.6
3224.56	124.6
3227.661	124.6
3230.76	126.6
3233.856	126.6
3236.95	115.6
3240.041	119.6
3243.13	119.6
3246.216	109.6
3249.3	104.6
3252.382	111.6
3255.46	107.6
3258.537	111.6
3261.611	99.6
3264.682	103.6
3267.751	97.6
3270.818	96.6
3273.882	103.6
3276.943	89.6
3280.002	102.6
3283.059	96.6
3286.113	98.6
3289.165	93.6
3292.214	96.6
3295.261	97.6
3298.306	96.6
3301.348	93.6
3304.387	90.6
3307.425	89.6
3310.459	80.6
3313.492	85.6
3316.521	85.6
3319.549	87.6
3322.574	86.6
3325.597	78.6
3328.617	83.6
3331.635	90.6
3334.65	94.6
3337.663	76.6
3340.674	92.6
3343.682	89.6
3346.688	82.6
3349.691	87.6
3352.692	84.6
3355.691	91.6
3358.687	79.6
3361.681	85.6
3364.673	76.6
3367.662	87.6
3370.649	85.6
3373.633	80.6
3376.615	80.6
3379.595	74.6
3382.572	71.6
3385.547	74.6
3388.52	76.6
3391.49	68.6
3394.458	63.6
3397.424	63.6
3400.387	67.6
3403.348	58.6
3406.307	64.6
3409.263	64.6
3412.217	59.6
3415.168	67.6
3418.118	63.6
3421.065	61.6
3424.009	53.6
3426.951	51.6
3429.891	50.6
3432.829	49.6
3435.764	53.6
3438.697	50.6
3441.628	42.6
3444.557	47.6
3447.483	38.6
3450.407	30.6
3453.328	39.6
3456.247	33.6
3459.164	31.6
3462.079	26.6
3464.991	29.6
3467.902	25.6
3470.809	23.6
3473.715	19.6
3476.618	17.6
3479.519	11.6
3482.418	13.6
3485.315	10.6
3488.209	7.6
3491.101	5.6
3493.99	10.6
3496.878	8.6
3499.763	-0.4
3502.646	1.6
3505.527	3.6
3508.405	-3.4
3511.281	0.6
3514.155	-4.4
3517.027	-10.4
3519.897	-9.4
3522.764	-11.4
3525.629	-10.4
3528.492	-13.4
3531.352	-15.4
3534.211	-15.4
3537.067	-16.4
3539.921	-9.4
3542.773	-20.4
3545.622	-19.4
3548.469	-17.4
3551.315	-19.4
3554.157	-20.4
3556.998	-20.4
3559.837	-30.4
3562.673	-27.4
3565.507	-27.4
3568.339	-22.4
3571.169	-29.4
3573.996	-28.4
3576.822	-35.4
3579.645	-33.4
3582.466	-29.4
3585.285	-31.4
3588.101	-34.4
3590.916	-29.4
3593.728	-40.4
3596.538	-33.4
3599.346	-33.4
3602.152	-34.4
3604.956	-33.4
3607.757	-28.4
3610.556	-32.4
3613.354	-39.4
3616.149	-40.4
3618.942	-35.4
3621.732	-34.4
3624.521	-36.4
3627.307	-35.4
3630.092	-45.4
3632.874	-41.4
3635.654	-45.4
3638.432	-45.4
3641.208	-41.4
3643.982	-40.4
3646.753	-43.4
3649.523	-34.4
3652.29	-42.4
3655.055	-38.4
3657.818	-46.4
3660.579	-42.4
3663.338	-43.4
3666.095	-42.4
3668.849	-46.4
3671.602	-45.4
3674.352	-44.4
3677.101	-46.4
3679.847	-47.4
3682.591	-49.4
3685.333	-48.4
3688.073	-52.4
3690.811	-41.4
3693.547	-47.4
3696.281	-41.4
3699.013	-48.4
3701.742	-51.4
3704.47	-37.4
3707.195	-46.4
3709.919	-52.4
3712.64	-51.4
3715.359	-48.4
3718.076	-54.4
3720.792	-50.4
3723.505	-50.4
3726.216	-42.4
3728.925	-51.4
3731.632	-44.4
3734.336	-46.4
3737.039	-43.4
3739.74	-50.4
3742.439	-51.4
3745.136	-59.4
3747.83	-47.4
3750.523	-54.4
3753.213	-64.4
3755.902	-52.4
3758.589	-53.4
3761.273	-52.4
3763.956	-56.4
3766.636	-46.4
3769.315	-46.4
3771.991	-50.4
3774.665	-55.4
3777.338	-48.4
3780.008	-50.4
3782.677	-54.4
3785.343	-55.4
3788.007	-51.4
3790.67	-52.4
3793.33	-53.4
3795.989	-55.4
3798.645	-55.4
3801.299	-56.4
3803.952	-52.4
3806.602	-54.4
3809.251	-57.4
3811.897	-53.4
3814.542	-60.4
3817.184	-49.4
3819.825	-48.4
3822.463	-51.4
3825.1	-49.4
3827.735	-58.4
3830.367	-54.4
3832.998	-56.4
3835.627	-55.4
3838.253	-48.4
3840.878	-54.4
3843.501	-47.4
3846.122	-54.4
3848.741	-56.4
3851.358	-51.4
3853.973	-44.4
3856.586	-46.4
3859.197	-52.4
3861.806	-53.4
3864.414	-51.4
3867.019	-51.4
3869.622	-50.4
3872.224	-41.4
3874.823	-31.4
3877.421	-25.4
3880.016	-4.4
3882.61	11.6
3885.202	17.6
3887.792	13.6
3890.38	-12.4
3892.966	-39.4
3895.55	-46.4
3898.132	-54.4
3900.713	-52.4
3903.291	-56.4
3905.868	-57.4
3908.442	-56.4
3911.015	-56.4
3913.586	-57.4
3916.155	-56.4
3918.722	-50.4
3921.287	-55.4
3923.85	-51.4
3926.411	-55.4
3928.971	-60.4
3931.528	-51.4
3934.084	-50.4
3936.638	-53.4
3939.19	-63.4
3941.74	-56.4
3944.288	-52.4
3946.834	-49.4
3949.378	-56.4
3951.921	-57.4
3954.462	-57.4
3957	-51.4
3959.537	-41.4
3962.072	-51.4
3964.606	-49.4
3967.137	-49.4
3969.667	-53.4
3972.194	-45.4
3974.72	-47.4
3977.244	-50.4
3979.766	-60.4
3982.286	-55.4
3984.805	-62.4
3987.321	-51.4
3989.836	-49.4
3992.349	-50.4
3994.86	-54.4
3997.369	-56.4
3999.877	-53.4
4002.382	-49.4
4004.886	-49.4
4007.388	-55.4
4009.888	-50.4
4012.386	-53.4
4014.883	-54.4
4017.377	-52.4
4019.87	-52.4
4022.361	-53.4
4024.85	-49.4
4027.338	-55.4
4029.823	-57.4
4032.307	-53.4
4034.789	-50.4
4037.269	-53.4
4039.747	-53.4
4042.224	-48.4
4044.699	-50.4
4047.172	-57.4
4049.643	-56.4
4052.112	-56.4
4054.58	-57.4
4057.046	-54.4
4059.51	-58.4
4061.972	-59.4
4064.432	-46.4
4066.891	-48.4
4069.348	-49.4
4071.803	-48.4
4074.256	-48.4
4076.708	-48.4
4079.158	-55.4
4081.606	-51.4
4084.052	-55.4
4086.497	-53.4
4088.939	-51.4
4091.38	-55.4
4093.819	-61.4
4096.257	-53.4
4098.693	-57.4
4101.127	-47.4
4103.559	-59.4
4105.989	21.6
4108.418	17.6
4110.845	10.6
4113.27	11.6
4115.694	13.6
4118.115	15.6
4120.535	-54.4
4122.954	-50.4
4125.37	-52.4
4127.785	-50.4
4130.198	-50.4
4132.609	-57.4
4135.019	-52.4
4137.427	-56.4
4139.833	-53.4
4142.237	-55.4
