Data from 2018-3-7_conc=4_n=7_RamanShift_05.txt Node
Date: Wed Mar 07 12:10:22 IST 2018
User: aro
Spectrometer: QEPB0276
Trigger mode: 0
Integration Time (sec): 3.000000E1
Scans to average: 1
Electric dark correction enabled: true
Nonlinearity correction enabled: false
Boxcar width: 0
XAxis mode: Raman Shifts
Number of Pixels in Spectrum: 1044
>>>>>Begin Spectral Data<<<<<
160.701	8.1
166.742	16.1
172.777	48.1
178.805	153.1
184.826	376.1
190.841	808.1
196.849	1327.1
202.85	1754.1
208.845	1914.1
214.833	1921.1
220.815	1891.1
226.789	1876.1
232.758	1913.1
238.719	1926.1
244.674	1896.1
250.623	1878.1
256.565	1862.1
262.5	1811.1
268.429	1823.1
274.351	1794.1
280.267	1798.1
286.176	1779.1
292.079	1764.1
297.975	1778.1
303.865	1788.1
309.748	1765.1
315.625	1763.1
321.495	1771.1
327.359	1767.1
333.217	1779.1
339.068	1787.1
344.912	1780.1
350.751	1785.1
356.583	1764.1
362.408	1786.1
368.227	1778.1
374.04	1777.1
379.847	1787.1
385.647	1791.1
391.44	1809.1
397.228	1815.1
403.009	1836.1
408.784	1845.1
414.553	1857.1
420.315	1875.1
426.071	1838.1
431.821	1843.1
437.565	1856.1
443.302	1857.1
449.033	1848.1
454.758	1831.1
460.477	1819.1
466.189	1807.1
471.896	1793.1
477.596	1785.1
483.29	1784.1
488.978	1753.1
494.66	1752.1
500.335	1737.1
506.005	1678.1
511.668	1609.1
517.325	1573.1
522.977	1515.1
528.622	1478.1
534.261	1455.1
539.894	1451.1
545.521	1414.1
551.141	1419.1
556.756	1408.1
562.365	1407.1
567.968	1393.1
573.565	1383.1
579.155	1374.1
584.74	1371.1
590.319	1330.1
595.892	1358.1
601.459	1347.1
607.02	1344.1
612.575	1333.1
618.124	1325.1
623.667	1313.1
629.204	1305.1
634.735	1280.1
640.261	1274.1
645.781	1280.1
651.294	1274.1
656.802	1258.1
662.304	1260.1
667.8	1265.1
673.29	1259.1
678.775	1261.1
684.254	1257.1
689.726	1243.1
695.193	1232.1
700.655	1226.1
706.11	1221.1
711.56	1215.1
717.004	1211.1
722.442	1184.1
727.874	1183.1
733.301	1192.1
738.722	1191.1
744.137	1186.1
749.547	1192.1
754.951	1179.1
760.349	1184.1
765.741	1172.1
771.128	1176.1
776.509	1199.1
781.885	1200.1
787.254	1207.1
792.618	1208.1
797.977	1201.1
803.33	1192.1
808.677	1186.1
814.019	1174.1
819.355	1169.1
824.686	1149.1
830.011	1150.1
835.33	1151.1
840.644	1150.1
845.952	1160.1
851.255	1144.1
856.552	1139.1
861.844	1144.1
867.13	1110.1
872.41	1118.1
877.686	1115.1
882.955	1101.1
888.219	1097.1
893.478	1086.1
898.731	1047.1
903.979	1027.1
909.221	1040.1
914.458	1034.1
919.69	1042.1
924.916	1052.1
930.136	1037.1
935.351	1046.1
940.561	1039.1
945.766	1031.1
950.965	1029.1
956.158	1034.1
961.347	1030.1
966.529	998.1
971.707	986.1
976.879	972.1
982.046	972.1
987.208	958.1
992.364	956.1
997.515	963.1
1002.66	977.1
1007.801	979.1
1012.936	983.1
1018.066	1001.1
1023.19	989.1
1028.309	982.1
1033.423	977.1
1038.532	989.1
1043.636	986.1
1048.734	973.1
1053.827	959.1
1058.915	953.1
1063.998	921.1
1069.075	931.1
1074.147	935.1
1079.214	940.1
1084.276	944.1
1089.333	958.1
1094.385	945.1
1099.431	930.1
1104.472	945.1
1109.509	920.1
1114.54	924.1
1119.565	919.1
1124.586	895.1
1129.602	887.1
1134.613	886.1
1139.618	882.1
1144.619	875.1
1149.614	878.1
1154.604	879.1
1159.589	886.1
1164.57	889.1
1169.545	882.1
1174.515	882.1
1179.48	880.1
1184.44	880.1
1189.395	855.1
1194.345	872.1
1199.29	843.1
1204.23	850.1
1209.165	855.1
1214.095	857.1
1219.021	847.1
1223.941	855.1
1228.856	884.1
1233.766	870.1
1238.672	884.1
1243.572	888.1
1248.467	862.1
1253.358	861.1
1258.244	859.1
1263.124	822.1
1268	828.1
1272.871	803.1
1277.737	792.1
1282.599	796.1
1287.455	788.1
1292.306	806.1
1297.153	791.1
1301.995	794.1
1306.832	806.1
1311.664	811.1
1316.491	814.1
1321.314	806.1
1326.132	814.1
1330.945	794.1
1335.753	764.1
1340.556	753.1
1345.354	753.1
1350.148	730.1
1354.937	723.1
1359.722	696.1
1364.501	684.1
1369.276	683.1
1374.046	670.1
1378.811	656.1
1383.572	664.1
1388.327	659.1
1393.079	655.1
1397.825	652.1
1402.567	659.1
1407.304	671.1
1412.036	656.1
1416.764	678.1
1421.487	670.1
1426.205	660.1
1430.919	662.1
1435.628	677.1
1440.333	681.1
1445.032	677.1
1449.727	694.1
1454.418	701.1
1459.104	684.1
1463.785	682.1
1468.462	663.1
1473.134	647.1
1477.802	639.1
1482.465	613.1
1487.123	601.1
1491.777	593.1
1496.426	580.1
1501.071	575.1
1505.711	576.1
1510.347	571.1
1514.978	556.1
1519.604	558.1
1524.226	565.1
1528.844	556.1
1533.457	547.1
1538.065	555.1
1542.669	551.1
1547.269	553.1
1551.864	549.1
1556.454	566.1
1561.041	568.1
1565.622	579.1
1570.199	572.1
1574.772	565.1
1579.34	594.1
1583.904	592.1
1588.464	605.1
1593.019	615.1
1597.569	604.1
1602.115	615.1
1606.657	602.1
1611.195	605.1
1615.728	591.1
1620.256	595.1
1624.78	607.1
1629.3	587.1
1633.816	593.1
1638.327	600.1
1642.834	606.1
1647.336	599.1
1651.834	596.1
1656.328	594.1
1660.817	604.1
1665.302	591.1
1669.783	561.1
1674.259	555.1
1678.732	543.1
1683.199	526.1
1687.663	509.1
1692.122	480.1
1696.577	472.1
1701.028	449.1
1705.474	423.1
1709.917	414.1
1714.355	404.1
1718.788	395.1
1723.218	401.1
1727.643	410.1
1732.064	400.1
1736.481	398.1
1740.893	381.1
1745.301	383.1
1749.705	374.1
1754.105	361.1
1758.501	355.1
1762.893	351.1
1767.28	345.1
1771.663	352.1
1776.042	342.1
1780.417	341.1
1784.787	318.1
1789.154	319.1
1793.516	310.1
1797.874	303.1
1802.228	301.1
1806.578	297.1
1810.924	295.1
1815.266	292.1
1819.603	297.1
1823.937	309.1
1828.266	297.1
1832.591	302.1
1836.913	295.1
1841.23	293.1
1845.543	296.1
1849.852	310.1
1854.156	309.1
1858.457	305.1
1862.754	311.1
1867.047	313.1
1871.335	301.1
1875.62	313.1
1879.9	293.1
1884.177	302.1
1888.449	290.1
1892.718	290.1
1896.982	281.1
1901.243	279.1
1905.499	273.1
1909.752	271.1
1914	262.1
1918.245	258.1
1922.485	258.1
1926.722	252.1
1930.954	264.1
1935.183	252.1
1939.408	244.1
1943.628	243.1
1947.845	246.1
1952.058	240.1
1956.267	233.1
1960.472	232.1
1964.673	221.1
1968.87	224.1
1973.063	230.1
1977.252	237.1
1981.438	231.1
1985.619	228.1
1989.797	223.1
1993.971	233.1
1998.14	231.1
2002.306	239.1
2006.469	238.1
2010.627	236.1
2014.781	233.1
2018.932	232.1
2023.078	229.1
2027.221	229.1
2031.36	234.1
2035.495	223.1
2039.627	216.1
2043.754	217.1
2047.878	225.1
2051.998	220.1
2056.114	213.1
2060.226	215.1
2064.334	209.1
2068.439	198.1
2072.54	211.1
2076.637	207.1
2080.73	214.1
2084.82	209.1
2088.906	203.1
2092.988	199.1
2097.066	190.1
2101.14	192.1
2105.211	189.1
2109.278	184.1
2113.342	180.1
2117.401	180.1
2121.457	180.1
2125.509	184.1
2129.558	175.1
2133.602	179.1
2137.643	183.1
2141.681	178.1
2145.714	187.1
2149.744	180.1
2153.77	193.1
2157.793	185.1
2161.812	191.1
2165.827	187.1
2169.838	181.1
2173.846	173.1
2177.851	168.1
2181.851	177.1
2185.848	169.1
2189.841	158.1
2193.831	166.1
2197.817	174.1
2201.799	171.1
2205.778	165.1
2209.753	170.1
2213.725	175.1
2217.693	165.1
2221.657	170.1
2225.618	159.1
2229.575	164.1
2233.529	158.1
2237.479	169.1
2241.425	151.1
2245.368	161.1
2249.307	161.1
2253.243	148.1
2257.175	152.1
2261.104	145.1
2265.029	145.1
2268.95	147.1
2272.868	141.1
2276.783	141.1
2280.694	131.1
2284.601	133.1
2288.505	134.1
2292.405	141.1
2296.302	137.1
2300.195	139.1
2304.085	133.1
2307.971	127.1
2311.854	123.1
2315.734	127.1
2319.609	136.1
2323.482	124.1
2327.351	128.1
2331.216	133.1
2335.078	145.1
2338.937	130.1
2342.792	128.1
2346.643	136.1
2350.492	122.1
2354.336	130.1
2358.178	122.1
2362.015	122.1
2365.85	123.1
2369.681	127.1
2373.508	128.1
2377.333	130.1
2381.153	125.1
2384.971	129.1
2388.785	124.1
2392.595	126.1
2396.402	127.1
2400.206	120.1
2404.007	125.1
2407.804	121.1
2411.597	119.1
2415.388	120.1
2419.174	118.1
2422.958	118.1
2426.738	123.1
2430.515	113.1
2434.289	120.1
2438.059	118.1
2441.825	109.1
2445.589	111.1
2449.349	115.1
2453.106	116.1
2456.859	108.1
2460.61	109.1
2464.356	111.1
2468.1	107.1
2471.84	103.1
2475.577	95.1
2479.311	105.1
2483.041	96.1
2486.768	101.1
2490.492	100.1
2494.213	96.1
2497.93	100.1
2501.644	97.1
2505.355	93.1
2509.062	94.1
2512.766	95.1
2516.467	95.1
2520.165	99.1
2523.859	100.1
2527.551	94.1
2531.239	86.1
2534.923	86.1
2538.605	77.1
2542.283	79.1
2545.958	82.1
2549.63	81.1
2553.299	75.1
2556.964	65.1
2560.626	77.1
2564.285	70.1
2567.941	77.1
2571.594	77.1
2575.243	72.1
2578.89	69.1
2582.533	74.1
2586.173	72.1
2589.809	71.1
2593.443	71.1
2597.073	70.1
2600.701	74.1
2604.325	65.1
2607.946	56.1
2611.564	62.1
2615.178	58.1
2618.79	67.1
2622.398	68.1
2626.004	63.1
2629.606	58.1
2633.205	52.1
2636.801	60.1
2640.394	69.1
2643.983	60.1
2647.57	55.1
2651.153	54.1
2654.734	54.1
2658.311	53.1
2661.885	63.1
2665.456	64.1
2669.025	55.1
2672.589	51.1
2676.151	57.1
2679.71	51.1
2683.266	50.1
2686.819	54.1
2690.368	54.1
2693.915	50.1
2697.458	47.1
2700.999	45.1
2704.536	53.1
2708.071	45.1
2711.602	44.1
2715.13	40.1
2718.656	46.1
2722.178	48.1
2725.697	40.1
2729.214	42.1
2732.727	40.1
2736.237	44.1
2739.744	39.1
2743.249	39.1
2746.75	40.1
2750.248	37.1
2753.743	27.1
2757.236	30.1
2760.725	29.1
2764.211	22.1
2767.695	24.1
2771.175	27.1
2774.652	24.1
2778.127	28.1
2781.598	24.1
2785.067	27.1
2788.532	28.1
2791.995	31.1
2795.455	29.1
2798.911	27.1
2802.365	32.1
2805.816	32.1
2809.264	34.1
2812.709	31.1
2816.151	36.1
2819.59	47.1
2823.026	28.1
2826.46	33.1
2829.89	23.1
2833.318	32.1
2836.742	32.1
2840.164	21.1
2843.583	28.1
2846.999	35.1
2850.412	33.1
2853.822	32.1
2857.229	33.1
2860.634	35.1
2864.035	39.1
2867.434	37.1
2870.83	42.1
2874.223	37.1
2877.613	39.1
2881	42.1
2884.385	43.1
2887.766	41.1
2891.145	36.1
2894.521	42.1
2897.894	38.1
2901.264	40.1
2904.631	33.1
2907.996	42.1
2911.358	46.1
2914.717	38.1
2918.073	42.1
2921.426	44.1
2924.777	54.1
2928.124	55.1
2931.469	54.1
2934.811	58.1
2938.15	60.1
2941.487	69.1
2944.821	56.1
2948.152	57.1
2951.48	56.1
2954.805	59.1
2958.128	56.1
2961.447	50.1
2964.765	50.1
2968.079	50.1
2971.39	50.1
2974.699	46.1
2978.005	58.1
2981.308	53.1
2984.609	50.1
2987.907	60.1
2991.202	53.1
2994.494	48.1
2997.784	51.1
3001.07	51.1
3004.355	56.1
3007.636	59.1
3010.915	54.1
3014.191	51.1
3017.464	53.1
3020.734	58.1
3024.002	57.1
3027.267	59.1
3030.53	61.1
3033.789	59.1
3037.046	62.1
3040.301	71.1
3043.552	71.1
3046.801	79.1
3050.048	70.1
3053.291	71.1
3056.532	71.1
3059.771	81.1
3063.006	84.1
3066.239	93.1
3069.469	92.1
3072.697	94.1
3075.922	105.1
3079.144	103.1
3082.364	101.1
3085.581	106.1
3088.795	109.1
3092.007	110.1
3095.216	117.1
3098.423	121.1
3101.627	111.1
3104.828	122.1
3108.026	122.1
3111.222	130.1
3114.416	132.1
3117.607	135.1
3120.795	136.1
3123.98	133.1
3127.163	150.1
3130.344	136.1
3133.521	143.1
3136.696	148.1
3139.869	155.1
3143.039	151.1
3146.206	158.1
3149.371	159.1
3152.533	171.1
3155.693	177.1
3158.85	169.1
3162.005	174.1
3165.157	172.1
3168.306	162.1
3171.453	170.1
3174.597	169.1
3177.739	167.1
3180.878	170.1
3184.014	161.1
3187.149	165.1
3190.28	164.1
3193.409	171.1
3196.536	167.1
3199.659	175.1
3202.781	175.1
3205.9	166.1
3209.016	172.1
3212.13	171.1
3215.241	177.1
3218.35	165.1
3221.456	177.1
3224.56	165.1
3227.661	162.1
3230.76	157.1
3233.856	163.1
3236.95	154.1
3240.041	142.1
3243.13	154.1
3246.216	146.1
3249.3	143.1
3252.382	138.1
3255.46	144.1
3258.537	131.1
3261.611	126.1
3264.682	136.1
3267.751	143.1
3270.818	122.1
3273.882	139.1
3276.943	128.1
3280.002	129.1
3283.059	127.1
3286.113	121.1
3289.165	120.1
3292.214	124.1
3295.261	119.1
3298.306	129.1
3301.348	126.1
3304.387	116.1
3307.425	111.1
3310.459	115.1
3313.492	117.1
3316.521	122.1
3319.549	114.1
3322.574	115.1
3325.597	112.1
3328.617	118.1
3331.635	115.1
3334.65	131.1
3337.663	112.1
3340.674	116.1
3343.682	108.1
3346.688	113.1
3349.691	117.1
3352.692	116.1
3355.691	119.1
3358.687	111.1
3361.681	110.1
3364.673	115.1
3367.662	118.1
3370.649	112.1
3373.633	105.1
3376.615	109.1
3379.595	102.1
3382.572	96.1
3385.547	103.1
3388.52	92.1
3391.49	95.1
3394.458	91.1
3397.424	95.1
3400.387	93.1
3403.348	82.1
3406.307	84.1
3409.263	91.1
3412.217	79.1
3415.168	88.1
3418.118	80.1
3421.065	76.1
3424.009	79.1
3426.951	76.1
3429.891	83.1
3432.829	67.1
3435.764	70.1
3438.697	69.1
3441.628	60.1
3444.557	64.1
3447.483	66.1
3450.407	55.1
3453.328	60.1
3456.247	49.1
3459.164	48.1
3462.079	40.1
3464.991	41.1
3467.902	38.1
3470.809	38.1
3473.715	35.1
3476.618	33.1
3479.519	28.1
3482.418	25.1
3485.315	30.1
3488.209	19.1
3491.101	17.1
3493.99	20.1
3496.878	18.1
3499.763	15.1
3502.646	16.1
3505.527	13.1
3508.405	7.1
3511.281	4.1
3514.155	5.1
3517.027	-0.9
3519.897	0.1
3522.764	2.1
3525.629	-1.9
3528.492	2.1
3531.352	-6.9
3534.211	-8.9
3537.067	-9.9
3539.921	-9.9
3542.773	-12.9
3545.622	-10.9
3548.469	-9.9
3551.315	-12.9
3554.157	-15.9
3556.998	-19.9
3559.837	-21.9
3562.673	-21.9
3565.507	-23.9
3568.339	-14.9
3571.169	-23.9
3573.996	-19.9
3576.822	-26.9
3579.645	-23.9
3582.466	-23.9
3585.285	-26.9
3588.101	-28.9
3590.916	-22.9
3593.728	-29.9
3596.538	-31.9
3599.346	-30.9
3602.152	-29.9
3604.956	-30.9
3607.757	-27.9
3610.556	-30.9
3613.354	-38.9
3616.149	-40.9
3618.942	-34.9
3621.732	-39.9
3624.521	-33.9
3627.307	-36.9
3630.092	-31.9
3632.874	-34.9
3635.654	-38.9
3638.432	-30.9
3641.208	-32.9
3643.982	-30.9
3646.753	-39.9
3649.523	-32.9
3652.29	-40.9
3655.055	-37.9
3657.818	-43.9
3660.579	-43.9
3663.338	-38.9
3666.095	-41.9
3668.849	-46.9
3671.602	-45.9
3674.352	-39.9
3677.101	-46.9
3679.847	-43.9
3682.591	-49.9
3685.333	-42.9
3688.073	-52.9
3690.811	-38.9
3693.547	-47.9
3696.281	-37.9
3699.013	-40.9
3701.742	-48.9
3704.47	-41.9
3707.195	-48.9
3709.919	-50.9
3712.64	-41.9
3715.359	-45.9
3718.076	-47.9
3720.792	-50.9
3723.505	-50.9
3726.216	-48.9
3728.925	-52.9
3731.632	-49.9
3734.336	-45.9
3737.039	-52.9
3739.74	-52.9
3742.439	-54.9
3745.136	-46.9
3747.83	-48.9
3750.523	-52.9
3753.213	-60.9
3755.902	-45.9
3758.589	-53.9
3761.273	-46.9
3763.956	-51.9
3766.636	-47.9
3769.315	-44.9
3771.991	-46.9
3774.665	-55.9
3777.338	-52.9
3780.008	-49.9
3782.677	-54.9
3785.343	-48.9
3788.007	-54.9
3790.67	-55.9
3793.33	-52.9
3795.989	-54.9
3798.645	-50.9
3801.299	-51.9
3803.952	-52.9
3806.602	-49.9
3809.251	-54.9
3811.897	-51.9
3814.542	-59.9
3817.184	-53.9
3819.825	-45.9
3822.463	-50.9
3825.1	-48.9
3827.735	-56.9
3830.367	-53.9
3832.998	-53.9
3835.627	-55.9
3838.253	-50.9
3840.878	-41.9
3843.501	-45.9
3846.122	-53.9
3848.741	-55.9
3851.358	-49.9
3853.973	-49.9
3856.586	-44.9
3859.197	-53.9
3861.806	-50.9
3864.414	-52.9
3867.019	-55.9
3869.622	-50.9
3872.224	-48.9
3874.823	-36.9
3877.421	-37.9
3880.016	-21.9
3882.61	-4.9
3885.202	-9.9
3887.792	-5.9
3890.38	-24.9
3892.966	-37.9
3895.55	-49.9
3898.132	-47.9
3900.713	-53.9
3903.291	-51.9
3905.868	-49.9
3908.442	-51.9
3911.015	-51.9
3913.586	-54.9
3916.155	-51.9
3918.722	-55.9
3921.287	-53.9
3923.85	-45.9
3926.411	-58.9
3928.971	-62.9
3931.528	-56.9
3934.084	-50.9
3936.638	-53.9
3939.19	-60.9
3941.74	-50.9
3944.288	-50.9
3946.834	-47.9
3949.378	-49.9
3951.921	-55.9
3954.462	-52.9
3957	-47.9
3959.537	-42.9
3962.072	-51.9
3964.606	-46.9
3967.137	-51.9
3969.667	-55.9
3972.194	-51.9
3974.72	-51.9
3977.244	-50.9
3979.766	-53.9
3982.286	-54.9
3984.805	-57.9
3987.321	-48.9
3989.836	-44.9
3992.349	-55.9
3994.86	-53.9
3997.369	-52.9
3999.877	-49.9
4002.382	-51.9
4004.886	-48.9
4007.388	-54.9
4009.888	-52.9
4012.386	-49.9
4014.883	-50.9
4017.377	-46.9
4019.87	-47.9
4022.361	-59.9
4024.85	-53.9
4027.338	-53.9
4029.823	-57.9
4032.307	-57.9
4034.789	-49.9
4037.269	-50.9
4039.747	-52.9
4042.224	-52.9
4044.699	-50.9
4047.172	-50.9
4049.643	-51.9
4052.112	-49.9
4054.58	-51.9
4057.046	-50.9
4059.51	-53.9
4061.972	-56.9
4064.432	-51.9
4066.891	-48.9
4069.348	-51.9
4071.803	-44.9
4074.256	-54.9
4076.708	-54.9
4079.158	-54.9
4081.606	-51.9
4084.052	-52.9
4086.497	-46.9
4088.939	-47.9
4091.38	-54.9
4093.819	-56.9
4096.257	-53.9
4098.693	-54.9
4101.127	-51.9
4103.559	-54.9
4105.989	9.1
4108.418	10.1
4110.845	4.1
4113.27	5.1
4115.694	13.1
4118.115	10.1
4120.535	-52.9
4122.954	-51.9
4125.37	-49.9
4127.785	-49.9
4130.198	-44.9
4132.609	-54.9
4135.019	-53.9
4137.427	-57.9
4139.833	-53.9
4142.237	-59.9
