Data from 2018-3-7_conc=0_n=5_RamanShift_01.txt Node
Date: Wed Mar 07 10:18:23 IST 2018
User: aro
Spectrometer: QEPB0276
Trigger mode: 0
Integration Time (sec): 3.000000E1
Scans to average: 1
Electric dark correction enabled: true
Nonlinearity correction enabled: false
Boxcar width: 0
XAxis mode: Raman Shifts
Number of Pixels in Spectrum: 1044
>>>>>Begin Spectral Data<<<<<
160.701	12.6
166.742	23.6
172.777	56.6
178.805	161.6
184.826	423.6
190.841	898.6
196.849	1472.6
202.85	1921.6
208.845	2101.6
214.833	2118.6
220.815	2088.6
226.789	2105.6
232.758	2112.6
238.719	2104.6
244.674	2115.6
250.623	2121.6
256.565	2087.6
262.5	2065.6
268.429	2062.6
274.351	2066.6
280.267	2039.6
286.176	2081.6
292.079	2068.6
297.975	2052.6
303.865	2074.6
309.748	2091.6
315.625	2070.6
321.495	2081.6
327.359	2086.6
333.217	2090.6
339.068	2108.6
344.912	2114.6
350.751	2126.6
356.583	2113.6
362.408	2106.6
368.227	2153.6
374.04	2148.6
379.847	2181.6
385.647	2154.6
391.44	2191.6
397.228	2186.6
403.009	2220.6
408.784	2245.6
414.553	2239.6
420.315	2253.6
426.071	2263.6
431.821	2266.6
437.565	2270.6
443.302	2257.6
449.033	2251.6
454.758	2240.6
460.477	2211.6
466.189	2194.6
471.896	2189.6
477.596	2153.6
483.29	2141.6
488.978	2118.6
494.66	2129.6
500.335	2059.6
506.005	1996.6
511.668	1890.6
517.325	1784.6
522.977	1696.6
528.622	1673.6
534.261	1602.6
539.894	1578.6
545.521	1569.6
551.141	1543.6
556.756	1496.6
562.365	1490.6
567.968	1475.6
573.565	1473.6
579.155	1461.6
584.74	1471.6
590.319	1450.6
595.892	1438.6
601.459	1446.6
607.02	1444.6
612.575	1439.6
618.124	1423.6
623.667	1385.6
629.204	1374.6
634.735	1347.6
640.261	1353.6
645.781	1332.6
651.294	1339.6
656.802	1307.6
662.304	1328.6
667.8	1307.6
673.29	1332.6
678.775	1310.6
684.254	1311.6
689.726	1302.6
695.193	1302.6
700.655	1278.6
706.11	1270.6
711.56	1249.6
717.004	1254.6
722.442	1247.6
727.874	1235.6
733.301	1244.6
738.722	1243.6
744.137	1241.6
749.547	1236.6
754.951	1223.6
760.349	1236.6
765.741	1231.6
771.128	1243.6
776.509	1261.6
781.885	1283.6
787.254	1288.6
792.618	1306.6
797.977	1283.6
803.33	1302.6
808.677	1291.6
814.019	1266.6
819.355	1264.6
824.686	1242.6
830.011	1247.6
835.33	1243.6
840.644	1221.6
845.952	1214.6
851.255	1221.6
856.552	1222.6
861.844	1208.6
867.13	1212.6
872.41	1233.6
877.686	1287.6
882.955	1318.6
888.219	1311.6
893.478	1238.6
898.731	1184.6
903.979	1132.6
909.221	1099.6
914.458	1092.6
919.69	1084.6
924.916	1073.6
930.136	1084.6
935.351	1084.6
940.561	1073.6
945.766	1067.6
950.965	1081.6
956.158	1054.6
961.347	1047.6
966.529	1043.6
971.707	1012.6
976.879	998.6
982.046	995.6
987.208	1004.6
992.364	983.6
997.515	996.6
1002.66	1011.6
1007.801	1021.6
1012.936	1024.6
1018.066	1045.6
1023.19	1049.6
1028.309	1048.6
1033.423	1058.6
1038.532	1047.6
1043.636	1059.6
1048.734	1070.6
1053.827	1052.6
1058.915	1050.6
1063.998	1021.6
1069.075	998.6
1074.147	1030.6
1079.214	1027.6
1084.276	1040.6
1089.333	1049.6
1094.385	1042.6
1099.431	1028.6
1104.472	1007.6
1109.509	997.6
1114.54	975.6
1119.565	954.6
1124.586	935.6
1129.602	915.6
1134.613	921.6
1139.618	907.6
1144.619	914.6
1149.614	907.6
1154.604	908.6
1159.589	907.6
1164.57	914.6
1169.545	917.6
1174.515	925.6
1179.48	926.6
1184.44	898.6
1189.395	907.6
1194.345	894.6
1199.29	873.6
1204.23	889.6
1209.165	884.6
1214.095	887.6
1219.021	888.6
1223.941	903.6
1228.856	898.6
1233.766	902.6
1238.672	905.6
1243.572	902.6
1248.467	895.6
1253.358	885.6
1258.244	869.6
1263.124	862.6
1268	850.6
1272.871	842.6
1277.737	827.6
1282.599	843.6
1287.455	829.6
1292.306	835.6
1297.153	832.6
1301.995	850.6
1306.832	840.6
1311.664	844.6
1316.491	845.6
1321.314	829.6
1326.132	823.6
1330.945	814.6
1335.753	797.6
1340.556	750.6
1345.354	767.6
1350.148	747.6
1354.937	722.6
1359.722	706.6
1364.501	697.6
1369.276	690.6
1374.046	674.6
1378.811	679.6
1383.572	678.6
1388.327	677.6
1393.079	672.6
1397.825	689.6
1402.567	683.6
1407.304	694.6
1412.036	714.6
1416.764	692.6
1421.487	716.6
1426.205	699.6
1430.919	698.6
1435.628	701.6
1440.333	723.6
1445.032	727.6
1449.727	763.6
1454.418	768.6
1459.104	776.6
1463.785	764.6
1468.462	728.6
1473.134	694.6
1477.802	647.6
1482.465	640.6
1487.123	620.6
1491.777	606.6
1496.426	591.6
1501.071	575.6
1505.711	577.6
1510.347	566.6
1514.978	559.6
1519.604	552.6
1524.226	561.6
1528.844	564.6
1533.457	546.6
1538.065	554.6
1542.669	551.6
1547.269	549.6
1551.864	560.6
1556.454	581.6
1561.041	597.6
1565.622	585.6
1570.199	588.6
1574.772	573.6
1579.34	594.6
1583.904	608.6
1588.464	606.6
1593.019	603.6
1597.569	619.6
1602.115	611.6
1606.657	594.6
1611.195	590.6
1615.728	592.6
1620.256	590.6
1624.78	585.6
1629.3	589.6
1633.816	602.6
1638.327	598.6
1642.834	593.6
1647.336	575.6
1651.834	583.6
1656.328	582.6
1660.817	575.6
1665.302	578.6
1669.783	553.6
1674.259	540.6
1678.732	536.6
1683.199	501.6
1687.663	477.6
1692.122	461.6
1696.577	444.6
1701.028	419.6
1705.474	401.6
1709.917	401.6
1714.355	394.6
1718.788	384.6
1723.218	385.6
1727.643	400.6
1732.064	384.6
1736.481	395.6
1740.893	383.6
1745.301	366.6
1749.705	360.6
1754.105	352.6
1758.501	346.6
1762.893	341.6
1767.28	324.6
1771.663	328.6
1776.042	314.6
1780.417	316.6
1784.787	300.6
1789.154	301.6
1793.516	288.6
1797.874	281.6
1802.228	280.6
1806.578	284.6
1810.924	276.6
1815.266	278.6
1819.603	285.6
1823.937	290.6
1828.266	289.6
1832.591	288.6
1836.913	295.6
1841.23	291.6
1845.543	293.6
1849.852	294.6
1854.156	303.6
1858.457	295.6
1862.754	297.6
1867.047	295.6
1871.335	292.6
1875.62	291.6
1879.9	279.6
1884.177	282.6
1888.449	277.6
1892.718	272.6
1896.982	267.6
1901.243	252.6
1905.499	249.6
1909.752	249.6
1914	237.6
1918.245	237.6
1922.485	230.6
1926.722	231.6
1930.954	223.6
1935.183	221.6
1939.408	220.6
1943.628	217.6
1947.845	213.6
1952.058	215.6
1956.267	214.6
1960.472	225.6
1964.673	222.6
1968.87	212.6
1973.063	217.6
1977.252	224.6
1981.438	225.6
1985.619	216.6
1989.797	212.6
1993.971	226.6
1998.14	223.6
2002.306	222.6
2006.469	224.6
2010.627	217.6
2014.781	230.6
2018.932	221.6
2023.078	231.6
2027.221	214.6
2031.36	220.6
2035.495	208.6
2039.627	195.6
2043.754	207.6
2047.878	203.6
2051.998	208.6
2056.114	198.6
2060.226	195.6
2064.334	190.6
2068.439	189.6
2072.54	194.6
2076.637	188.6
2080.73	190.6
2084.82	188.6
2088.906	180.6
2092.988	181.6
2097.066	176.6
2101.14	177.6
2105.211	175.6
2109.278	178.6
2113.342	168.6
2117.401	174.6
2121.457	175.6
2125.509	163.6
2129.558	157.6
2133.602	164.6
2137.643	170.6
2141.681	177.6
2145.714	175.6
2149.744	173.6
2153.77	171.6
2157.793	174.6
2161.812	176.6
2165.827	177.6
2169.838	163.6
2173.846	165.6
2177.851	165.6
2181.851	168.6
2185.848	161.6
2189.841	159.6
2193.831	145.6
2197.817	161.6
2201.799	161.6
2205.778	161.6
2209.753	155.6
2213.725	150.6
2217.693	157.6
2221.657	155.6
2225.618	152.6
2229.575	149.6
2233.529	159.6
2237.479	164.6
2241.425	148.6
2245.368	154.6
2249.307	148.6
2253.243	148.6
2257.175	142.6
2261.104	143.6
2265.029	138.6
2268.95	143.6
2272.868	142.6
2276.783	132.6
2280.694	125.6
2284.601	129.6
2288.505	134.6
2292.405	134.6
2296.302	134.6
2300.195	130.6
2304.085	129.6
2307.971	121.6
2311.854	129.6
2315.734	122.6
2319.609	124.6
2323.482	126.6
2327.351	126.6
2331.216	138.6
2335.078	155.6
2338.937	143.6
2342.792	125.6
2346.643	123.6
2350.492	130.6
2354.336	118.6
2358.178	113.6
2362.015	126.6
2365.85	125.6
2369.681	131.6
2373.508	123.6
2377.333	130.6
2381.153	118.6
2384.971	115.6
2388.785	119.6
2392.595	122.6
2396.402	131.6
2400.206	118.6
2404.007	121.6
2407.804	118.6
2411.597	116.6
2415.388	122.6
2419.174	125.6
2422.958	116.6
2426.738	127.6
2430.515	118.6
2434.289	117.6
2438.059	113.6
2441.825	106.6
2445.589	109.6
2449.349	102.6
2453.106	107.6
2456.859	106.6
2460.61	101.6
2464.356	101.6
2468.1	105.6
2471.84	101.6
2475.577	91.6
2479.311	92.6
2483.041	101.6
2486.768	94.6
2490.492	97.6
2494.213	95.6
2497.93	93.6
2501.644	92.6
2505.355	93.6
2509.062	82.6
2512.766	88.6
2516.467	89.6
2520.165	86.6
2523.859	82.6
2527.551	80.6
2531.239	79.6
2534.923	76.6
2538.605	71.6
2542.283	75.6
2545.958	71.6
2549.63	79.6
2553.299	69.6
2556.964	66.6
2560.626	68.6
2564.285	67.6
2567.941	70.6
2571.594	69.6
2575.243	67.6
2578.89	63.6
2582.533	57.6
2586.173	63.6
2589.809	62.6
2593.443	71.6
2597.073	61.6
2600.701	67.6
2604.325	56.6
2607.946	49.6
2611.564	65.6
2615.178	60.6
2618.79	63.6
2622.398	52.6
2626.004	52.6
2629.606	52.6
2633.205	57.6
2636.801	62.6
2640.394	60.6
2643.983	51.6
2647.57	52.6
2651.153	45.6
2654.734	53.6
2658.311	57.6
2661.885	57.6
2665.456	60.6
2669.025	54.6
2672.589	45.6
2676.151	48.6
2679.71	47.6
2683.266	47.6
2686.819	55.6
2690.368	55.6
2693.915	52.6
2697.458	45.6
2700.999	46.6
2704.536	53.6
2708.071	49.6
2711.602	37.6
2715.13	37.6
2718.656	47.6
2722.178	38.6
2725.697	41.6
2729.214	36.6
2732.727	43.6
2736.237	42.6
2739.744	32.6
2743.249	34.6
2746.75	42.6
2750.248	29.6
2753.743	35.6
2757.236	30.6
2760.725	29.6
2764.211	24.6
2767.695	24.6
2771.175	26.6
2774.652	20.6
2778.127	28.6
2781.598	27.6
2785.067	25.6
2788.532	15.6
2791.995	29.6
2795.455	25.6
2798.911	30.6
2802.365	32.6
2805.816	29.6
2809.264	28.6
2812.709	24.6
2816.151	29.6
2819.59	35.6
2823.026	32.6
2826.46	32.6
2829.89	33.6
2833.318	28.6
2836.742	38.6
2840.164	34.6
2843.583	33.6
2846.999	45.6
2850.412	34.6
2853.822	40.6
2857.229	47.6
2860.634	46.6
2864.035	47.6
2867.434	45.6
2870.83	59.6
2874.223	54.6
2877.613	63.6
2881	75.6
2884.385	77.6
2887.766	81.6
2891.145	79.6
2894.521	76.6
2897.894	78.6
2901.264	79.6
2904.631	79.6
2907.996	78.6
2911.358	92.6
2914.717	82.6
2918.073	81.6
2921.426	79.6
2924.777	84.6
2928.124	83.6
2931.469	102.6
2934.811	121.6
2938.15	120.6
2941.487	124.6
2944.821	113.6
2948.152	104.6
2951.48	95.6
2954.805	100.6
2958.128	94.6
2961.447	91.6
2964.765	77.6
2968.079	73.6
2971.39	76.6
2974.699	61.6
2978.005	75.6
2981.308	80.6
2984.609	71.6
2987.907	78.6
2991.202	69.6
2994.494	62.6
2997.784	59.6
3001.07	61.6
3004.355	60.6
3007.636	64.6
3010.915	67.6
3014.191	59.6
3017.464	61.6
3020.734	62.6
3024.002	55.6
3027.267	65.6
3030.53	63.6
3033.789	62.6
3037.046	64.6
3040.301	64.6
3043.552	72.6
3046.801	75.6
3050.048	68.6
3053.291	70.6
3056.532	68.6
3059.771	72.6
3063.006	84.6
3066.239	82.6
3069.469	92.6
3072.697	89.6
3075.922	92.6
3079.144	88.6
3082.364	96.6
3085.581	98.6
3088.795	103.6
3092.007	103.6
3095.216	109.6
3098.423	101.6
3101.627	99.6
3104.828	112.6
3108.026	114.6
3111.222	113.6
3114.416	120.6
3117.607	125.6
3120.795	122.6
3123.98	124.6
3127.163	132.6
3130.344	131.6
3133.521	134.6
3136.696	134.6
3139.869	138.6
3143.039	141.6
3146.206	148.6
3149.371	142.6
3152.533	155.6
3155.693	154.6
3158.85	153.6
3162.005	153.6
3165.157	161.6
3168.306	152.6
3171.453	161.6
3174.597	144.6
3177.739	158.6
3180.878	159.6
3184.014	154.6
3187.149	155.6
3190.28	158.6
3193.409	157.6
3196.536	156.6
3199.659	163.6
3202.781	153.6
3205.9	157.6
3209.016	152.6
3212.13	156.6
3215.241	154.6
3218.35	146.6
3221.456	152.6
3224.56	134.6
3227.661	142.6
3230.76	141.6
3233.856	148.6
3236.95	132.6
3240.041	135.6
3243.13	128.6
3246.216	123.6
3249.3	113.6
3252.382	121.6
3255.46	121.6
3258.537	121.6
3261.611	114.6
3264.682	115.6
3267.751	113.6
3270.818	107.6
3273.882	115.6
3276.943	107.6
3280.002	115.6
3283.059	116.6
3286.113	107.6
3289.165	108.6
3292.214	103.6
3295.261	111.6
3298.306	105.6
3301.348	100.6
3304.387	112.6
3307.425	110.6
3310.459	93.6
3313.492	101.6
3316.521	97.6
3319.549	104.6
3322.574	99.6
3325.597	96.6
3328.617	102.6
3331.635	97.6
3334.65	104.6
3337.663	88.6
3340.674	90.6
3343.682	99.6
3346.688	100.6
3349.691	98.6
3352.692	93.6
3355.691	94.6
3358.687	94.6
3361.681	97.6
3364.673	103.6
3367.662	102.6
3370.649	100.6
3373.633	91.6
3376.615	88.6
3379.595	84.6
3382.572	80.6
3385.547	86.6
3388.52	83.6
3391.49	82.6
3394.458	75.6
3397.424	77.6
3400.387	76.6
3403.348	66.6
3406.307	69.6
3409.263	70.6
3412.217	73.6
3415.168	69.6
3418.118	63.6
3421.065	59.6
3424.009	56.6
3426.951	55.6
3429.891	53.6
3432.829	58.6
3435.764	61.6
3438.697	51.6
3441.628	53.6
3444.557	44.6
3447.483	47.6
3450.407	39.6
3453.328	40.6
3456.247	32.6
3459.164	36.6
3462.079	23.6
3464.991	27.6
3467.902	29.6
3470.809	21.6
3473.715	20.6
3476.618	18.6
3479.519	16.6
3482.418	17.6
3485.315	14.6
3488.209	4.6
3491.101	6.6
3493.99	12.6
3496.878	11.6
3499.763	1.6
3502.646	2.6
3505.527	-2.4
3508.405	-7.4
3511.281	-2.4
3514.155	-9.4
3517.027	-10.4
3519.897	0.6
3522.764	-13.4
3525.629	-11.4
3528.492	-14.4
3531.352	-23.4
3534.211	-18.4
3537.067	-18.4
3539.921	-11.4
3542.773	-22.4
3545.622	-25.4
3548.469	-25.4
3551.315	-24.4
3554.157	-26.4
3556.998	-22.4
3559.837	-28.4
3562.673	-31.4
3565.507	-26.4
3568.339	-32.4
3571.169	-38.4
3573.996	-30.4
3576.822	-35.4
3579.645	-34.4
3582.466	-33.4
3585.285	-30.4
3588.101	-36.4
3590.916	-33.4
3593.728	-39.4
3596.538	-44.4
3599.346	-42.4
3602.152	-33.4
3604.956	-34.4
3607.757	-32.4
3610.556	-36.4
3613.354	-46.4
3616.149	-44.4
3618.942	-40.4
3621.732	-46.4
3624.521	-39.4
3627.307	-39.4
3630.092	-40.4
3632.874	-44.4
3635.654	-49.4
3638.432	-46.4
3641.208	-45.4
3643.982	-40.4
3646.753	-50.4
3649.523	-43.4
3652.29	-45.4
3655.055	-43.4
3657.818	-49.4
3660.579	-47.4
3663.338	-48.4
3666.095	-53.4
3668.849	-51.4
3671.602	-47.4
3674.352	-45.4
3677.101	-50.4
3679.847	-47.4
3682.591	-59.4
3685.333	-48.4
3688.073	-57.4
3690.811	-57.4
3693.547	-51.4
3696.281	-42.4
3699.013	-54.4
3701.742	-51.4
3704.47	-50.4
3707.195	-56.4
3709.919	-56.4
3712.64	-48.4
3715.359	-54.4
3718.076	-56.4
3720.792	-51.4
3723.505	-56.4
3726.216	-52.4
3728.925	-62.4
3731.632	-48.4
3734.336	-54.4
3737.039	-50.4
3739.74	-56.4
3742.439	-58.4
3745.136	-56.4
3747.83	-51.4
3750.523	-59.4
3753.213	-63.4
3755.902	-57.4
3758.589	-55.4
3761.273	-48.4
3763.956	-58.4
3766.636	-53.4
3769.315	-52.4
3771.991	-58.4
3774.665	-60.4
3777.338	-56.4
3780.008	-55.4
3782.677	-53.4
3785.343	-59.4
3788.007	-54.4
3790.67	-63.4
3793.33	-58.4
3795.989	-61.4
3798.645	-57.4
3801.299	-58.4
3803.952	-50.4
3806.602	-54.4
3809.251	-53.4
3811.897	-66.4
3814.542	-63.4
3817.184	-60.4
3819.825	-53.4
3822.463	-58.4
3825.1	-56.4
3827.735	-64.4
3830.367	-62.4
3832.998	-60.4
3835.627	-63.4
3838.253	-55.4
3840.878	-53.4
3843.501	-56.4
3846.122	-57.4
3848.741	-60.4
3851.358	-57.4
3853.973	-59.4
3856.586	-61.4
3859.197	-57.4
3861.806	-56.4
3864.414	-59.4
3867.019	-52.4
3869.622	-56.4
3872.224	-49.4
3874.823	-43.4
3877.421	-36.4
3880.016	-25.4
3882.61	-10.4
3885.202	-3.4
3887.792	-11.4
3890.38	-26.4
3892.966	-41.4
3895.55	-50.4
3898.132	-53.4
3900.713	-58.4
3903.291	-60.4
3905.868	-56.4
3908.442	-60.4
3911.015	-57.4
3913.586	-66.4
3916.155	-60.4
3918.722	-63.4
3921.287	-59.4
3923.85	-54.4
3926.411	-61.4
3928.971	-65.4
3931.528	-60.4
3934.084	-51.4
3936.638	-55.4
3939.19	-64.4
3941.74	-57.4
3944.288	-59.4
3946.834	-59.4
3949.378	-56.4
3951.921	-60.4
3954.462	-59.4
3957	-56.4
3959.537	-52.4
3962.072	-59.4
3964.606	-56.4
3967.137	-54.4
3969.667	-57.4
3972.194	-58.4
3974.72	-53.4
3977.244	-55.4
3979.766	-65.4
3982.286	-63.4
3984.805	-62.4
3987.321	-59.4
3989.836	-56.4
3992.349	-55.4
3994.86	-62.4
3997.369	-63.4
3999.877	-62.4
4002.382	-59.4
4004.886	-57.4
4007.388	-57.4
4009.888	-53.4
4012.386	-61.4
4014.883	-57.4
4017.377	-55.4
4019.87	-55.4
4022.361	-63.4
4024.85	-55.4
4027.338	-63.4
4029.823	-59.4
4032.307	-60.4
4034.789	-52.4
4037.269	-59.4
4039.747	-62.4
4042.224	-60.4
4044.699	-60.4
4047.172	-56.4
4049.643	-60.4
4052.112	-59.4
4054.58	-57.4
4057.046	-54.4
4059.51	-64.4
4061.972	-63.4
4064.432	-59.4
4066.891	-54.4
4069.348	-54.4
4071.803	-52.4
4074.256	-58.4
4076.708	-61.4
4079.158	-57.4
4081.606	-58.4
4084.052	-55.4
4086.497	-52.4
4088.939	-56.4
4091.38	-62.4
4093.819	-65.4
4096.257	-58.4
4098.693	-60.4
4101.127	-55.4
4103.559	-67.4
4105.989	11.6
4108.418	9.6
4110.845	14.6
4113.27	10.6
4115.694	17.6
4118.115	18.6
4120.535	-58.4
4122.954	-58.4
4125.37	-56.4
4127.785	-48.4
4130.198	-51.4
4132.609	-61.4
4135.019	-63.4
4137.427	-66.4
4139.833	-64.4
4142.237	-60.4
