Data from 2018-3-7_conc=4_n=7_RamanShift_03.txt Node
Date: Wed Mar 07 12:09:22 IST 2018
User: aro
Spectrometer: QEPB0276
Trigger mode: 0
Integration Time (sec): 3.000000E1
Scans to average: 1
Electric dark correction enabled: true
Nonlinearity correction enabled: false
Boxcar width: 0
XAxis mode: Raman Shifts
Number of Pixels in Spectrum: 1044
>>>>>Begin Spectral Data<<<<<
160.701	12.6
166.742	18.6
172.777	47.6
178.805	147.6
184.826	369.6
190.841	778.6
196.849	1326.6
202.85	1744.6
208.845	1897.6
214.833	1887.6
220.815	1884.6
226.789	1847.6
232.758	1856.6
238.719	1875.6
244.674	1857.6
250.623	1854.6
256.565	1835.6
262.5	1814.6
268.429	1798.6
274.351	1779.6
280.267	1760.6
286.176	1775.6
292.079	1757.6
297.975	1755.6
303.865	1750.6
309.748	1751.6
315.625	1750.6
321.495	1732.6
327.359	1744.6
333.217	1732.6
339.068	1755.6
344.912	1761.6
350.751	1768.6
356.583	1743.6
362.408	1750.6
368.227	1759.6
374.04	1762.6
379.847	1782.6
385.647	1790.6
391.44	1794.6
397.228	1805.6
403.009	1804.6
408.784	1822.6
414.553	1848.6
420.315	1823.6
426.071	1828.6
431.821	1816.6
437.565	1815.6
443.302	1808.6
449.033	1838.6
454.758	1825.6
460.477	1796.6
466.189	1786.6
471.896	1763.6
477.596	1764.6
483.29	1753.6
488.978	1760.6
494.66	1750.6
500.335	1709.6
506.005	1644.6
511.668	1594.6
517.325	1550.6
522.977	1489.6
528.622	1467.6
534.261	1444.6
539.894	1425.6
545.521	1406.6
551.141	1385.6
556.756	1380.6
562.365	1392.6
567.968	1373.6
573.565	1363.6
579.155	1352.6
584.74	1354.6
590.319	1341.6
595.892	1342.6
601.459	1341.6
607.02	1343.6
612.575	1309.6
618.124	1322.6
623.667	1296.6
629.204	1283.6
634.735	1259.6
640.261	1253.6
645.781	1253.6
651.294	1242.6
656.802	1232.6
662.304	1241.6
667.8	1234.6
673.29	1239.6
678.775	1237.6
684.254	1247.6
689.726	1219.6
695.193	1209.6
700.655	1207.6
706.11	1201.6
711.56	1204.6
717.004	1179.6
722.442	1182.6
727.874	1178.6
733.301	1183.6
738.722	1163.6
744.137	1167.6
749.547	1165.6
754.951	1150.6
760.349	1161.6
765.741	1153.6
771.128	1170.6
776.509	1178.6
781.885	1197.6
787.254	1178.6
792.618	1198.6
797.977	1198.6
803.33	1188.6
808.677	1169.6
814.019	1168.6
819.355	1155.6
824.686	1128.6
830.011	1138.6
835.33	1119.6
840.644	1129.6
845.952	1129.6
851.255	1121.6
856.552	1133.6
861.844	1115.6
867.13	1098.6
872.41	1101.6
877.686	1088.6
882.955	1078.6
888.219	1080.6
893.478	1067.6
898.731	1051.6
903.979	1024.6
909.221	1020.6
914.458	1030.6
919.69	1018.6
924.916	1036.6
930.136	1035.6
935.351	1037.6
940.561	1023.6
945.766	1015.6
950.965	1019.6
956.158	1006.6
961.347	1004.6
966.529	995.6
971.707	972.6
976.879	959.6
982.046	969.6
987.208	945.6
992.364	953.6
997.515	932.6
1002.66	960.6
1007.801	968.6
1012.936	980.6
1018.066	973.6
1023.19	977.6
1028.309	975.6
1033.423	962.6
1038.532	962.6
1043.636	966.6
1048.734	951.6
1053.827	953.6
1058.915	927.6
1063.998	916.6
1069.075	913.6
1074.147	922.6
1079.214	933.6
1084.276	928.6
1089.333	927.6
1094.385	945.6
1099.431	919.6
1104.472	926.6
1109.509	924.6
1114.54	911.6
1119.565	898.6
1124.586	887.6
1129.602	880.6
1134.613	862.6
1139.618	860.6
1144.619	865.6
1149.614	860.6
1154.604	867.6
1159.589	872.6
1164.57	878.6
1169.545	867.6
1174.515	876.6
1179.48	864.6
1184.44	871.6
1189.395	855.6
1194.345	851.6
1199.29	837.6
1204.23	840.6
1209.165	824.6
1214.095	842.6
1219.021	849.6
1223.941	848.6
1228.856	859.6
1233.766	858.6
1238.672	852.6
1243.572	858.6
1248.467	851.6
1253.358	848.6
1258.244	836.6
1263.124	806.6
1268	809.6
1272.871	782.6
1277.737	782.6
1282.599	793.6
1287.455	782.6
1292.306	797.6
1297.153	787.6
1301.995	793.6
1306.832	814.6
1311.664	800.6
1316.491	796.6
1321.314	799.6
1326.132	793.6
1330.945	772.6
1335.753	766.6
1340.556	736.6
1345.354	739.6
1350.148	721.6
1354.937	698.6
1359.722	686.6
1364.501	687.6
1369.276	665.6
1374.046	660.6
1378.811	644.6
1383.572	646.6
1388.327	634.6
1393.079	634.6
1397.825	653.6
1402.567	647.6
1407.304	659.6
1412.036	658.6
1416.764	655.6
1421.487	651.6
1426.205	658.6
1430.919	652.6
1435.628	670.6
1440.333	688.6
1445.032	672.6
1449.727	695.6
1454.418	691.6
1459.104	665.6
1463.785	664.6
1468.462	642.6
1473.134	650.6
1477.802	625.6
1482.465	600.6
1487.123	591.6
1491.777	572.6
1496.426	575.6
1501.071	564.6
1505.711	562.6
1510.347	550.6
1514.978	546.6
1519.604	546.6
1524.226	546.6
1528.844	549.6
1533.457	540.6
1538.065	535.6
1542.669	533.6
1547.269	529.6
1551.864	538.6
1556.454	554.6
1561.041	573.6
1565.622	571.6
1570.199	564.6
1574.772	558.6
1579.34	574.6
1583.904	580.6
1588.464	600.6
1593.019	599.6
1597.569	596.6
1602.115	603.6
1606.657	594.6
1611.195	596.6
1615.728	587.6
1620.256	576.6
1624.78	592.6
1629.3	585.6
1633.816	594.6
1638.327	587.6
1642.834	602.6
1647.336	586.6
1651.834	583.6
1656.328	585.6
1660.817	588.6
1665.302	575.6
1669.783	568.6
1674.259	558.6
1678.732	537.6
1683.199	508.6
1687.663	504.6
1692.122	471.6
1696.577	453.6
1701.028	442.6
1705.474	406.6
1709.917	409.6
1714.355	389.6
1718.788	388.6
1723.218	397.6
1727.643	390.6
1732.064	389.6
1736.481	387.6
1740.893	375.6
1745.301	364.6
1749.705	370.6
1754.105	357.6
1758.501	344.6
1762.893	339.6
1767.28	335.6
1771.663	338.6
1776.042	331.6
1780.417	327.6
1784.787	324.6
1789.154	317.6
1793.516	297.6
1797.874	296.6
1802.228	294.6
1806.578	285.6
1810.924	278.6
1815.266	286.6
1819.603	279.6
1823.937	286.6
1828.266	291.6
1832.591	292.6
1836.913	297.6
1841.23	305.6
1845.543	300.6
1849.852	301.6
1854.156	302.6
1858.457	300.6
1862.754	307.6
1867.047	300.6
1871.335	298.6
1875.62	299.6
1879.9	297.6
1884.177	282.6
1888.449	293.6
1892.718	276.6
1896.982	286.6
1901.243	272.6
1905.499	267.6
1909.752	257.6
1914	258.6
1918.245	250.6
1922.485	250.6
1926.722	244.6
1930.954	238.6
1935.183	242.6
1939.408	246.6
1943.628	244.6
1947.845	237.6
1952.058	235.6
1956.267	227.6
1960.472	229.6
1964.673	215.6
1968.87	220.6
1973.063	219.6
1977.252	220.6
1981.438	224.6
1985.619	214.6
1989.797	223.6
1993.971	228.6
1998.14	231.6
2002.306	232.6
2006.469	237.6
2010.627	226.6
2014.781	228.6
2018.932	228.6
2023.078	234.6
2027.221	232.6
2031.36	228.6
2035.495	225.6
2039.627	209.6
2043.754	213.6
2047.878	207.6
2051.998	211.6
2056.114	208.6
2060.226	212.6
2064.334	205.6
2068.439	196.6
2072.54	205.6
2076.637	193.6
2080.73	205.6
2084.82	200.6
2088.906	197.6
2092.988	188.6
2097.066	189.6
2101.14	192.6
2105.211	187.6
2109.278	180.6
2113.342	176.6
2117.401	179.6
2121.457	176.6
2125.509	175.6
2129.558	167.6
2133.602	172.6
2137.643	172.6
2141.681	170.6
2145.714	177.6
2149.744	176.6
2153.77	173.6
2157.793	171.6
2161.812	186.6
2165.827	174.6
2169.838	167.6
2173.846	171.6
2177.851	167.6
2181.851	177.6
2185.848	166.6
2189.841	160.6
2193.831	161.6
2197.817	165.6
2201.799	166.6
2205.778	156.6
2209.753	168.6
2213.725	157.6
2217.693	161.6
2221.657	163.6
2225.618	157.6
2229.575	148.6
2233.529	146.6
2237.479	160.6
2241.425	155.6
2245.368	145.6
2249.307	153.6
2253.243	150.6
2257.175	145.6
2261.104	144.6
2265.029	135.6
2268.95	144.6
2272.868	136.6
2276.783	136.6
2280.694	135.6
2284.601	125.6
2288.505	132.6
2292.405	131.6
2296.302	139.6
2300.195	120.6
2304.085	128.6
2307.971	128.6
2311.854	126.6
2315.734	117.6
2319.609	131.6
2323.482	124.6
2327.351	123.6
2331.216	131.6
2335.078	148.6
2338.937	134.6
2342.792	126.6
2346.643	119.6
2350.492	125.6
2354.336	130.6
2358.178	114.6
2362.015	122.6
2365.85	117.6
2369.681	126.6
2373.508	125.6
2377.333	130.6
2381.153	112.6
2384.971	123.6
2388.785	120.6
2392.595	118.6
2396.402	118.6
2400.206	127.6
2404.007	119.6
2407.804	121.6
2411.597	121.6
2415.388	113.6
2419.174	125.6
2422.958	115.6
2426.738	117.6
2430.515	113.6
2434.289	116.6
2438.059	107.6
2441.825	109.6
2445.589	104.6
2449.349	106.6
2453.106	112.6
2456.859	109.6
2460.61	104.6
2464.356	97.6
2468.1	104.6
2471.84	91.6
2475.577	102.6
2479.311	99.6
2483.041	102.6
2486.768	99.6
2490.492	100.6
2494.213	92.6
2497.93	103.6
2501.644	95.6
2505.355	82.6
2509.062	87.6
2512.766	93.6
2516.467	89.6
2520.165	90.6
2523.859	81.6
2527.551	80.6
2531.239	79.6
2534.923	81.6
2538.605	72.6
2542.283	84.6
2545.958	84.6
2549.63	78.6
2553.299	77.6
2556.964	72.6
2560.626	68.6
2564.285	74.6
2567.941	70.6
2571.594	71.6
2575.243	64.6
2578.89	70.6
2582.533	63.6
2586.173	63.6
2589.809	64.6
2593.443	68.6
2597.073	65.6
2600.701	63.6
2604.325	57.6
2607.946	48.6
2611.564	67.6
2615.178	60.6
2618.79	59.6
2622.398	68.6
2626.004	67.6
2629.606	58.6
2633.205	64.6
2636.801	57.6
2640.394	59.6
2643.983	59.6
2647.57	52.6
2651.153	48.6
2654.734	54.6
2658.311	54.6
2661.885	53.6
2665.456	58.6
2669.025	61.6
2672.589	52.6
2676.151	49.6
2679.71	44.6
2683.266	51.6
2686.819	55.6
2690.368	45.6
2693.915	52.6
2697.458	43.6
2700.999	53.6
2704.536	48.6
2708.071	49.6
2711.602	35.6
2715.13	34.6
2718.656	37.6
2722.178	38.6
2725.697	38.6
2729.214	35.6
2732.727	39.6
2736.237	40.6
2739.744	28.6
2743.249	31.6
2746.75	29.6
2750.248	31.6
2753.743	34.6
2757.236	30.6
2760.725	23.6
2764.211	28.6
2767.695	19.6
2771.175	23.6
2774.652	18.6
2778.127	24.6
2781.598	21.6
2785.067	23.6
2788.532	17.6
2791.995	28.6
2795.455	18.6
2798.911	24.6
2802.365	27.6
2805.816	25.6
2809.264	25.6
2812.709	26.6
2816.151	34.6
2819.59	40.6
2823.026	25.6
2826.46	24.6
2829.89	29.6
2833.318	27.6
2836.742	31.6
2840.164	28.6
2843.583	22.6
2846.999	30.6
2850.412	29.6
2853.822	27.6
2857.229	27.6
2860.634	24.6
2864.035	35.6
2867.434	26.6
2870.83	36.6
2874.223	35.6
2877.613	35.6
2881	38.6
2884.385	37.6
2887.766	42.6
2891.145	44.6
2894.521	35.6
2897.894	41.6
2901.264	35.6
2904.631	38.6
2907.996	29.6
2911.358	49.6
2914.717	39.6
2918.073	39.6
2921.426	40.6
2924.777	43.6
2928.124	47.6
2931.469	49.6
2934.811	57.6
2938.15	54.6
2941.487	62.6
2944.821	52.6
2948.152	58.6
2951.48	49.6
2954.805	52.6
2958.128	56.6
2961.447	46.6
2964.765	43.6
2968.079	44.6
2971.39	43.6
2974.699	46.6
2978.005	60.6
2981.308	45.6
2984.609	46.6
2987.907	48.6
2991.202	49.6
2994.494	45.6
2997.784	49.6
3001.07	49.6
3004.355	50.6
3007.636	46.6
3010.915	51.6
3014.191	50.6
3017.464	54.6
3020.734	49.6
3024.002	54.6
3027.267	61.6
3030.53	61.6
3033.789	61.6
3037.046	55.6
3040.301	59.6
3043.552	59.6
3046.801	71.6
3050.048	69.6
3053.291	70.6
3056.532	79.6
3059.771	81.6
3063.006	87.6
3066.239	86.6
3069.469	91.6
3072.697	85.6
3075.922	103.6
3079.144	91.6
3082.364	97.6
3085.581	101.6
3088.795	103.6
3092.007	106.6
3095.216	107.6
3098.423	101.6
3101.627	106.6
3104.828	115.6
3108.026	113.6
3111.222	124.6
3114.416	123.6
3117.607	133.6
3120.795	132.6
3123.98	128.6
3127.163	145.6
3130.344	142.6
3133.521	142.6
3136.696	143.6
3139.869	153.6
3143.039	151.6
3146.206	158.6
3149.371	149.6
3152.533	167.6
3155.693	165.6
3158.85	158.6
3162.005	165.6
3165.157	163.6
3168.306	168.6
3171.453	167.6
3174.597	161.6
3177.739	168.6
3180.878	169.6
3184.014	165.6
3187.149	160.6
3190.28	159.6
3193.409	165.6
3196.536	166.6
3199.659	164.6
3202.781	168.6
3205.9	161.6
3209.016	167.6
3212.13	169.6
3215.241	171.6
3218.35	160.6
3221.456	164.6
3224.56	161.6
3227.661	156.6
3230.76	154.6
3233.856	160.6
3236.95	145.6
3240.041	149.6
3243.13	148.6
3246.216	142.6
3249.3	134.6
3252.382	131.6
3255.46	133.6
3258.537	127.6
3261.611	131.6
3264.682	133.6
3267.751	139.6
3270.818	120.6
3273.882	127.6
3276.943	126.6
3280.002	123.6
3283.059	124.6
3286.113	127.6
3289.165	113.6
3292.214	126.6
3295.261	120.6
3298.306	117.6
3301.348	117.6
3304.387	118.6
3307.425	113.6
3310.459	109.6
3313.492	117.6
3316.521	106.6
3319.549	116.6
3322.574	109.6
3325.597	110.6
3328.617	114.6
3331.635	115.6
3334.65	120.6
3337.663	108.6
3340.674	114.6
3343.682	111.6
3346.688	112.6
3349.691	114.6
3352.692	116.6
3355.691	121.6
3358.687	108.6
3361.681	113.6
3364.673	104.6
3367.662	103.6
3370.649	100.6
3373.633	103.6
3376.615	105.6
3379.595	95.6
3382.572	88.6
3385.547	91.6
3388.52	97.6
3391.49	94.6
3394.458	84.6
3397.424	88.6
3400.387	98.6
3403.348	83.6
3406.307	82.6
3409.263	84.6
3412.217	77.6
3415.168	79.6
3418.118	75.6
3421.065	74.6
3424.009	70.6
3426.951	69.6
3429.891	66.6
3432.829	65.6
3435.764	73.6
3438.697	66.6
3441.628	56.6
3444.557	60.6
3447.483	57.6
3450.407	48.6
3453.328	50.6
3456.247	46.6
3459.164	47.6
3462.079	36.6
3464.991	42.6
3467.902	32.6
3470.809	34.6
3473.715	30.6
3476.618	22.6
3479.519	18.6
3482.418	22.6
3485.315	24.6
3488.209	18.6
3491.101	14.6
3493.99	24.6
3496.878	9.6
3499.763	12.6
3502.646	10.6
3505.527	7.6
3508.405	10.6
3511.281	10.6
3514.155	-1.4
3517.027	-1.4
3519.897	1.6
3522.764	-1.4
3525.629	-2.4
3528.492	-3.4
3531.352	-10.4
3534.211	-5.4
3537.067	-17.4
3539.921	-15.4
3542.773	-12.4
3545.622	-16.4
3548.469	-14.4
3551.315	-14.4
3554.157	-21.4
3556.998	-18.4
3559.837	-21.4
3562.673	-21.4
3565.507	-20.4
3568.339	-19.4
3571.169	-23.4
3573.996	-20.4
3576.822	-32.4
3579.645	-29.4
3582.466	-28.4
3585.285	-31.4
3588.101	-32.4
3590.916	-25.4
3593.728	-32.4
3596.538	-32.4
3599.346	-35.4
3602.152	-33.4
3604.956	-26.4
3607.757	-28.4
3610.556	-31.4
3613.354	-40.4
3616.149	-38.4
3618.942	-33.4
3621.732	-37.4
3624.521	-36.4
3627.307	-34.4
3630.092	-39.4
3632.874	-43.4
3635.654	-42.4
3638.432	-46.4
3641.208	-42.4
3643.982	-40.4
3646.753	-44.4
3649.523	-35.4
3652.29	-42.4
3655.055	-37.4
3657.818	-41.4
3660.579	-41.4
3663.338	-40.4
3666.095	-41.4
3668.849	-47.4
3671.602	-45.4
3674.352	-37.4
3677.101	-41.4
3679.847	-42.4
3682.591	-45.4
3685.333	-46.4
3688.073	-50.4
3690.811	-46.4
3693.547	-51.4
3696.281	-44.4
3699.013	-47.4
3701.742	-52.4
3704.47	-47.4
3707.195	-48.4
3709.919	-50.4
3712.64	-46.4
3715.359	-52.4
3718.076	-49.4
3720.792	-52.4
3723.505	-50.4
3726.216	-41.4
3728.925	-51.4
3731.632	-51.4
3734.336	-51.4
3737.039	-47.4
3739.74	-55.4
3742.439	-64.4
3745.136	-51.4
3747.83	-54.4
3750.523	-55.4
3753.213	-59.4
3755.902	-55.4
3758.589	-55.4
3761.273	-52.4
3763.956	-57.4
3766.636	-52.4
3769.315	-45.4
3771.991	-51.4
3774.665	-53.4
3777.338	-51.4
3780.008	-54.4
3782.677	-56.4
3785.343	-50.4
3788.007	-56.4
3790.67	-56.4
3793.33	-55.4
3795.989	-57.4
3798.645	-56.4
3801.299	-53.4
3803.952	-56.4
3806.602	-56.4
3809.251	-55.4
3811.897	-61.4
3814.542	-60.4
3817.184	-53.4
3819.825	-50.4
3822.463	-51.4
3825.1	-48.4
3827.735	-54.4
3830.367	-53.4
3832.998	-57.4
3835.627	-52.4
3838.253	-48.4
3840.878	-49.4
3843.501	-50.4
3846.122	-58.4
3848.741	-58.4
3851.358	-55.4
3853.973	-51.4
3856.586	-53.4
3859.197	-59.4
3861.806	-55.4
3864.414	-58.4
3867.019	-53.4
3869.622	-48.4
3872.224	-43.4
3874.823	-35.4
3877.421	-32.4
3880.016	-22.4
3882.61	-6.4
3885.202	-10.4
3887.792	-17.4
3890.38	-28.4
3892.966	-44.4
3895.55	-52.4
3898.132	-53.4
3900.713	-55.4
3903.291	-58.4
3905.868	-53.4
3908.442	-53.4
3911.015	-57.4
3913.586	-59.4
3916.155	-57.4
3918.722	-57.4
3921.287	-52.4
3923.85	-45.4
3926.411	-57.4
3928.971	-61.4
3931.528	-53.4
3934.084	-54.4
3936.638	-52.4
3939.19	-62.4
3941.74	-51.4
3944.288	-55.4
3946.834	-54.4
3949.378	-54.4
3951.921	-62.4
3954.462	-57.4
3957	-50.4
3959.537	-45.4
3962.072	-53.4
3964.606	-53.4
3967.137	-49.4
3969.667	-54.4
3972.194	-52.4
3974.72	-48.4
3977.244	-47.4
3979.766	-55.4
3982.286	-53.4
3984.805	-63.4
3987.321	-52.4
3989.836	-51.4
3992.349	-56.4
3994.86	-59.4
3997.369	-55.4
3999.877	-55.4
4002.382	-59.4
4004.886	-51.4
4007.388	-56.4
4009.888	-52.4
4012.386	-57.4
4014.883	-48.4
4017.377	-45.4
4019.87	-51.4
4022.361	-59.4
4024.85	-51.4
4027.338	-53.4
4029.823	-58.4
4032.307	-60.4
4034.789	-53.4
4037.269	-56.4
4039.747	-59.4
4042.224	-54.4
4044.699	-60.4
4047.172	-60.4
4049.643	-58.4
4052.112	-55.4
4054.58	-49.4
4057.046	-52.4
4059.51	-54.4
4061.972	-58.4
4064.432	-55.4
4066.891	-52.4
4069.348	-48.4
4071.803	-52.4
4074.256	-50.4
4076.708	-53.4
4079.158	-55.4
4081.606	-58.4
4084.052	-58.4
4086.497	-55.4
4088.939	-51.4
4091.38	-58.4
4093.819	-56.4
4096.257	-55.4
4098.693	-56.4
4101.127	-51.4
4103.559	-61.4
4105.989	3.6
4108.418	4.6
4110.845	-0.4
4113.27	-2.4
4115.694	4.6
4118.115	4.6
4120.535	-57.4
4122.954	-53.4
4125.37	-52.4
4127.785	-48.4
4130.198	-48.4
4132.609	-55.4
4135.019	-58.4
4137.427	-54.4
4139.833	-56.4
4142.237	-57.4
