Data from 2018-3-7_conc=5_n=6_RamanShift_04.txt Node
Date: Wed Mar 07 12:41:52 IST 2018
User: aro
Spectrometer: QEPB0276
Trigger mode: 0
Integration Time (sec): 3.000000E1
Scans to average: 1
Electric dark correction enabled: true
Nonlinearity correction enabled: false
Boxcar width: 0
XAxis mode: Raman Shifts
Number of Pixels in Spectrum: 1044
>>>>>Begin Spectral Data<<<<<
160.701	9.6
166.742	15.6
172.777	56.6
178.805	191.6
184.826	506.6
190.841	1100.6
196.849	1876.6
202.85	2448.6
208.845	2691.6
214.833	2704.6
220.815	2652.6
226.789	2628.6
232.758	2669.6
238.719	2668.6
244.674	2640.6
250.623	2624.6
256.565	2617.6
262.5	2522.6
268.429	2544.6
274.351	2493.6
280.267	2487.6
286.176	2468.6
292.079	2480.6
297.975	2457.6
303.865	2461.6
309.748	2428.6
315.625	2439.6
321.495	2433.6
327.359	2450.6
333.217	2423.6
339.068	2438.6
344.912	2444.6
350.751	2437.6
356.583	2437.6
362.408	2437.6
368.227	2446.6
374.04	2450.6
379.847	2455.6
385.647	2444.6
391.44	2457.6
397.228	2471.6
403.009	2496.6
408.784	2499.6
414.553	2520.6
420.315	2508.6
426.071	2509.6
431.821	2494.6
437.565	2498.6
443.302	2475.6
449.033	2482.6
454.758	2502.6
460.477	2466.6
466.189	2441.6
471.896	2425.6
477.596	2445.6
483.29	2425.6
488.978	2428.6
494.66	2413.6
500.335	2387.6
506.005	2337.6
511.668	2256.6
517.325	2225.6
522.977	2156.6
528.622	2140.6
534.261	2101.6
539.894	2095.6
545.521	2064.6
551.141	2057.6
556.756	2029.6
562.365	2033.6
567.968	2040.6
573.565	2024.6
579.155	2014.6
584.74	2012.6
590.319	1985.6
595.892	1972.6
601.459	1980.6
607.02	1973.6
612.575	1964.6
618.124	1940.6
623.667	1919.6
629.204	1901.6
634.735	1881.6
640.261	1871.6
645.781	1868.6
651.294	1857.6
656.802	1855.6
662.304	1840.6
667.8	1858.6
673.29	1840.6
678.775	1840.6
684.254	1833.6
689.726	1823.6
695.193	1836.6
700.655	1810.6
706.11	1805.6
711.56	1798.6
717.004	1780.6
722.442	1755.6
727.874	1761.6
733.301	1760.6
738.722	1746.6
744.137	1742.6
749.547	1742.6
754.951	1742.6
760.349	1733.6
765.741	1748.6
771.128	1743.6
776.509	1760.6
781.885	1770.6
787.254	1750.6
792.618	1765.6
797.977	1766.6
803.33	1733.6
808.677	1721.6
814.019	1710.6
819.355	1702.6
824.686	1685.6
830.011	1700.6
835.33	1679.6
840.644	1673.6
845.952	1686.6
851.255	1685.6
856.552	1690.6
861.844	1671.6
867.13	1654.6
872.41	1656.6
877.686	1631.6
882.955	1640.6
888.219	1614.6
893.478	1585.6
898.731	1596.6
903.979	1569.6
909.221	1567.6
914.458	1549.6
919.69	1535.6
924.916	1550.6
930.136	1559.6
935.351	1551.6
940.561	1556.6
945.766	1560.6
950.965	1542.6
956.158	1547.6
961.347	1515.6
966.529	1496.6
971.707	1478.6
976.879	1443.6
982.046	1444.6
987.208	1439.6
992.364	1432.6
997.515	1439.6
1002.66	1443.6
1007.801	1477.6
1012.936	1491.6
1018.066	1491.6
1023.19	1479.6
1028.309	1491.6
1033.423	1474.6
1038.532	1473.6
1043.636	1458.6
1048.734	1454.6
1053.827	1397.6
1058.915	1400.6
1063.998	1398.6
1069.075	1382.6
1074.147	1389.6
1079.214	1376.6
1084.276	1402.6
1089.333	1407.6
1094.385	1402.6
1099.431	1410.6
1104.472	1405.6
1109.509	1399.6
1114.54	1380.6
1119.565	1356.6
1124.586	1347.6
1129.602	1326.6
1134.613	1321.6
1139.618	1306.6
1144.619	1311.6
1149.614	1319.6
1154.604	1319.6
1159.589	1319.6
1164.57	1325.6
1169.545	1320.6
1174.515	1313.6
1179.48	1299.6
1184.44	1295.6
1189.395	1301.6
1194.345	1270.6
1199.29	1266.6
1204.23	1281.6
1209.165	1269.6
1214.095	1291.6
1219.021	1297.6
1223.941	1297.6
1228.856	1308.6
1233.766	1307.6
1238.672	1316.6
1243.572	1304.6
1248.467	1299.6
1253.358	1295.6
1258.244	1278.6
1263.124	1251.6
1268	1238.6
1272.871	1197.6
1277.737	1212.6
1282.599	1200.6
1287.455	1177.6
1292.306	1195.6
1297.153	1212.6
1301.995	1219.6
1306.832	1223.6
1311.664	1219.6
1316.491	1229.6
1321.314	1228.6
1326.132	1219.6
1330.945	1208.6
1335.753	1196.6
1340.556	1159.6
1345.354	1142.6
1350.148	1115.6
1354.937	1089.6
1359.722	1063.6
1364.501	1037.6
1369.276	1010.6
1374.046	983.6
1378.811	960.6
1383.572	978.6
1388.327	969.6
1393.079	972.6
1397.825	986.6
1402.567	994.6
1407.304	995.6
1412.036	997.6
1416.764	1004.6
1421.487	1012.6
1426.205	1007.6
1430.919	1006.6
1435.628	1022.6
1440.333	1021.6
1445.032	1024.6
1449.727	1066.6
1454.418	1040.6
1459.104	1036.6
1463.785	1020.6
1468.462	999.6
1473.134	989.6
1477.802	955.6
1482.465	931.6
1487.123	912.6
1491.777	887.6
1496.426	880.6
1501.071	871.6
1505.711	853.6
1510.347	856.6
1514.978	836.6
1519.604	835.6
1524.226	841.6
1528.844	823.6
1533.457	816.6
1538.065	809.6
1542.669	809.6
1547.269	815.6
1551.864	833.6
1556.454	829.6
1561.041	842.6
1565.622	848.6
1570.199	863.6
1574.772	865.6
1579.34	890.6
1583.904	891.6
1588.464	916.6
1593.019	919.6
1597.569	913.6
1602.115	912.6
1606.657	908.6
1611.195	901.6
1615.728	890.6
1620.256	891.6
1624.78	897.6
1629.3	894.6
1633.816	886.6
1638.327	913.6
1642.834	900.6
1647.336	901.6
1651.834	894.6
1656.328	905.6
1660.817	889.6
1665.302	876.6
1669.783	863.6
1674.259	853.6
1678.732	820.6
1683.199	785.6
1687.663	764.6
1692.122	715.6
1696.577	688.6
1701.028	657.6
1705.474	613.6
1709.917	603.6
1714.355	574.6
1718.788	583.6
1723.218	591.6
1727.643	579.6
1732.064	582.6
1736.481	595.6
1740.893	569.6
1745.301	571.6
1749.705	566.6
1754.105	544.6
1758.501	541.6
1762.893	520.6
1767.28	510.6
1771.663	519.6
1776.042	504.6
1780.417	492.6
1784.787	485.6
1789.154	467.6
1793.516	446.6
1797.874	441.6
1802.228	439.6
1806.578	434.6
1810.924	416.6
1815.266	422.6
1819.603	424.6
1823.937	430.6
1828.266	426.6
1832.591	436.6
1836.913	436.6
1841.23	451.6
1845.543	442.6
1849.852	457.6
1854.156	467.6
1858.457	452.6
1862.754	453.6
1867.047	451.6
1871.335	454.6
1875.62	451.6
1879.9	467.6
1884.177	451.6
1888.449	444.6
1892.718	446.6
1896.982	423.6
1901.243	413.6
1905.499	405.6
1909.752	391.6
1914	381.6
1918.245	380.6
1922.485	370.6
1926.722	362.6
1930.954	356.6
1935.183	365.6
1939.408	356.6
1943.628	355.6
1947.845	342.6
1952.058	334.6
1956.267	329.6
1960.472	338.6
1964.673	330.6
1968.87	341.6
1973.063	334.6
1977.252	328.6
1981.438	330.6
1985.619	332.6
1989.797	338.6
1993.971	344.6
1998.14	343.6
2002.306	349.6
2006.469	351.6
2010.627	353.6
2014.781	356.6
2018.932	344.6
2023.078	349.6
2027.221	344.6
2031.36	341.6
2035.495	336.6
2039.627	332.6
2043.754	331.6
2047.878	333.6
2051.998	322.6
2056.114	313.6
2060.226	315.6
2064.334	317.6
2068.439	319.6
2072.54	307.6
2076.637	302.6
2080.73	296.6
2084.82	309.6
2088.906	296.6
2092.988	293.6
2097.066	291.6
2101.14	276.6
2105.211	275.6
2109.278	277.6
2113.342	269.6
2117.401	264.6
2121.457	263.6
2125.509	258.6
2129.558	253.6
2133.602	265.6
2137.643	267.6
2141.681	259.6
2145.714	277.6
2149.744	269.6
2153.77	269.6
2157.793	277.6
2161.812	277.6
2165.827	268.6
2169.838	271.6
2173.846	263.6
2177.851	262.6
2181.851	261.6
2185.848	257.6
2189.841	260.6
2193.831	244.6
2197.817	256.6
2201.799	248.6
2205.778	244.6
2209.753	254.6
2213.725	244.6
2217.693	251.6
2221.657	256.6
2225.618	241.6
2229.575	234.6
2233.529	246.6
2237.479	248.6
2241.425	236.6
2245.368	245.6
2249.307	236.6
2253.243	225.6
2257.175	225.6
2261.104	218.6
2265.029	225.6
2268.95	218.6
2272.868	219.6
2276.783	206.6
2280.694	200.6
2284.601	209.6
2288.505	210.6
2292.405	203.6
2296.302	214.6
2300.195	210.6
2304.085	206.6
2307.971	197.6
2311.854	193.6
2315.734	199.6
2319.609	199.6
2323.482	196.6
2327.351	200.6
2331.216	196.6
2335.078	207.6
2338.937	202.6
2342.792	188.6
2346.643	196.6
2350.492	195.6
2354.336	201.6
2358.178	189.6
2362.015	187.6
2365.85	188.6
2369.681	203.6
2373.508	206.6
2377.333	205.6
2381.153	206.6
2384.971	202.6
2388.785	200.6
2392.595	196.6
2396.402	197.6
2400.206	195.6
2404.007	191.6
2407.804	194.6
2411.597	196.6
2415.388	198.6
2419.174	203.6
2422.958	189.6
2426.738	192.6
2430.515	185.6
2434.289	195.6
2438.059	178.6
2441.825	181.6
2445.589	177.6
2449.349	182.6
2453.106	184.6
2456.859	176.6
2460.61	174.6
2464.356	170.6
2468.1	174.6
2471.84	176.6
2475.577	169.6
2479.311	169.6
2483.041	167.6
2486.768	159.6
2490.492	165.6
2494.213	161.6
2497.93	158.6
2501.644	160.6
2505.355	157.6
2509.062	150.6
2512.766	148.6
2516.467	145.6
2520.165	147.6
2523.859	148.6
2527.551	138.6
2531.239	142.6
2534.923	130.6
2538.605	135.6
2542.283	129.6
2545.958	128.6
2549.63	125.6
2553.299	128.6
2556.964	126.6
2560.626	127.6
2564.285	123.6
2567.941	122.6
2571.594	114.6
2575.243	121.6
2578.89	119.6
2582.533	113.6
2586.173	108.6
2589.809	119.6
2593.443	116.6
2597.073	112.6
2600.701	110.6
2604.325	108.6
2607.946	96.6
2611.564	108.6
2615.178	103.6
2618.79	107.6
2622.398	102.6
2626.004	108.6
2629.606	109.6
2633.205	108.6
2636.801	102.6
2640.394	104.6
2643.983	98.6
2647.57	99.6
2651.153	95.6
2654.734	94.6
2658.311	98.6
2661.885	95.6
2665.456	98.6
2669.025	90.6
2672.589	92.6
2676.151	90.6
2679.71	89.6
2683.266	96.6
2686.819	93.6
2690.368	92.6
2693.915	94.6
2697.458	80.6
2700.999	80.6
2704.536	88.6
2708.071	83.6
2711.602	81.6
2715.13	75.6
2718.656	74.6
2722.178	73.6
2725.697	69.6
2729.214	71.6
2732.727	75.6
2736.237	72.6
2739.744	66.6
2743.249	64.6
2746.75	62.6
2750.248	54.6
2753.743	55.6
2757.236	50.6
2760.725	53.6
2764.211	48.6
2767.695	41.6
2771.175	49.6
2774.652	52.6
2778.127	50.6
2781.598	48.6
2785.067	47.6
2788.532	43.6
2791.995	53.6
2795.455	48.6
2798.911	48.6
2802.365	47.6
2805.816	50.6
2809.264	46.6
2812.709	51.6
2816.151	54.6
2819.59	58.6
2823.026	52.6
2826.46	56.6
2829.89	52.6
2833.318	54.6
2836.742	55.6
2840.164	51.6
2843.583	50.6
2846.999	52.6
2850.412	55.6
2853.822	53.6
2857.229	63.6
2860.634	52.6
2864.035	55.6
2867.434	55.6
2870.83	65.6
2874.223	64.6
2877.613	67.6
2881	60.6
2884.385	69.6
2887.766	67.6
2891.145	70.6
2894.521	75.6
2897.894	72.6
2901.264	70.6
2904.631	69.6
2907.996	73.6
2911.358	85.6
2914.717	78.6
2918.073	78.6
2921.426	69.6
2924.777	82.6
2928.124	82.6
2931.469	89.6
2934.811	93.6
2938.15	94.6
2941.487	103.6
2944.821	89.6
2948.152	98.6
2951.48	94.6
2954.805	90.6
2958.128	78.6
2961.447	90.6
2964.765	84.6
2968.079	75.6
2971.39	85.6
2974.699	86.6
2978.005	91.6
2981.308	82.6
2984.609	87.6
2987.907	82.6
2991.202	90.6
2994.494	87.6
2997.784	72.6
3001.07	83.6
3004.355	81.6
3007.636	85.6
3010.915	93.6
3014.191	88.6
3017.464	92.6
3020.734	96.6
3024.002	94.6
3027.267	96.6
3030.53	100.6
3033.789	99.6
3037.046	104.6
3040.301	100.6
3043.552	113.6
3046.801	107.6
3050.048	114.6
3053.291	125.6
3056.532	127.6
3059.771	130.6
3063.006	144.6
3066.239	144.6
3069.469	150.6
3072.697	149.6
3075.922	163.6
3079.144	160.6
3082.364	166.6
3085.581	173.6
3088.795	178.6
3092.007	180.6
3095.216	181.6
3098.423	181.6
3101.627	176.6
3104.828	190.6
3108.026	190.6
3111.222	192.6
3114.416	200.6
3117.607	205.6
3120.795	210.6
3123.98	222.6
3127.163	227.6
3130.344	219.6
3133.521	234.6
3136.696	225.6
3139.869	240.6
3143.039	235.6
3146.206	257.6
3149.371	248.6
3152.533	261.6
3155.693	257.6
3158.85	264.6
3162.005	251.6
3165.157	262.6
3168.306	262.6
3171.453	265.6
3174.597	252.6
3177.739	263.6
3180.878	270.6
3184.014	264.6
3187.149	269.6
3190.28	269.6
3193.409	265.6
3196.536	267.6
3199.659	266.6
3202.781	264.6
3205.9	260.6
3209.016	270.6
3212.13	270.6
3215.241	260.6
3218.35	259.6
3221.456	263.6
3224.56	247.6
3227.661	249.6
3230.76	242.6
3233.856	245.6
3236.95	233.6
3240.041	233.6
3243.13	233.6
3246.216	223.6
3249.3	223.6
3252.382	228.6
3255.46	221.6
3258.537	212.6
3261.611	216.6
3264.682	203.6
3267.751	220.6
3270.818	194.6
3273.882	206.6
3276.943	202.6
3280.002	203.6
3283.059	201.6
3286.113	200.6
3289.165	198.6
3292.214	194.6
3295.261	194.6
3298.306	189.6
3301.348	190.6
3304.387	192.6
3307.425	183.6
3310.459	177.6
3313.492	185.6
3316.521	191.6
3319.549	190.6
3322.574	176.6
3325.597	182.6
3328.617	182.6
3331.635	191.6
3334.65	194.6
3337.663	183.6
3340.674	188.6
3343.682	185.6
3346.688	184.6
3349.691	189.6
3352.692	189.6
3355.691	193.6
3358.687	189.6
3361.681	185.6
3364.673	176.6
3367.662	175.6
3370.649	176.6
3373.633	169.6
3376.615	163.6
3379.595	161.6
3382.572	157.6
3385.547	159.6
3388.52	152.6
3391.49	155.6
3394.458	147.6
3397.424	152.6
3400.387	149.6
3403.348	138.6
3406.307	141.6
3409.263	139.6
3412.217	137.6
3415.168	143.6
3418.118	138.6
3421.065	127.6
3424.009	133.6
3426.951	124.6
3429.891	127.6
3432.829	113.6
3435.764	114.6
3438.697	115.6
3441.628	98.6
3444.557	102.6
3447.483	101.6
3450.407	92.6
3453.328	92.6
3456.247	83.6
3459.164	84.6
3462.079	71.6
3464.991	76.6
3467.902	75.6
3470.809	69.6
3473.715	64.6
3476.618	67.6
3479.519	55.6
3482.418	49.6
3485.315	52.6
3488.209	44.6
3491.101	42.6
3493.99	44.6
3496.878	33.6
3499.763	31.6
3502.646	30.6
3505.527	30.6
3508.405	27.6
3511.281	25.6
3514.155	21.6
3517.027	15.6
3519.897	17.6
3522.764	7.6
3525.629	14.6
3528.492	11.6
3531.352	1.6
3534.211	2.6
3537.067	-0.4
3539.921	-2.4
3542.773	-4.4
3545.622	-3.4
3548.469	-6.4
3551.315	-2.4
3554.157	-14.4
3556.998	-15.4
3559.837	-19.4
3562.673	-20.4
3565.507	-18.4
3568.339	-18.4
3571.169	-22.4
3573.996	-17.4
3576.822	-26.4
3579.645	-25.4
3582.466	-25.4
3585.285	-28.4
3588.101	-28.4
3590.916	-23.4
3593.728	-31.4
3596.538	-28.4
3599.346	-34.4
3602.152	-29.4
3604.956	-30.4
3607.757	-32.4
3610.556	-32.4
3613.354	-46.4
3616.149	-44.4
3618.942	-41.4
3621.732	-44.4
3624.521	-39.4
3627.307	-46.4
3630.092	-44.4
3632.874	-39.4
3635.654	-46.4
3638.432	-42.4
3641.208	-43.4
3643.982	-42.4
3646.753	-46.4
3649.523	-44.4
3652.29	-50.4
3655.055	-49.4
3657.818	-46.4
3660.579	-47.4
3663.338	-46.4
3666.095	-49.4
3668.849	-56.4
3671.602	-50.4
3674.352	-50.4
3677.101	-51.4
3679.847	-53.4
3682.591	-60.4
3685.333	-56.4
3688.073	-61.4
3690.811	-54.4
3693.547	-59.4
3696.281	-53.4
3699.013	-54.4
3701.742	-62.4
3704.47	-48.4
3707.195	-56.4
3709.919	-56.4
3712.64	-55.4
3715.359	-55.4
3718.076	-61.4
3720.792	-56.4
3723.505	-63.4
3726.216	-56.4
3728.925	-64.4
3731.632	-54.4
3734.336	-61.4
3737.039	-55.4
3739.74	-67.4
3742.439	-68.4
3745.136	-62.4
3747.83	-61.4
3750.523	-64.4
3753.213	-67.4
3755.902	-60.4
3758.589	-62.4
3761.273	-62.4
3763.956	-58.4
3766.636	-57.4
3769.315	-56.4
3771.991	-61.4
3774.665	-66.4
3777.338	-66.4
3780.008	-67.4
3782.677	-69.4
3785.343	-62.4
3788.007	-63.4
3790.67	-67.4
3793.33	-67.4
3795.989	-61.4
3798.645	-68.4
3801.299	-62.4
3803.952	-56.4
3806.602	-62.4
3809.251	-64.4
3811.897	-65.4
3814.542	-71.4
3817.184	-58.4
3819.825	-58.4
3822.463	-57.4
3825.1	-59.4
3827.735	-68.4
3830.367	-68.4
3832.998	-66.4
3835.627	-63.4
3838.253	-60.4
3840.878	-61.4
3843.501	-60.4
3846.122	-66.4
3848.741	-68.4
3851.358	-62.4
3853.973	-61.4
3856.586	-60.4
3859.197	-62.4
3861.806	-61.4
3864.414	-62.4
3867.019	-64.4
3869.622	-58.4
3872.224	-56.4
3874.823	-46.4
3877.421	-40.4
3880.016	-31.4
3882.61	-15.4
3885.202	-19.4
3887.792	-21.4
3890.38	-35.4
3892.966	-57.4
3895.55	-57.4
3898.132	-66.4
3900.713	-67.4
3903.291	-62.4
3905.868	-61.4
3908.442	-62.4
3911.015	-61.4
3913.586	-64.4
3916.155	-61.4
3918.722	-70.4
3921.287	-62.4
3923.85	-57.4
3926.411	-68.4
3928.971	-73.4
3931.528	-64.4
3934.084	-65.4
3936.638	-61.4
3939.19	-70.4
3941.74	-64.4
3944.288	-67.4
3946.834	-65.4
3949.378	-71.4
3951.921	-69.4
3954.462	-67.4
3957	-60.4
3959.537	-58.4
3962.072	-62.4
3964.606	-60.4
3967.137	-63.4
3969.667	-66.4
3972.194	-65.4
3974.72	-63.4
3977.244	-66.4
3979.766	-62.4
3982.286	-67.4
3984.805	-74.4
3987.321	-62.4
3989.836	-60.4
3992.349	-69.4
3994.86	-70.4
3997.369	-64.4
3999.877	-66.4
4002.382	-64.4
4004.886	-63.4
4007.388	-65.4
4009.888	-66.4
4012.386	-62.4
4014.883	-64.4
4017.377	-59.4
4019.87	-60.4
4022.361	-66.4
4024.85	-59.4
4027.338	-61.4
4029.823	-67.4
4032.307	-65.4
4034.789	-61.4
4037.269	-67.4
4039.747	-65.4
4042.224	-66.4
4044.699	-71.4
4047.172	-70.4
4049.643	-68.4
4052.112	-63.4
4054.58	-66.4
4057.046	-64.4
4059.51	-71.4
4061.972	-64.4
4064.432	-65.4
4066.891	-58.4
4069.348	-61.4
4071.803	-55.4
4074.256	-57.4
4076.708	-64.4
4079.158	-67.4
4081.606	-66.4
4084.052	-62.4
4086.497	-56.4
4088.939	-59.4
4091.38	-64.4
4093.819	-70.4
4096.257	-71.4
4098.693	-68.4
4101.127	-64.4
4103.559	-71.4
4105.989	-4.4
4108.418	-9.4
4110.845	-15.4
4113.27	-7.4
4115.694	-2.4
4118.115	-0.4
4120.535	-67.4
4122.954	-63.4
4125.37	-64.4
4127.785	-66.4
4130.198	-62.4
4132.609	-71.4
4135.019	-66.4
4137.427	-72.4
4139.833	-66.4
4142.237	-68.4
