Data from 2018-3-7_conc=4_n=8_RamanShift_03.txt Node
Date: Wed Mar 07 12:13:22 IST 2018
User: aro
Spectrometer: QEPB0276
Trigger mode: 0
Integration Time (sec): 3.000000E1
Scans to average: 1
Electric dark correction enabled: true
Nonlinearity correction enabled: false
Boxcar width: 0
XAxis mode: Raman Shifts
Number of Pixels in Spectrum: 1044
>>>>>Begin Spectral Data<<<<<
160.701	14.2
166.742	19.2
172.777	54.2
178.805	159.2
184.826	405.2
190.841	858.2
196.849	1420.2
202.85	1874.2
208.845	2058.2
214.833	2050.2
220.815	2015.2
226.789	2002.2
232.758	2022.2
238.719	2021.2
244.674	2009.2
250.623	2002.2
256.565	1969.2
262.5	1931.2
268.429	1919.2
274.351	1912.2
280.267	1891.2
286.176	1885.2
292.079	1893.2
297.975	1873.2
303.865	1884.2
309.748	1866.2
315.625	1878.2
321.495	1861.2
327.359	1873.2
333.217	1869.2
339.068	1872.2
344.912	1875.2
350.751	1878.2
356.583	1882.2
362.408	1884.2
368.227	1892.2
374.04	1904.2
379.847	1901.2
385.647	1922.2
391.44	1917.2
397.228	1924.2
403.009	1938.2
408.784	1935.2
414.553	1947.2
420.315	1951.2
426.071	1975.2
431.821	1954.2
437.565	1947.2
443.302	1955.2
449.033	1957.2
454.758	1940.2
460.477	1916.2
466.189	1900.2
471.896	1878.2
477.596	1884.2
483.29	1872.2
488.978	1897.2
494.66	1861.2
500.335	1822.2
506.005	1790.2
511.668	1721.2
517.325	1664.2
522.977	1615.2
528.622	1589.2
534.261	1571.2
539.894	1545.2
545.521	1524.2
551.141	1508.2
556.756	1497.2
562.365	1495.2
567.968	1457.2
573.565	1459.2
579.155	1456.2
584.74	1455.2
590.319	1449.2
595.892	1463.2
601.459	1430.2
607.02	1422.2
612.575	1432.2
618.124	1407.2
623.667	1402.2
629.204	1387.2
634.735	1374.2
640.261	1355.2
645.781	1366.2
651.294	1356.2
656.802	1351.2
662.304	1343.2
667.8	1332.2
673.29	1338.2
678.775	1330.2
684.254	1334.2
689.726	1328.2
695.193	1317.2
700.655	1321.2
706.11	1298.2
711.56	1287.2
717.004	1288.2
722.442	1270.2
727.874	1268.2
733.301	1274.2
738.722	1247.2
744.137	1262.2
749.547	1255.2
754.951	1253.2
760.349	1257.2
765.741	1252.2
771.128	1261.2
776.509	1268.2
781.885	1285.2
787.254	1274.2
792.618	1287.2
797.977	1287.2
803.33	1272.2
808.677	1263.2
814.019	1247.2
819.355	1236.2
824.686	1230.2
830.011	1209.2
835.33	1225.2
840.644	1222.2
845.952	1210.2
851.255	1202.2
856.552	1217.2
861.844	1193.2
867.13	1186.2
872.41	1176.2
877.686	1190.2
882.955	1182.2
888.219	1176.2
893.478	1156.2
898.731	1130.2
903.979	1120.2
909.221	1107.2
914.458	1107.2
919.69	1110.2
924.916	1107.2
930.136	1102.2
935.351	1104.2
940.561	1117.2
945.766	1114.2
950.965	1107.2
956.158	1093.2
961.347	1079.2
966.529	1058.2
971.707	1049.2
976.879	1024.2
982.046	1022.2
987.208	1020.2
992.364	1026.2
997.515	1013.2
1002.66	1037.2
1007.801	1045.2
1012.936	1047.2
1018.066	1057.2
1023.19	1053.2
1028.309	1050.2
1033.423	1036.2
1038.532	1056.2
1043.636	1035.2
1048.734	1030.2
1053.827	1015.2
1058.915	998.2
1063.998	998.2
1069.075	988.2
1074.147	995.2
1079.214	985.2
1084.276	983.2
1089.333	1005.2
1094.385	1005.2
1099.431	1008.2
1104.472	997.2
1109.509	988.2
1114.54	966.2
1119.565	960.2
1124.586	948.2
1129.602	939.2
1134.613	928.2
1139.618	936.2
1144.619	923.2
1149.614	936.2
1154.604	921.2
1159.589	948.2
1164.57	929.2
1169.545	924.2
1174.515	930.2
1179.48	922.2
1184.44	932.2
1189.395	909.2
1194.345	904.2
1199.29	892.2
1204.23	891.2
1209.165	904.2
1214.095	901.2
1219.021	904.2
1223.941	928.2
1228.856	924.2
1233.766	929.2
1238.672	928.2
1243.572	933.2
1248.467	925.2
1253.358	912.2
1258.244	885.2
1263.124	874.2
1268	855.2
1272.871	850.2
1277.737	841.2
1282.599	849.2
1287.455	847.2
1292.306	825.2
1297.153	847.2
1301.995	851.2
1306.832	857.2
1311.664	866.2
1316.491	858.2
1321.314	867.2
1326.132	851.2
1330.945	821.2
1335.753	839.2
1340.556	799.2
1345.354	788.2
1350.148	783.2
1354.937	755.2
1359.722	748.2
1364.501	717.2
1369.276	723.2
1374.046	698.2
1378.811	688.2
1383.572	699.2
1388.327	682.2
1393.079	689.2
1397.825	696.2
1402.567	701.2
1407.304	705.2
1412.036	698.2
1416.764	701.2
1421.487	716.2
1426.205	703.2
1430.919	694.2
1435.628	718.2
1440.333	727.2
1445.032	712.2
1449.727	746.2
1454.418	744.2
1459.104	722.2
1463.785	710.2
1468.462	700.2
1473.134	683.2
1477.802	661.2
1482.465	643.2
1487.123	632.2
1491.777	613.2
1496.426	623.2
1501.071	600.2
1505.711	607.2
1510.347	595.2
1514.978	603.2
1519.604	583.2
1524.226	589.2
1528.844	578.2
1533.457	580.2
1538.065	585.2
1542.669	570.2
1547.269	567.2
1551.864	581.2
1556.454	603.2
1561.041	595.2
1565.622	610.2
1570.199	613.2
1574.772	610.2
1579.34	612.2
1583.904	626.2
1588.464	638.2
1593.019	633.2
1597.569	636.2
1602.115	633.2
1606.657	626.2
1611.195	634.2
1615.728	631.2
1620.256	620.2
1624.78	636.2
1629.3	632.2
1633.816	634.2
1638.327	635.2
1642.834	633.2
1647.336	643.2
1651.834	633.2
1656.328	636.2
1660.817	618.2
1665.302	621.2
1669.783	606.2
1674.259	583.2
1678.732	578.2
1683.199	549.2
1687.663	533.2
1692.122	509.2
1696.577	487.2
1701.028	463.2
1705.474	427.2
1709.917	429.2
1714.355	421.2
1718.788	419.2
1723.218	413.2
1727.643	419.2
1732.064	427.2
1736.481	413.2
1740.893	399.2
1745.301	398.2
1749.705	386.2
1754.105	378.2
1758.501	372.2
1762.893	360.2
1767.28	354.2
1771.663	353.2
1776.042	352.2
1780.417	345.2
1784.787	342.2
1789.154	334.2
1793.516	321.2
1797.874	310.2
1802.228	316.2
1806.578	300.2
1810.924	295.2
1815.266	318.2
1819.603	309.2
1823.937	303.2
1828.266	308.2
1832.591	313.2
1836.913	309.2
1841.23	306.2
1845.543	312.2
1849.852	316.2
1854.156	325.2
1858.457	314.2
1862.754	321.2
1867.047	315.2
1871.335	318.2
1875.62	325.2
1879.9	311.2
1884.177	306.2
1888.449	311.2
1892.718	300.2
1896.982	297.2
1901.243	288.2
1905.499	282.2
1909.752	278.2
1914	273.2
1918.245	269.2
1922.485	265.2
1926.722	258.2
1930.954	254.2
1935.183	255.2
1939.408	259.2
1943.628	254.2
1947.845	249.2
1952.058	246.2
1956.267	237.2
1960.472	238.2
1964.673	238.2
1968.87	232.2
1973.063	233.2
1977.252	240.2
1981.438	238.2
1985.619	235.2
1989.797	226.2
1993.971	236.2
1998.14	238.2
2002.306	239.2
2006.469	250.2
2010.627	245.2
2014.781	242.2
2018.932	229.2
2023.078	237.2
2027.221	240.2
2031.36	233.2
2035.495	236.2
2039.627	228.2
2043.754	233.2
2047.878	230.2
2051.998	225.2
2056.114	212.2
2060.226	216.2
2064.334	218.2
2068.439	212.2
2072.54	211.2
2076.637	211.2
2080.73	211.2
2084.82	210.2
2088.906	204.2
2092.988	201.2
2097.066	202.2
2101.14	211.2
2105.211	194.2
2109.278	189.2
2113.342	177.2
2117.401	190.2
2121.457	183.2
2125.509	183.2
2129.558	182.2
2133.602	182.2
2137.643	184.2
2141.681	182.2
2145.714	180.2
2149.744	185.2
2153.77	183.2
2157.793	186.2
2161.812	184.2
2165.827	189.2
2169.838	176.2
2173.846	179.2
2177.851	177.2
2181.851	174.2
2185.848	176.2
2189.841	176.2
2193.831	169.2
2197.817	166.2
2201.799	171.2
2205.778	166.2
2209.753	169.2
2213.725	168.2
2217.693	172.2
2221.657	169.2
2225.618	157.2
2229.575	159.2
2233.529	156.2
2237.479	173.2
2241.425	155.2
2245.368	162.2
2249.307	164.2
2253.243	147.2
2257.175	153.2
2261.104	144.2
2265.029	144.2
2268.95	144.2
2272.868	137.2
2276.783	146.2
2280.694	137.2
2284.601	130.2
2288.505	139.2
2292.405	141.2
2296.302	141.2
2300.195	128.2
2304.085	128.2
2307.971	127.2
2311.854	136.2
2315.734	128.2
2319.609	133.2
2323.482	121.2
2327.351	136.2
2331.216	141.2
2335.078	149.2
2338.937	138.2
2342.792	127.2
2346.643	124.2
2350.492	125.2
2354.336	127.2
2358.178	125.2
2362.015	127.2
2365.85	122.2
2369.681	135.2
2373.508	130.2
2377.333	127.2
2381.153	128.2
2384.971	128.2
2388.785	127.2
2392.595	136.2
2396.402	125.2
2400.206	119.2
2404.007	120.2
2407.804	121.2
2411.597	116.2
2415.388	121.2
2419.174	121.2
2422.958	120.2
2426.738	121.2
2430.515	123.2
2434.289	119.2
2438.059	118.2
2441.825	112.2
2445.589	114.2
2449.349	114.2
2453.106	106.2
2456.859	114.2
2460.61	114.2
2464.356	108.2
2468.1	106.2
2471.84	106.2
2475.577	95.2
2479.311	101.2
2483.041	102.2
2486.768	103.2
2490.492	98.2
2494.213	97.2
2497.93	97.2
2501.644	102.2
2505.355	90.2
2509.062	93.2
2512.766	94.2
2516.467	90.2
2520.165	89.2
2523.859	90.2
2527.551	89.2
2531.239	86.2
2534.923	78.2
2538.605	75.2
2542.283	76.2
2545.958	76.2
2549.63	79.2
2553.299	78.2
2556.964	67.2
2560.626	68.2
2564.285	67.2
2567.941	77.2
2571.594	70.2
2575.243	71.2
2578.89	74.2
2582.533	61.2
2586.173	63.2
2589.809	69.2
2593.443	76.2
2597.073	69.2
2600.701	73.2
2604.325	59.2
2607.946	55.2
2611.564	61.2
2615.178	62.2
2618.79	62.2
2622.398	64.2
2626.004	58.2
2629.606	56.2
2633.205	57.2
2636.801	56.2
2640.394	59.2
2643.983	61.2
2647.57	56.2
2651.153	53.2
2654.734	52.2
2658.311	59.2
2661.885	58.2
2665.456	59.2
2669.025	58.2
2672.589	46.2
2676.151	50.2
2679.71	45.2
2683.266	50.2
2686.819	57.2
2690.368	49.2
2693.915	52.2
2697.458	41.2
2700.999	49.2
2704.536	44.2
2708.071	49.2
2711.602	40.2
2715.13	31.2
2718.656	36.2
2722.178	37.2
2725.697	43.2
2729.214	38.2
2732.727	44.2
2736.237	42.2
2739.744	36.2
2743.249	34.2
2746.75	26.2
2750.248	31.2
2753.743	33.2
2757.236	28.2
2760.725	30.2
2764.211	27.2
2767.695	22.2
2771.175	29.2
2774.652	20.2
2778.127	23.2
2781.598	20.2
2785.067	20.2
2788.532	27.2
2791.995	22.2
2795.455	22.2
2798.911	23.2
2802.365	30.2
2805.816	26.2
2809.264	27.2
2812.709	26.2
2816.151	27.2
2819.59	35.2
2823.026	24.2
2826.46	35.2
2829.89	25.2
2833.318	25.2
2836.742	35.2
2840.164	28.2
2843.583	22.2
2846.999	31.2
2850.412	27.2
2853.822	21.2
2857.229	33.2
2860.634	23.2
2864.035	25.2
2867.434	31.2
2870.83	38.2
2874.223	35.2
2877.613	38.2
2881	37.2
2884.385	41.2
2887.766	41.2
2891.145	42.2
2894.521	43.2
2897.894	43.2
2901.264	41.2
2904.631	39.2
2907.996	41.2
2911.358	45.2
2914.717	41.2
2918.073	44.2
2921.426	44.2
2924.777	48.2
2928.124	50.2
2931.469	55.2
2934.811	66.2
2938.15	65.2
2941.487	60.2
2944.821	53.2
2948.152	64.2
2951.48	57.2
2954.805	54.2
2958.128	57.2
2961.447	58.2
2964.765	48.2
2968.079	48.2
2971.39	49.2
2974.699	50.2
2978.005	58.2
2981.308	49.2
2984.609	43.2
2987.907	55.2
2991.202	53.2
2994.494	47.2
2997.784	44.2
3001.07	54.2
3004.355	54.2
3007.636	62.2
3010.915	58.2
3014.191	58.2
3017.464	60.2
3020.734	60.2
3024.002	66.2
3027.267	63.2
3030.53	63.2
3033.789	58.2
3037.046	63.2
3040.301	63.2
3043.552	71.2
3046.801	77.2
3050.048	69.2
3053.291	76.2
3056.532	81.2
3059.771	88.2
3063.006	85.2
3066.239	101.2
3069.469	106.2
3072.697	104.2
3075.922	113.2
3079.144	104.2
3082.364	111.2
3085.581	108.2
3088.795	115.2
3092.007	118.2
3095.216	125.2
3098.423	118.2
3101.627	120.2
3104.828	129.2
3108.026	134.2
3111.222	132.2
3114.416	135.2
3117.607	138.2
3120.795	138.2
3123.98	143.2
3127.163	160.2
3130.344	161.2
3133.521	160.2
3136.696	166.2
3139.869	171.2
3143.039	162.2
3146.206	170.2
3149.371	174.2
3152.533	182.2
3155.693	184.2
3158.85	181.2
3162.005	183.2
3165.157	176.2
3168.306	175.2
3171.453	185.2
3174.597	179.2
3177.739	189.2
3180.878	187.2
3184.014	185.2
3187.149	179.2
3190.28	180.2
3193.409	187.2
3196.536	186.2
3199.659	191.2
3202.781	192.2
3205.9	184.2
3209.016	188.2
3212.13	190.2
3215.241	188.2
3218.35	179.2
3221.456	179.2
3224.56	176.2
3227.661	170.2
3230.76	171.2
3233.856	165.2
3236.95	157.2
3240.041	162.2
3243.13	163.2
3246.216	155.2
3249.3	148.2
3252.382	158.2
3255.46	157.2
3258.537	149.2
3261.611	147.2
3264.682	140.2
3267.751	147.2
3270.818	130.2
3273.882	144.2
3276.943	136.2
3280.002	137.2
3283.059	130.2
3286.113	139.2
3289.165	138.2
3292.214	136.2
3295.261	120.2
3298.306	126.2
3301.348	135.2
3304.387	128.2
3307.425	117.2
3310.459	124.2
3313.492	137.2
3316.521	127.2
3319.549	126.2
3322.574	127.2
3325.597	121.2
3328.617	126.2
3331.635	130.2
3334.65	130.2
3337.663	116.2
3340.674	125.2
3343.682	122.2
3346.688	121.2
3349.691	124.2
3352.692	123.2
3355.691	131.2
3358.687	123.2
3361.681	120.2
3364.673	125.2
3367.662	128.2
3370.649	117.2
3373.633	120.2
3376.615	114.2
3379.595	107.2
3382.572	104.2
3385.547	105.2
3388.52	108.2
3391.49	91.2
3394.458	87.2
3397.424	100.2
3400.387	97.2
3403.348	92.2
3406.307	91.2
3409.263	97.2
3412.217	94.2
3415.168	94.2
3418.118	86.2
3421.065	82.2
3424.009	81.2
3426.951	80.2
3429.891	85.2
3432.829	73.2
3435.764	84.2
3438.697	80.2
3441.628	69.2
3444.557	66.2
3447.483	72.2
3450.407	57.2
3453.328	57.2
3456.247	55.2
3459.164	50.2
3462.079	41.2
3464.991	45.2
3467.902	36.2
3470.809	39.2
3473.715	34.2
3476.618	33.2
3479.519	31.2
3482.418	25.2
3485.315	28.2
3488.209	24.2
3491.101	14.2
3493.99	21.2
3496.878	17.2
3499.763	11.2
3502.646	12.2
3505.527	18.2
3508.405	7.2
3511.281	8.2
3514.155	4.2
3517.027	1.2
3519.897	12.2
3522.764	-1.8
3525.629	-1.8
3528.492	-4.8
3531.352	-8.8
3534.211	-9.8
3537.067	-5.8
3539.921	-7.8
3542.773	-13.8
3545.622	-14.8
3548.469	-9.8
3551.315	-15.8
3554.157	-23.8
3556.998	-22.8
3559.837	-19.8
3562.673	-16.8
3565.507	-19.8
3568.339	-19.8
3571.169	-21.8
3573.996	-20.8
3576.822	-31.8
3579.645	-29.8
3582.466	-27.8
3585.285	-30.8
3588.101	-33.8
3590.916	-25.8
3593.728	-29.8
3596.538	-32.8
3599.346	-31.8
3602.152	-34.8
3604.956	-34.8
3607.757	-29.8
3610.556	-34.8
3613.354	-42.8
3616.149	-39.8
3618.942	-37.8
3621.732	-33.8
3624.521	-32.8
3627.307	-33.8
3630.092	-42.8
3632.874	-39.8
3635.654	-38.8
3638.432	-41.8
3641.208	-33.8
3643.982	-37.8
3646.753	-45.8
3649.523	-38.8
3652.29	-48.8
3655.055	-41.8
3657.818	-46.8
3660.579	-45.8
3663.338	-39.8
3666.095	-47.8
3668.849	-47.8
3671.602	-46.8
3674.352	-44.8
3677.101	-46.8
3679.847	-44.8
3682.591	-46.8
3685.333	-43.8
3688.073	-53.8
3690.811	-46.8
3693.547	-51.8
3696.281	-47.8
3699.013	-51.8
3701.742	-53.8
3704.47	-46.8
3707.195	-49.8
3709.919	-50.8
3712.64	-51.8
3715.359	-52.8
3718.076	-52.8
3720.792	-52.8
3723.505	-50.8
3726.216	-44.8
3728.925	-54.8
3731.632	-50.8
3734.336	-52.8
3737.039	-51.8
3739.74	-55.8
3742.439	-62.8
3745.136	-55.8
3747.83	-55.8
3750.523	-60.8
3753.213	-58.8
3755.902	-54.8
3758.589	-62.8
3761.273	-49.8
3763.956	-55.8
3766.636	-49.8
3769.315	-52.8
3771.991	-50.8
3774.665	-57.8
3777.338	-48.8
3780.008	-53.8
3782.677	-58.8
3785.343	-50.8
3788.007	-53.8
3790.67	-58.8
3793.33	-59.8
3795.989	-61.8
3798.645	-55.8
3801.299	-55.8
3803.952	-57.8
3806.602	-62.8
3809.251	-60.8
3811.897	-60.8
3814.542	-60.8
3817.184	-58.8
3819.825	-53.8
3822.463	-53.8
3825.1	-52.8
3827.735	-58.8
3830.367	-53.8
3832.998	-59.8
3835.627	-57.8
3838.253	-50.8
3840.878	-52.8
3843.501	-49.8
3846.122	-57.8
3848.741	-61.8
3851.358	-57.8
3853.973	-52.8
3856.586	-57.8
3859.197	-58.8
3861.806	-59.8
3864.414	-57.8
3867.019	-55.8
3869.622	-50.8
3872.224	-41.8
3874.823	-28.8
3877.421	-28.8
3880.016	-18.8
3882.61	-1.8
3885.202	10.2
3887.792	-1.8
3890.38	-26.8
3892.966	-43.8
3895.55	-54.8
3898.132	-54.8
3900.713	-57.8
3903.291	-57.8
3905.868	-56.8
3908.442	-60.8
3911.015	-59.8
3913.586	-63.8
3916.155	-59.8
3918.722	-55.8
3921.287	-56.8
3923.85	-53.8
3926.411	-59.8
3928.971	-60.8
3931.528	-55.8
3934.084	-49.8
3936.638	-50.8
3939.19	-63.8
3941.74	-51.8
3944.288	-62.8
3946.834	-54.8
3949.378	-57.8
3951.921	-59.8
3954.462	-59.8
3957	-52.8
3959.537	-49.8
3962.072	-55.8
3964.606	-54.8
3967.137	-55.8
3969.667	-60.8
3972.194	-58.8
3974.72	-52.8
3977.244	-48.8
3979.766	-56.8
3982.286	-57.8
3984.805	-63.8
3987.321	-50.8
3989.836	-53.8
3992.349	-53.8
3994.86	-59.8
3997.369	-57.8
3999.877	-58.8
4002.382	-60.8
4004.886	-56.8
4007.388	-59.8
4009.888	-57.8
4012.386	-57.8
4014.883	-54.8
4017.377	-53.8
4019.87	-53.8
4022.361	-60.8
4024.85	-54.8
4027.338	-55.8
4029.823	-52.8
4032.307	-55.8
4034.789	-52.8
4037.269	-60.8
4039.747	-55.8
4042.224	-60.8
4044.699	-57.8
4047.172	-57.8
4049.643	-62.8
4052.112	-55.8
4054.58	-58.8
4057.046	-57.8
4059.51	-59.8
4061.972	-65.8
4064.432	-55.8
4066.891	-53.8
4069.348	-51.8
4071.803	-49.8
4074.256	-55.8
4076.708	-56.8
4079.158	-60.8
4081.606	-54.8
4084.052	-56.8
4086.497	-51.8
4088.939	-50.8
4091.38	-60.8
4093.819	-58.8
4096.257	-61.8
4098.693	-59.8
4101.127	-53.8
4103.559	-60.8
4105.989	15.2
4108.418	17.2
4110.845	8.2
4113.27	9.2
4115.694	17.2
4118.115	14.2
4120.535	-61.8
4122.954	-53.8
4125.37	-58.8
4127.785	-56.8
4130.198	-57.8
4132.609	-60.8
4135.019	-60.8
4137.427	-63.8
4139.833	-59.8
4142.237	-62.8
