Data from 2018-3-7_conc=6_n=10_RamanShift_03.txt Node
Date: Wed Mar 07 13:26:51 IST 2018
User: aro
Spectrometer: QEPB0276
Trigger mode: 0
Integration Time (sec): 3.000000E1
Scans to average: 1
Electric dark correction enabled: true
Nonlinearity correction enabled: false
Boxcar width: 0
XAxis mode: Raman Shifts
Number of Pixels in Spectrum: 1044
>>>>>Begin Spectral Data<<<<<
160.701	11.1
166.742	22.1
172.777	50.1
178.805	143.1
184.826	374.1
190.841	820.1
196.849	1375.1
202.85	1820.1
208.845	1984.1
214.833	1985.1
220.815	1954.1
226.789	1933.1
232.758	1955.1
238.719	1949.1
244.674	1953.1
250.623	1923.1
256.565	1909.1
262.5	1853.1
268.429	1841.1
274.351	1826.1
280.267	1804.1
286.176	1801.1
292.079	1805.1
297.975	1809.1
303.865	1778.1
309.748	1763.1
315.625	1770.1
321.495	1786.1
327.359	1779.1
333.217	1787.1
339.068	1778.1
344.912	1775.1
350.751	1781.1
356.583	1772.1
362.408	1787.1
368.227	1780.1
374.04	1784.1
379.847	1794.1
385.647	1778.1
391.44	1802.1
397.228	1805.1
403.009	1822.1
408.784	1835.1
414.553	1856.1
420.315	1847.1
426.071	1827.1
431.821	1850.1
437.565	1835.1
443.302	1833.1
449.033	1809.1
454.758	1830.1
460.477	1806.1
466.189	1808.1
471.896	1789.1
477.596	1766.1
483.29	1753.1
488.978	1771.1
494.66	1738.1
500.335	1720.1
506.005	1681.1
511.668	1621.1
517.325	1594.1
522.977	1533.1
528.622	1517.1
534.261	1485.1
539.894	1478.1
545.521	1452.1
551.141	1453.1
556.756	1425.1
562.365	1428.1
567.968	1400.1
573.565	1400.1
579.155	1395.1
584.74	1399.1
590.319	1389.1
595.892	1386.1
601.459	1375.1
607.02	1381.1
612.575	1375.1
618.124	1358.1
623.667	1335.1
629.204	1334.1
634.735	1320.1
640.261	1310.1
645.781	1315.1
651.294	1312.1
656.802	1300.1
662.304	1310.1
667.8	1308.1
673.29	1307.1
678.775	1290.1
684.254	1279.1
689.726	1270.1
695.193	1267.1
700.655	1247.1
706.11	1277.1
711.56	1248.1
717.004	1256.1
722.442	1237.1
727.874	1234.1
733.301	1212.1
738.722	1219.1
744.137	1212.1
749.547	1230.1
754.951	1212.1
760.349	1225.1
765.741	1215.1
771.128	1218.1
776.509	1235.1
781.885	1240.1
787.254	1244.1
792.618	1244.1
797.977	1218.1
803.33	1207.1
808.677	1204.1
814.019	1200.1
819.355	1196.1
824.686	1187.1
830.011	1190.1
835.33	1180.1
840.644	1191.1
845.952	1176.1
851.255	1174.1
856.552	1176.1
861.844	1166.1
867.13	1136.1
872.41	1146.1
877.686	1145.1
882.955	1137.1
888.219	1128.1
893.478	1126.1
898.731	1093.1
903.979	1099.1
909.221	1088.1
914.458	1079.1
919.69	1083.1
924.916	1064.1
930.136	1072.1
935.351	1078.1
940.561	1075.1
945.766	1074.1
950.965	1062.1
956.158	1052.1
961.347	1054.1
966.529	1034.1
971.707	1016.1
976.879	999.1
982.046	1007.1
987.208	1000.1
992.364	995.1
997.515	1001.1
1002.66	997.1
1007.801	1014.1
1012.936	1027.1
1018.066	1042.1
1023.19	1033.1
1028.309	1027.1
1033.423	1021.1
1038.532	1020.1
1043.636	1009.1
1048.734	999.1
1053.827	1006.1
1058.915	974.1
1063.998	972.1
1069.075	959.1
1074.147	970.1
1079.214	974.1
1084.276	967.1
1089.333	978.1
1094.385	981.1
1099.431	969.1
1104.472	976.1
1109.509	966.1
1114.54	957.1
1119.565	947.1
1124.586	922.1
1129.602	912.1
1134.613	921.1
1139.618	922.1
1144.619	907.1
1149.614	916.1
1154.604	918.1
1159.589	930.1
1164.57	903.1
1169.545	919.1
1174.515	922.1
1179.48	910.1
1184.44	902.1
1189.395	899.1
1194.345	894.1
1199.29	876.1
1204.23	897.1
1209.165	884.1
1214.095	898.1
1219.021	916.1
1223.941	903.1
1228.856	910.1
1233.766	930.1
1238.672	911.1
1243.572	918.1
1248.467	920.1
1253.358	889.1
1258.244	876.1
1263.124	866.1
1268	855.1
1272.871	841.1
1277.737	831.1
1282.599	832.1
1287.455	826.1
1292.306	824.1
1297.153	838.1
1301.995	841.1
1306.832	850.1
1311.664	843.1
1316.491	848.1
1321.314	850.1
1326.132	842.1
1330.945	837.1
1335.753	809.1
1340.556	800.1
1345.354	806.1
1350.148	786.1
1354.937	764.1
1359.722	734.1
1364.501	719.1
1369.276	700.1
1374.046	695.1
1378.811	685.1
1383.572	696.1
1388.327	687.1
1393.079	679.1
1397.825	699.1
1402.567	698.1
1407.304	709.1
1412.036	713.1
1416.764	697.1
1421.487	707.1
1426.205	714.1
1430.919	704.1
1435.628	705.1
1440.333	717.1
1445.032	710.1
1449.727	741.1
1454.418	724.1
1459.104	719.1
1463.785	702.1
1468.462	710.1
1473.134	685.1
1477.802	666.1
1482.465	642.1
1487.123	631.1
1491.777	624.1
1496.426	623.1
1501.071	610.1
1505.711	606.1
1510.347	587.1
1514.978	608.1
1519.604	595.1
1524.226	594.1
1528.844	584.1
1533.457	592.1
1538.065	578.1
1542.669	577.1
1547.269	576.1
1551.864	583.1
1556.454	595.1
1561.041	590.1
1565.622	603.1
1570.199	626.1
1574.772	609.1
1579.34	622.1
1583.904	618.1
1588.464	640.1
1593.019	629.1
1597.569	642.1
1602.115	630.1
1606.657	636.1
1611.195	636.1
1615.728	632.1
1620.256	631.1
1624.78	624.1
1629.3	644.1
1633.816	628.1
1638.327	643.1
1642.834	639.1
1647.336	640.1
1651.834	634.1
1656.328	636.1
1660.817	631.1
1665.302	619.1
1669.783	609.1
1674.259	595.1
1678.732	581.1
1683.199	557.1
1687.663	548.1
1692.122	508.1
1696.577	486.1
1701.028	472.1
1705.474	438.1
1709.917	429.1
1714.355	425.1
1718.788	416.1
1723.218	429.1
1727.643	426.1
1732.064	424.1
1736.481	425.1
1740.893	404.1
1745.301	413.1
1749.705	399.1
1754.105	386.1
1758.501	375.1
1762.893	385.1
1767.28	365.1
1771.663	361.1
1776.042	358.1
1780.417	355.1
1784.787	346.1
1789.154	331.1
1793.516	320.1
1797.874	318.1
1802.228	314.1
1806.578	308.1
1810.924	305.1
1815.266	286.1
1819.603	309.1
1823.937	312.1
1828.266	317.1
1832.591	317.1
1836.913	318.1
1841.23	331.1
1845.543	315.1
1849.852	329.1
1854.156	325.1
1858.457	331.1
1862.754	329.1
1867.047	324.1
1871.335	325.1
1875.62	323.1
1879.9	332.1
1884.177	310.1
1888.449	315.1
1892.718	309.1
1896.982	303.1
1901.243	290.1
1905.499	291.1
1909.752	286.1
1914	281.1
1918.245	275.1
1922.485	265.1
1926.722	265.1
1930.954	265.1
1935.183	271.1
1939.408	259.1
1943.628	253.1
1947.845	256.1
1952.058	258.1
1956.267	249.1
1960.472	250.1
1964.673	242.1
1968.87	238.1
1973.063	239.1
1977.252	239.1
1981.438	247.1
1985.619	239.1
1989.797	229.1
1993.971	249.1
1998.14	254.1
2002.306	254.1
2006.469	253.1
2010.627	244.1
2014.781	257.1
2018.932	246.1
2023.078	260.1
2027.221	251.1
2031.36	255.1
2035.495	242.1
2039.627	232.1
2043.754	241.1
2047.878	227.1
2051.998	230.1
2056.114	236.1
2060.226	224.1
2064.334	226.1
2068.439	223.1
2072.54	222.1
2076.637	232.1
2080.73	224.1
2084.82	226.1
2088.906	222.1
2092.988	212.1
2097.066	210.1
2101.14	204.1
2105.211	203.1
2109.278	193.1
2113.342	199.1
2117.401	203.1
2121.457	202.1
2125.509	189.1
2129.558	185.1
2133.602	201.1
2137.643	200.1
2141.681	189.1
2145.714	205.1
2149.744	191.1
2153.77	201.1
2157.793	201.1
2161.812	201.1
2165.827	203.1
2169.838	188.1
2173.846	188.1
2177.851	188.1
2181.851	186.1
2185.848	186.1
2189.841	189.1
2193.831	181.1
2197.817	185.1
2201.799	184.1
2205.778	184.1
2209.753	182.1
2213.725	177.1
2217.693	183.1
2221.657	176.1
2225.618	182.1
2229.575	177.1
2233.529	179.1
2237.479	183.1
2241.425	165.1
2245.368	178.1
2249.307	173.1
2253.243	172.1
2257.175	167.1
2261.104	153.1
2265.029	160.1
2268.95	161.1
2272.868	155.1
2276.783	156.1
2280.694	154.1
2284.601	144.1
2288.505	146.1
2292.405	155.1
2296.302	159.1
2300.195	148.1
2304.085	147.1
2307.971	138.1
2311.854	140.1
2315.734	137.1
2319.609	144.1
2323.482	133.1
2327.351	140.1
2331.216	141.1
2335.078	157.1
2338.937	148.1
2342.792	142.1
2346.643	141.1
2350.492	144.1
2354.336	139.1
2358.178	134.1
2362.015	136.1
2365.85	139.1
2369.681	150.1
2373.508	146.1
2377.333	144.1
2381.153	140.1
2384.971	142.1
2388.785	141.1
2392.595	141.1
2396.402	142.1
2400.206	145.1
2404.007	144.1
2407.804	137.1
2411.597	128.1
2415.388	140.1
2419.174	141.1
2422.958	134.1
2426.738	135.1
2430.515	128.1
2434.289	132.1
2438.059	127.1
2441.825	124.1
2445.589	126.1
2449.349	122.1
2453.106	128.1
2456.859	125.1
2460.61	119.1
2464.356	125.1
2468.1	123.1
2471.84	124.1
2475.577	112.1
2479.311	121.1
2483.041	118.1
2486.768	115.1
2490.492	114.1
2494.213	114.1
2497.93	110.1
2501.644	113.1
2505.355	110.1
2509.062	111.1
2512.766	114.1
2516.467	102.1
2520.165	109.1
2523.859	104.1
2527.551	98.1
2531.239	104.1
2534.923	97.1
2538.605	94.1
2542.283	95.1
2545.958	93.1
2549.63	100.1
2553.299	90.1
2556.964	91.1
2560.626	88.1
2564.285	94.1
2567.941	81.1
2571.594	87.1
2575.243	86.1
2578.89	82.1
2582.533	80.1
2586.173	78.1
2589.809	76.1
2593.443	89.1
2597.073	78.1
2600.701	81.1
2604.325	73.1
2607.946	65.1
2611.564	73.1
2615.178	72.1
2618.79	79.1
2622.398	74.1
2626.004	78.1
2629.606	73.1
2633.205	74.1
2636.801	75.1
2640.394	79.1
2643.983	75.1
2647.57	67.1
2651.153	69.1
2654.734	65.1
2658.311	68.1
2661.885	68.1
2665.456	64.1
2669.025	66.1
2672.589	67.1
2676.151	62.1
2679.71	52.1
2683.266	65.1
2686.819	70.1
2690.368	64.1
2693.915	65.1
2697.458	64.1
2700.999	61.1
2704.536	62.1
2708.071	60.1
2711.602	53.1
2715.13	45.1
2718.656	60.1
2722.178	52.1
2725.697	48.1
2729.214	45.1
2732.727	53.1
2736.237	45.1
2739.744	40.1
2743.249	43.1
2746.75	42.1
2750.248	40.1
2753.743	41.1
2757.236	36.1
2760.725	32.1
2764.211	31.1
2767.695	31.1
2771.175	29.1
2774.652	29.1
2778.127	38.1
2781.598	32.1
2785.067	27.1
2788.532	33.1
2791.995	46.1
2795.455	34.1
2798.911	32.1
2802.365	36.1
2805.816	40.1
2809.264	30.1
2812.709	34.1
2816.151	39.1
2819.59	47.1
2823.026	38.1
2826.46	37.1
2829.89	36.1
2833.318	29.1
2836.742	45.1
2840.164	37.1
2843.583	35.1
2846.999	42.1
2850.412	34.1
2853.822	42.1
2857.229	45.1
2860.634	33.1
2864.035	42.1
2867.434	46.1
2870.83	46.1
2874.223	52.1
2877.613	46.1
2881	54.1
2884.385	56.1
2887.766	48.1
2891.145	46.1
2894.521	55.1
2897.894	51.1
2901.264	45.1
2904.631	49.1
2907.996	46.1
2911.358	59.1
2914.717	54.1
2918.073	57.1
2921.426	47.1
2924.777	49.1
2928.124	53.1
2931.469	65.1
2934.811	68.1
2938.15	67.1
2941.487	73.1
2944.821	66.1
2948.152	70.1
2951.48	64.1
2954.805	70.1
2958.128	62.1
2961.447	69.1
2964.765	62.1
2968.079	63.1
2971.39	64.1
2974.699	58.1
2978.005	63.1
2981.308	57.1
2984.609	60.1
2987.907	62.1
2991.202	59.1
2994.494	58.1
2997.784	54.1
3001.07	61.1
3004.355	62.1
3007.636	60.1
3010.915	64.1
3014.191	60.1
3017.464	63.1
3020.734	64.1
3024.002	67.1
3027.267	74.1
3030.53	74.1
3033.789	71.1
3037.046	77.1
3040.301	72.1
3043.552	75.1
3046.801	86.1
3050.048	89.1
3053.291	81.1
3056.532	84.1
3059.771	90.1
3063.006	99.1
3066.239	101.1
3069.469	114.1
3072.697	102.1
3075.922	118.1
3079.144	115.1
3082.364	126.1
3085.581	114.1
3088.795	120.1
3092.007	129.1
3095.216	138.1
3098.423	129.1
3101.627	126.1
3104.828	141.1
3108.026	143.1
3111.222	145.1
3114.416	147.1
3117.607	155.1
3120.795	155.1
3123.98	147.1
3127.163	169.1
3130.344	168.1
3133.521	161.1
3136.696	163.1
3139.869	173.1
3143.039	174.1
3146.206	177.1
3149.371	167.1
3152.533	182.1
3155.693	188.1
3158.85	184.1
3162.005	181.1
3165.157	183.1
3168.306	189.1
3171.453	180.1
3174.597	184.1
3177.739	198.1
3180.878	192.1
3184.014	196.1
3187.149	187.1
3190.28	197.1
3193.409	198.1
3196.536	188.1
3199.659	197.1
3202.781	196.1
3205.9	190.1
3209.016	191.1
3212.13	192.1
3215.241	190.1
3218.35	180.1
3221.456	187.1
3224.56	185.1
3227.661	180.1
3230.76	178.1
3233.856	182.1
3236.95	172.1
3240.041	163.1
3243.13	170.1
3246.216	158.1
3249.3	157.1
3252.382	157.1
3255.46	161.1
3258.537	156.1
3261.611	151.1
3264.682	152.1
3267.751	156.1
3270.818	134.1
3273.882	148.1
3276.943	147.1
3280.002	152.1
3283.059	147.1
3286.113	146.1
3289.165	139.1
3292.214	134.1
3295.261	138.1
3298.306	134.1
3301.348	132.1
3304.387	133.1
3307.425	133.1
3310.459	126.1
3313.492	137.1
3316.521	125.1
3319.549	140.1
3322.574	131.1
3325.597	128.1
3328.617	126.1
3331.635	137.1
3334.65	142.1
3337.663	125.1
3340.674	137.1
3343.682	131.1
3346.688	131.1
3349.691	137.1
3352.692	127.1
3355.691	137.1
3358.687	129.1
3361.681	123.1
3364.673	130.1
3367.662	121.1
3370.649	125.1
3373.633	117.1
3376.615	114.1
3379.595	116.1
3382.572	115.1
3385.547	123.1
3388.52	109.1
3391.49	109.1
3394.458	105.1
3397.424	101.1
3400.387	109.1
3403.348	102.1
3406.307	97.1
3409.263	102.1
3412.217	96.1
3415.168	100.1
3418.118	93.1
3421.065	94.1
3424.009	92.1
3426.951	89.1
3429.891	89.1
3432.829	82.1
3435.764	90.1
3438.697	82.1
3441.628	75.1
3444.557	77.1
3447.483	73.1
3450.407	66.1
3453.328	72.1
3456.247	60.1
3459.164	58.1
3462.079	47.1
3464.991	52.1
3467.902	47.1
3470.809	52.1
3473.715	49.1
3476.618	46.1
3479.519	36.1
3482.418	34.1
3485.315	34.1
3488.209	22.1
3491.101	28.1
3493.99	28.1
3496.878	19.1
3499.763	19.1
3502.646	22.1
3505.527	22.1
3508.405	21.1
3511.281	14.1
3514.155	7.1
3517.027	8.1
3519.897	12.1
3522.764	6.1
3525.629	7.1
3528.492	3.1
3531.352	-3.9
3534.211	-3.9
3537.067	-9.9
3539.921	-2.9
3542.773	-13.9
3545.622	-6.9
3548.469	-5.9
3551.315	-8.9
3554.157	-16.9
3556.998	-7.9
3559.837	-15.9
3562.673	-13.9
3565.507	-18.9
3568.339	-9.9
3571.169	-19.9
3573.996	-14.9
3576.822	-26.9
3579.645	-21.9
3582.466	-19.9
3585.285	-29.9
3588.101	-23.9
3590.916	-18.9
3593.728	-29.9
3596.538	-30.9
3599.346	-30.9
3602.152	-28.9
3604.956	-23.9
3607.757	-21.9
3610.556	-24.9
3613.354	-31.9
3616.149	-30.9
3618.942	-32.9
3621.732	-35.9
3624.521	-25.9
3627.307	-34.9
3630.092	-37.9
3632.874	-33.9
3635.654	-36.9
3638.432	-34.9
3641.208	-35.9
3643.982	-37.9
3646.753	-40.9
3649.523	-34.9
3652.29	-37.9
3655.055	-35.9
3657.818	-44.9
3660.579	-39.9
3663.338	-34.9
3666.095	-33.9
3668.849	-37.9
3671.602	-38.9
3674.352	-37.9
3677.101	-42.9
3679.847	-40.9
3682.591	-45.9
3685.333	-41.9
3688.073	-46.9
3690.811	-39.9
3693.547	-47.9
3696.281	-43.9
3699.013	-46.9
3701.742	-50.9
3704.47	-41.9
3707.195	-43.9
3709.919	-43.9
3712.64	-45.9
3715.359	-47.9
3718.076	-49.9
3720.792	-42.9
3723.505	-50.9
3726.216	-40.9
3728.925	-46.9
3731.632	-44.9
3734.336	-42.9
3737.039	-46.9
3739.74	-48.9
3742.439	-56.9
3745.136	-49.9
3747.83	-45.9
3750.523	-53.9
3753.213	-47.9
3755.902	-51.9
3758.589	-54.9
3761.273	-46.9
3763.956	-55.9
3766.636	-49.9
3769.315	-45.9
3771.991	-45.9
3774.665	-54.9
3777.338	-50.9
3780.008	-48.9
3782.677	-54.9
3785.343	-46.9
3788.007	-49.9
3790.67	-49.9
3793.33	-47.9
3795.989	-49.9
3798.645	-49.9
3801.299	-48.9
3803.952	-49.9
3806.602	-54.9
3809.251	-55.9
3811.897	-55.9
3814.542	-55.9
3817.184	-54.9
3819.825	-43.9
3822.463	-48.9
3825.1	-47.9
3827.735	-54.9
3830.367	-52.9
3832.998	-54.9
3835.627	-51.9
3838.253	-43.9
3840.878	-42.9
3843.501	-43.9
3846.122	-51.9
3848.741	-54.9
3851.358	-50.9
3853.973	-45.9
3856.586	-49.9
3859.197	-48.9
3861.806	-50.9
3864.414	-53.9
3867.019	-52.9
3869.622	-46.9
3872.224	-41.9
3874.823	-30.9
3877.421	-29.9
3880.016	-10.9
3882.61	5.1
3885.202	4.1
3887.792	-6.9
3890.38	-21.9
3892.966	-35.9
3895.55	-40.9
3898.132	-47.9
3900.713	-50.9
3903.291	-54.9
3905.868	-44.9
3908.442	-47.9
3911.015	-48.9
3913.586	-55.9
3916.155	-51.9
3918.722	-55.9
3921.287	-50.9
3923.85	-40.9
3926.411	-52.9
3928.971	-61.9
3931.528	-57.9
3934.084	-52.9
3936.638	-50.9
3939.19	-61.9
3941.74	-54.9
3944.288	-49.9
3946.834	-51.9
3949.378	-51.9
3951.921	-52.9
3954.462	-52.9
3957	-43.9
3959.537	-43.9
3962.072	-47.9
3964.606	-47.9
3967.137	-51.9
3969.667	-55.9
3972.194	-50.9
3974.72	-50.9
3977.244	-44.9
3979.766	-52.9
3982.286	-57.9
3984.805	-59.9
3987.321	-51.9
3989.836	-47.9
3992.349	-49.9
3994.86	-50.9
3997.369	-48.9
3999.877	-51.9
4002.382	-49.9
4004.886	-45.9
4007.388	-55.9
4009.888	-44.9
4012.386	-52.9
4014.883	-46.9
4017.377	-46.9
4019.87	-47.9
4022.361	-53.9
4024.85	-50.9
4027.338	-56.9
4029.823	-49.9
4032.307	-54.9
4034.789	-48.9
4037.269	-53.9
4039.747	-53.9
4042.224	-54.9
4044.699	-57.9
4047.172	-54.9
4049.643	-52.9
4052.112	-44.9
4054.58	-50.9
4057.046	-50.9
4059.51	-50.9
4061.972	-52.9
4064.432	-47.9
4066.891	-42.9
4069.348	-46.9
4071.803	-44.9
4074.256	-44.9
4076.708	-50.9
4079.158	-54.9
4081.606	-52.9
4084.052	-47.9
4086.497	-49.9
4088.939	-47.9
4091.38	-56.9
4093.819	-55.9
4096.257	-51.9
4098.693	-51.9
4101.127	-48.9
4103.559	-58.9
4105.989	10.1
4108.418	2.1
4110.845	-2.9
4113.27	-1.9
4115.694	7.1
4118.115	7.1
4120.535	-53.9
4122.954	-51.9
4125.37	-56.9
4127.785	-48.9
4130.198	-51.9
4132.609	-57.9
4135.019	-57.9
4137.427	-58.9
4139.833	-55.9
4142.237	-53.9
