Data from 2018-3-7_conc=6_n=3_RamanShift_01.txt Node
Date: Wed Mar 07 13:02:52 IST 2018
User: aro
Spectrometer: QEPB0276
Trigger mode: 0
Integration Time (sec): 3.000000E1
Scans to average: 1
Electric dark correction enabled: true
Nonlinearity correction enabled: false
Boxcar width: 0
XAxis mode: Raman Shifts
Number of Pixels in Spectrum: 1044
>>>>>Begin Spectral Data<<<<<
160.701	9.2
166.742	17.2
172.777	56.2
178.805	150.2
184.826	417.2
190.841	916.2
196.849	1511.2
202.85	1966.2
208.845	2164.2
214.833	2169.2
220.815	2133.2
226.789	2102.2
232.758	2133.2
238.719	2125.2
244.674	2105.2
250.623	2088.2
256.565	2056.2
262.5	2020.2
268.429	1987.2
274.351	1979.2
280.267	1950.2
286.176	1942.2
292.079	1930.2
297.975	1942.2
303.865	1926.2
309.748	1921.2
315.625	1916.2
321.495	1921.2
327.359	1934.2
333.217	1921.2
339.068	1921.2
344.912	1935.2
350.751	1933.2
356.583	1940.2
362.408	1928.2
368.227	1936.2
374.04	1951.2
379.847	1961.2
385.647	1955.2
391.44	1963.2
397.228	1980.2
403.009	1993.2
408.784	1997.2
414.553	1995.2
420.315	1990.2
426.071	2009.2
431.821	2016.2
437.565	2014.2
443.302	2003.2
449.033	1990.2
454.758	1984.2
460.477	1969.2
466.189	1968.2
471.896	1947.2
477.596	1930.2
483.29	1923.2
488.978	1923.2
494.66	1910.2
500.335	1890.2
506.005	1824.2
511.668	1777.2
517.325	1719.2
522.977	1658.2
528.622	1650.2
534.261	1616.2
539.894	1599.2
545.521	1589.2
551.141	1574.2
556.756	1588.2
562.365	1554.2
567.968	1554.2
573.565	1528.2
579.155	1534.2
584.74	1524.2
590.319	1516.2
595.892	1502.2
601.459	1498.2
607.02	1510.2
612.575	1501.2
618.124	1472.2
623.667	1458.2
629.204	1468.2
634.735	1437.2
640.261	1437.2
645.781	1429.2
651.294	1427.2
656.802	1397.2
662.304	1405.2
667.8	1412.2
673.29	1414.2
678.775	1398.2
684.254	1389.2
689.726	1395.2
695.193	1389.2
700.655	1367.2
706.11	1364.2
711.56	1368.2
717.004	1350.2
722.442	1327.2
727.874	1328.2
733.301	1335.2
738.722	1328.2
744.137	1323.2
749.547	1334.2
754.951	1322.2
760.349	1326.2
765.741	1323.2
771.128	1305.2
776.509	1340.2
781.885	1356.2
787.254	1351.2
792.618	1345.2
797.977	1341.2
803.33	1317.2
808.677	1322.2
814.019	1315.2
819.355	1295.2
824.686	1282.2
830.011	1290.2
835.33	1285.2
840.644	1286.2
845.952	1278.2
851.255	1281.2
856.552	1284.2
861.844	1270.2
867.13	1241.2
872.41	1260.2
877.686	1249.2
882.955	1224.2
888.219	1216.2
893.478	1199.2
898.731	1184.2
903.979	1183.2
909.221	1181.2
914.458	1161.2
919.69	1178.2
924.916	1171.2
930.136	1176.2
935.351	1165.2
940.561	1170.2
945.766	1161.2
950.965	1168.2
956.158	1151.2
961.347	1147.2
966.529	1138.2
971.707	1091.2
976.879	1094.2
982.046	1082.2
987.208	1089.2
992.364	1067.2
997.515	1079.2
1002.66	1088.2
1007.801	1105.2
1012.936	1116.2
1018.066	1115.2
1023.19	1114.2
1028.309	1109.2
1033.423	1104.2
1038.532	1099.2
1043.636	1081.2
1048.734	1080.2
1053.827	1081.2
1058.915	1061.2
1063.998	1060.2
1069.075	1053.2
1074.147	1047.2
1079.214	1052.2
1084.276	1056.2
1089.333	1060.2
1094.385	1073.2
1099.431	1057.2
1104.472	1061.2
1109.509	1052.2
1114.54	1042.2
1119.565	1022.2
1124.586	1016.2
1129.602	989.2
1134.613	992.2
1139.618	983.2
1144.619	983.2
1149.614	989.2
1154.604	978.2
1159.589	1005.2
1164.57	1000.2
1169.545	983.2
1174.515	996.2
1179.48	985.2
1184.44	978.2
1189.395	980.2
1194.345	963.2
1199.29	945.2
1204.23	952.2
1209.165	955.2
1214.095	965.2
1219.021	973.2
1223.941	980.2
1228.856	971.2
1233.766	976.2
1238.672	986.2
1243.572	981.2
1248.467	978.2
1253.358	961.2
1258.244	963.2
1263.124	931.2
1268	915.2
1272.871	907.2
1277.737	897.2
1282.599	905.2
1287.455	900.2
1292.306	906.2
1297.153	901.2
1301.995	903.2
1306.832	903.2
1311.664	925.2
1316.491	925.2
1321.314	909.2
1326.132	920.2
1330.945	894.2
1335.753	885.2
1340.556	866.2
1345.354	851.2
1350.148	827.2
1354.937	819.2
1359.722	788.2
1364.501	779.2
1369.276	757.2
1374.046	742.2
1378.811	729.2
1383.572	742.2
1388.327	729.2
1393.079	726.2
1397.825	735.2
1402.567	743.2
1407.304	747.2
1412.036	762.2
1416.764	747.2
1421.487	753.2
1426.205	758.2
1430.919	756.2
1435.628	766.2
1440.333	770.2
1445.032	762.2
1449.727	781.2
1454.418	780.2
1459.104	789.2
1463.785	767.2
1468.462	749.2
1473.134	740.2
1477.802	722.2
1482.465	708.2
1487.123	678.2
1491.777	662.2
1496.426	660.2
1501.071	657.2
1505.711	646.2
1510.347	641.2
1514.978	631.2
1519.604	625.2
1524.226	626.2
1528.844	625.2
1533.457	602.2
1538.065	617.2
1542.669	605.2
1547.269	599.2
1551.864	609.2
1556.454	629.2
1561.041	640.2
1565.622	637.2
1570.199	646.2
1574.772	656.2
1579.34	668.2
1583.904	677.2
1588.464	680.2
1593.019	685.2
1597.569	683.2
1602.115	686.2
1606.657	687.2
1611.195	679.2
1615.728	685.2
1620.256	677.2
1624.78	673.2
1629.3	679.2
1633.816	682.2
1638.327	685.2
1642.834	679.2
1647.336	678.2
1651.834	680.2
1656.328	675.2
1660.817	670.2
1665.302	667.2
1669.783	641.2
1674.259	636.2
1678.732	626.2
1683.199	601.2
1687.663	574.2
1692.122	541.2
1696.577	523.2
1701.028	502.2
1705.474	476.2
1709.917	456.2
1714.355	447.2
1718.788	435.2
1723.218	440.2
1727.643	452.2
1732.064	449.2
1736.481	442.2
1740.893	429.2
1745.301	428.2
1749.705	419.2
1754.105	407.2
1758.501	400.2
1762.893	398.2
1767.28	389.2
1771.663	385.2
1776.042	368.2
1780.417	359.2
1784.787	367.2
1789.154	354.2
1793.516	348.2
1797.874	336.2
1802.228	337.2
1806.578	327.2
1810.924	311.2
1815.266	322.2
1819.603	325.2
1823.937	323.2
1828.266	315.2
1832.591	339.2
1836.913	334.2
1841.23	332.2
1845.543	331.2
1849.852	334.2
1854.156	341.2
1858.457	341.2
1862.754	354.2
1867.047	340.2
1871.335	345.2
1875.62	343.2
1879.9	343.2
1884.177	328.2
1888.449	328.2
1892.718	331.2
1896.982	314.2
1901.243	313.2
1905.499	305.2
1909.752	296.2
1914	291.2
1918.245	284.2
1922.485	277.2
1926.722	268.2
1930.954	265.2
1935.183	280.2
1939.408	263.2
1943.628	267.2
1947.845	256.2
1952.058	249.2
1956.267	248.2
1960.472	252.2
1964.673	246.2
1968.87	243.2
1973.063	245.2
1977.252	255.2
1981.438	250.2
1985.619	249.2
1989.797	254.2
1993.971	262.2
1998.14	266.2
2002.306	262.2
2006.469	265.2
2010.627	263.2
2014.781	258.2
2018.932	260.2
2023.078	256.2
2027.221	259.2
2031.36	255.2
2035.495	253.2
2039.627	249.2
2043.754	248.2
2047.878	247.2
2051.998	242.2
2056.114	237.2
2060.226	244.2
2064.334	239.2
2068.439	225.2
2072.54	226.2
2076.637	236.2
2080.73	224.2
2084.82	227.2
2088.906	226.2
2092.988	223.2
2097.066	216.2
2101.14	219.2
2105.211	208.2
2109.278	205.2
2113.342	200.2
2117.401	202.2
2121.457	194.2
2125.509	196.2
2129.558	193.2
2133.602	193.2
2137.643	203.2
2141.681	191.2
2145.714	201.2
2149.744	202.2
2153.77	208.2
2157.793	202.2
2161.812	204.2
2165.827	204.2
2169.838	196.2
2173.846	192.2
2177.851	195.2
2181.851	202.2
2185.848	188.2
2189.841	193.2
2193.831	185.2
2197.817	188.2
2201.799	198.2
2205.778	187.2
2209.753	192.2
2213.725	185.2
2217.693	184.2
2221.657	182.2
2225.618	182.2
2229.575	181.2
2233.529	180.2
2237.479	176.2
2241.425	177.2
2245.368	177.2
2249.307	177.2
2253.243	166.2
2257.175	172.2
2261.104	158.2
2265.029	166.2
2268.95	166.2
2272.868	165.2
2276.783	153.2
2280.694	151.2
2284.601	153.2
2288.505	160.2
2292.405	151.2
2296.302	162.2
2300.195	153.2
2304.085	150.2
2307.971	145.2
2311.854	149.2
2315.734	132.2
2319.609	145.2
2323.482	145.2
2327.351	145.2
2331.216	151.2
2335.078	162.2
2338.937	148.2
2342.792	141.2
2346.643	142.2
2350.492	139.2
2354.336	143.2
2358.178	138.2
2362.015	143.2
2365.85	143.2
2369.681	143.2
2373.508	146.2
2377.333	145.2
2381.153	149.2
2384.971	150.2
2388.785	134.2
2392.595	138.2
2396.402	150.2
2400.206	136.2
2404.007	140.2
2407.804	140.2
2411.597	142.2
2415.388	128.2
2419.174	144.2
2422.958	140.2
2426.738	139.2
2430.515	139.2
2434.289	137.2
2438.059	135.2
2441.825	126.2
2445.589	137.2
2449.349	127.2
2453.106	137.2
2456.859	122.2
2460.61	127.2
2464.356	127.2
2468.1	122.2
2471.84	115.2
2475.577	114.2
2479.311	122.2
2483.041	120.2
2486.768	118.2
2490.492	125.2
2494.213	111.2
2497.93	117.2
2501.644	120.2
2505.355	109.2
2509.062	105.2
2512.766	105.2
2516.467	107.2
2520.165	102.2
2523.859	100.2
2527.551	99.2
2531.239	103.2
2534.923	87.2
2538.605	98.2
2542.283	92.2
2545.958	96.2
2549.63	91.2
2553.299	90.2
2556.964	87.2
2560.626	92.2
2564.285	86.2
2567.941	85.2
2571.594	83.2
2575.243	85.2
2578.89	79.2
2582.533	78.2
2586.173	78.2
2589.809	76.2
2593.443	78.2
2597.073	75.2
2600.701	82.2
2604.325	64.2
2607.946	61.2
2611.564	66.2
2615.178	70.2
2618.79	69.2
2622.398	78.2
2626.004	71.2
2629.606	69.2
2633.205	75.2
2636.801	68.2
2640.394	77.2
2643.983	68.2
2647.57	65.2
2651.153	65.2
2654.734	69.2
2658.311	68.2
2661.885	61.2
2665.456	69.2
2669.025	68.2
2672.589	56.2
2676.151	60.2
2679.71	58.2
2683.266	60.2
2686.819	66.2
2690.368	57.2
2693.915	63.2
2697.458	52.2
2700.999	61.2
2704.536	62.2
2708.071	55.2
2711.602	55.2
2715.13	43.2
2718.656	49.2
2722.178	50.2
2725.697	47.2
2729.214	46.2
2732.727	52.2
2736.237	47.2
2739.744	42.2
2743.249	42.2
2746.75	39.2
2750.248	35.2
2753.743	38.2
2757.236	34.2
2760.725	31.2
2764.211	33.2
2767.695	27.2
2771.175	27.2
2774.652	30.2
2778.127	32.2
2781.598	28.2
2785.067	28.2
2788.532	34.2
2791.995	36.2
2795.455	31.2
2798.911	40.2
2802.365	35.2
2805.816	37.2
2809.264	40.2
2812.709	30.2
2816.151	31.2
2819.59	44.2
2823.026	33.2
2826.46	40.2
2829.89	30.2
2833.318	33.2
2836.742	35.2
2840.164	35.2
2843.583	32.2
2846.999	38.2
2850.412	43.2
2853.822	38.2
2857.229	42.2
2860.634	37.2
2864.035	41.2
2867.434	40.2
2870.83	39.2
2874.223	49.2
2877.613	49.2
2881	48.2
2884.385	47.2
2887.766	54.2
2891.145	45.2
2894.521	52.2
2897.894	45.2
2901.264	43.2
2904.631	42.2
2907.996	46.2
2911.358	54.2
2914.717	51.2
2918.073	53.2
2921.426	48.2
2924.777	64.2
2928.124	62.2
2931.469	66.2
2934.811	69.2
2938.15	71.2
2941.487	79.2
2944.821	65.2
2948.152	74.2
2951.48	67.2
2954.805	72.2
2958.128	69.2
2961.447	74.2
2964.765	57.2
2968.079	60.2
2971.39	65.2
2974.699	59.2
2978.005	67.2
2981.308	58.2
2984.609	57.2
2987.907	61.2
2991.202	66.2
2994.494	71.2
2997.784	59.2
3001.07	58.2
3004.355	64.2
3007.636	70.2
3010.915	69.2
3014.191	63.2
3017.464	72.2
3020.734	76.2
3024.002	79.2
3027.267	77.2
3030.53	85.2
3033.789	77.2
3037.046	78.2
3040.301	72.2
3043.552	85.2
3046.801	89.2
3050.048	91.2
3053.291	94.2
3056.532	100.2
3059.771	99.2
3063.006	105.2
3066.239	114.2
3069.469	120.2
3072.697	122.2
3075.922	124.2
3079.144	126.2
3082.364	130.2
3085.581	135.2
3088.795	135.2
3092.007	149.2
3095.216	145.2
3098.423	143.2
3101.627	142.2
3104.828	158.2
3108.026	156.2
3111.222	154.2
3114.416	158.2
3117.607	159.2
3120.795	160.2
3123.98	162.2
3127.163	179.2
3130.344	178.2
3133.521	184.2
3136.696	189.2
3139.869	190.2
3143.039	192.2
3146.206	203.2
3149.371	188.2
3152.533	206.2
3155.693	201.2
3158.85	207.2
3162.005	212.2
3165.157	203.2
3168.306	204.2
3171.453	206.2
3174.597	208.2
3177.739	219.2
3180.878	205.2
3184.014	206.2
3187.149	205.2
3190.28	216.2
3193.409	213.2
3196.536	210.2
3199.659	219.2
3202.781	215.2
3205.9	216.2
3209.016	221.2
3212.13	217.2
3215.241	209.2
3218.35	212.2
3221.456	214.2
3224.56	206.2
3227.661	203.2
3230.76	193.2
3233.856	194.2
3236.95	187.2
3240.041	184.2
3243.13	192.2
3246.216	172.2
3249.3	172.2
3252.382	179.2
3255.46	178.2
3258.537	167.2
3261.611	162.2
3264.682	165.2
3267.751	164.2
3270.818	152.2
3273.882	165.2
3276.943	158.2
3280.002	159.2
3283.059	160.2
3286.113	162.2
3289.165	149.2
3292.214	154.2
3295.261	152.2
3298.306	150.2
3301.348	152.2
3304.387	150.2
3307.425	146.2
3310.459	150.2
3313.492	146.2
3316.521	147.2
3319.549	146.2
3322.574	144.2
3325.597	142.2
3328.617	146.2
3331.635	148.2
3334.65	144.2
3337.663	131.2
3340.674	140.2
3343.682	137.2
3346.688	145.2
3349.691	140.2
3352.692	140.2
3355.691	156.2
3358.687	143.2
3361.681	140.2
3364.673	142.2
3367.662	145.2
3370.649	141.2
3373.633	131.2
3376.615	141.2
3379.595	131.2
3382.572	130.2
3385.547	136.2
3388.52	120.2
3391.49	114.2
3394.458	115.2
3397.424	119.2
3400.387	118.2
3403.348	106.2
3406.307	106.2
3409.263	109.2
3412.217	109.2
3415.168	109.2
3418.118	99.2
3421.065	103.2
3424.009	98.2
3426.951	93.2
3429.891	98.2
3432.829	94.2
3435.764	92.2
3438.697	99.2
3441.628	82.2
3444.557	83.2
3447.483	76.2
3450.407	71.2
3453.328	71.2
3456.247	74.2
3459.164	66.2
3462.079	58.2
3464.991	56.2
3467.902	52.2
3470.809	52.2
3473.715	50.2
3476.618	44.2
3479.519	41.2
3482.418	37.2
3485.315	43.2
3488.209	30.2
3491.101	29.2
3493.99	37.2
3496.878	20.2
3499.763	19.2
3502.646	16.2
3505.527	28.2
3508.405	24.2
3511.281	16.2
3514.155	16.2
3517.027	13.2
3519.897	10.2
3522.764	10.2
3525.629	16.2
3528.492	0.2
3531.352	-3.8
3534.211	-1.8
3537.067	-4.8
3539.921	-5.8
3542.773	-12.8
3545.622	-7.8
3548.469	-10.8
3551.315	-15.8
3554.157	-11.8
3556.998	-15.8
3559.837	-18.8
3562.673	-15.8
3565.507	-14.8
3568.339	-15.8
3571.169	-19.8
3573.996	-19.8
3576.822	-25.8
3579.645	-22.8
3582.466	-23.8
3585.285	-20.8
3588.101	-24.8
3590.916	-20.8
3593.728	-29.8
3596.538	-25.8
3599.346	-33.8
3602.152	-30.8
3604.956	-25.8
3607.757	-28.8
3610.556	-33.8
3613.354	-37.8
3616.149	-35.8
3618.942	-37.8
3621.732	-41.8
3624.521	-33.8
3627.307	-36.8
3630.092	-43.8
3632.874	-41.8
3635.654	-40.8
3638.432	-38.8
3641.208	-41.8
3643.982	-36.8
3646.753	-37.8
3649.523	-38.8
3652.29	-43.8
3655.055	-43.8
3657.818	-45.8
3660.579	-46.8
3663.338	-40.8
3666.095	-43.8
3668.849	-44.8
3671.602	-42.8
3674.352	-41.8
3677.101	-40.8
3679.847	-45.8
3682.591	-49.8
3685.333	-42.8
3688.073	-53.8
3690.811	-46.8
3693.547	-52.8
3696.281	-50.8
3699.013	-48.8
3701.742	-53.8
3704.47	-44.8
3707.195	-48.8
3709.919	-48.8
3712.64	-49.8
3715.359	-45.8
3718.076	-50.8
3720.792	-49.8
3723.505	-47.8
3726.216	-47.8
3728.925	-53.8
3731.632	-51.8
3734.336	-48.8
3737.039	-49.8
3739.74	-56.8
3742.439	-57.8
3745.136	-53.8
3747.83	-52.8
3750.523	-61.8
3753.213	-64.8
3755.902	-59.8
3758.589	-56.8
3761.273	-53.8
3763.956	-56.8
3766.636	-51.8
3769.315	-43.8
3771.991	-51.8
3774.665	-61.8
3777.338	-49.8
3780.008	-54.8
3782.677	-57.8
3785.343	-53.8
3788.007	-55.8
3790.67	-53.8
3793.33	-55.8
3795.989	-56.8
3798.645	-60.8
3801.299	-53.8
3803.952	-56.8
3806.602	-58.8
3809.251	-60.8
3811.897	-61.8
3814.542	-61.8
3817.184	-59.8
3819.825	-49.8
3822.463	-52.8
3825.1	-54.8
3827.735	-61.8
3830.367	-58.8
3832.998	-52.8
3835.627	-53.8
3838.253	-45.8
3840.878	-48.8
3843.501	-51.8
3846.122	-57.8
3848.741	-57.8
3851.358	-55.8
3853.973	-56.8
3856.586	-52.8
3859.197	-57.8
3861.806	-55.8
3864.414	-60.8
3867.019	-56.8
3869.622	-55.8
3872.224	-49.8
3874.823	-37.8
3877.421	-30.8
3880.016	-12.8
3882.61	1.2
3885.202	-4.8
3887.792	-5.8
3890.38	-25.8
3892.966	-43.8
3895.55	-48.8
3898.132	-52.8
3900.713	-56.8
3903.291	-55.8
3905.868	-55.8
3908.442	-56.8
3911.015	-55.8
3913.586	-60.8
3916.155	-55.8
3918.722	-54.8
3921.287	-57.8
3923.85	-50.8
3926.411	-61.8
3928.971	-65.8
3931.528	-61.8
3934.084	-55.8
3936.638	-56.8
3939.19	-64.8
3941.74	-51.8
3944.288	-50.8
3946.834	-56.8
3949.378	-58.8
3951.921	-56.8
3954.462	-58.8
3957	-48.8
3959.537	-51.8
3962.072	-52.8
3964.606	-56.8
3967.137	-52.8
3969.667	-57.8
3972.194	-53.8
3974.72	-54.8
3977.244	-52.8
3979.766	-59.8
3982.286	-55.8
3984.805	-65.8
3987.321	-56.8
3989.836	-52.8
3992.349	-56.8
3994.86	-58.8
3997.369	-50.8
3999.877	-54.8
4002.382	-54.8
4004.886	-52.8
4007.388	-54.8
4009.888	-57.8
4012.386	-55.8
4014.883	-54.8
4017.377	-49.8
4019.87	-54.8
4022.361	-61.8
4024.85	-56.8
4027.338	-60.8
4029.823	-57.8
4032.307	-57.8
4034.789	-54.8
4037.269	-51.8
4039.747	-57.8
4042.224	-58.8
4044.699	-57.8
4047.172	-57.8
4049.643	-57.8
4052.112	-56.8
4054.58	-56.8
4057.046	-55.8
4059.51	-58.8
4061.972	-60.8
4064.432	-56.8
4066.891	-49.8
4069.348	-54.8
4071.803	-49.8
4074.256	-54.8
4076.708	-62.8
4079.158	-63.8
4081.606	-55.8
4084.052	-57.8
4086.497	-54.8
4088.939	-53.8
4091.38	-59.8
4093.819	-59.8
4096.257	-56.8
4098.693	-57.8
4101.127	-52.8
4103.559	-60.8
4105.989	0.2
4108.418	-6.8
4110.845	-3.8
4113.27	1.2
4115.694	5.2
4118.115	2.2
4120.535	-53.8
4122.954	-49.8
4125.37	-55.8
4127.785	-52.8
4130.198	-55.8
4132.609	-61.8
4135.019	-56.8
4137.427	-59.8
4139.833	-58.8
4142.237	-57.8
