Data from 2018-3-7_conc=2_n=7_RamanShift_01.txt Node
Date: Wed Mar 07 10:57:52 IST 2018
User: aro
Spectrometer: QEPB0276
Trigger mode: 0
Integration Time (sec): 3.000000E1
Scans to average: 1
Electric dark correction enabled: true
Nonlinearity correction enabled: false
Boxcar width: 0
XAxis mode: Raman Shifts
Number of Pixels in Spectrum: 1044
>>>>>Begin Spectral Data<<<<<
160.701	13.9
166.742	23.9
172.777	54.9
178.805	135.9
184.826	344.9
190.841	717.9
196.849	1174.9
202.85	1539.9
208.845	1651.9
214.833	1659.9
220.815	1660.9
226.789	1640.9
232.758	1649.9
238.719	1645.9
244.674	1650.9
250.623	1634.9
256.565	1605.9
262.5	1590.9
268.429	1578.9
274.351	1594.9
280.267	1561.9
286.176	1576.9
292.079	1573.9
297.975	1563.9
303.865	1564.9
309.748	1567.9
315.625	1567.9
321.495	1554.9
327.359	1579.9
333.217	1586.9
339.068	1604.9
344.912	1594.9
350.751	1596.9
356.583	1601.9
362.408	1592.9
368.227	1614.9
374.04	1633.9
379.847	1620.9
385.647	1614.9
391.44	1661.9
397.228	1649.9
403.009	1671.9
408.784	1677.9
414.553	1679.9
420.315	1677.9
426.071	1686.9
431.821	1685.9
437.565	1670.9
443.302	1682.9
449.033	1675.9
454.758	1679.9
460.477	1637.9
466.189	1633.9
471.896	1605.9
477.596	1619.9
483.29	1608.9
488.978	1609.9
494.66	1586.9
500.335	1563.9
506.005	1514.9
511.668	1417.9
517.325	1358.9
522.977	1299.9
528.622	1263.9
534.261	1228.9
539.894	1199.9
545.521	1211.9
551.141	1189.9
556.756	1188.9
562.365	1158.9
567.968	1156.9
573.565	1138.9
579.155	1126.9
584.74	1128.9
590.319	1121.9
595.892	1142.9
601.459	1133.9
607.02	1117.9
612.575	1110.9
618.124	1086.9
623.667	1091.9
629.204	1065.9
634.735	1066.9
640.261	1050.9
645.781	1044.9
651.294	1041.9
656.802	1011.9
662.304	1026.9
667.8	1033.9
673.29	1027.9
678.775	1024.9
684.254	1010.9
689.726	1014.9
695.193	1012.9
700.655	1001.9
706.11	988.9
711.56	979.9
717.004	975.9
722.442	967.9
727.874	971.9
733.301	961.9
738.722	950.9
744.137	957.9
749.547	969.9
754.951	955.9
760.349	956.9
765.741	973.9
771.128	950.9
776.509	971.9
781.885	989.9
787.254	1007.9
792.618	1004.9
797.977	1000.9
803.33	988.9
808.677	982.9
814.019	975.9
819.355	971.9
824.686	953.9
830.011	963.9
835.33	946.9
840.644	942.9
845.952	928.9
851.255	932.9
856.552	931.9
861.844	920.9
867.13	894.9
872.41	896.9
877.686	893.9
882.955	901.9
888.219	894.9
893.478	867.9
898.731	852.9
903.979	825.9
909.221	835.9
914.458	843.9
919.69	814.9
924.916	837.9
930.136	835.9
935.351	834.9
940.561	831.9
945.766	832.9
950.965	839.9
956.158	842.9
961.347	812.9
966.529	814.9
971.707	789.9
976.879	773.9
982.046	768.9
987.208	762.9
992.364	772.9
997.515	773.9
1002.66	780.9
1007.801	790.9
1012.936	800.9
1018.066	809.9
1023.19	797.9
1028.309	790.9
1033.423	792.9
1038.532	785.9
1043.636	785.9
1048.734	778.9
1053.827	779.9
1058.915	780.9
1063.998	770.9
1069.075	760.9
1074.147	754.9
1079.214	770.9
1084.276	771.9
1089.333	769.9
1094.385	755.9
1099.431	755.9
1104.472	754.9
1109.509	755.9
1114.54	735.9
1119.565	727.9
1124.586	719.9
1129.602	709.9
1134.613	716.9
1139.618	697.9
1144.619	691.9
1149.614	714.9
1154.604	708.9
1159.589	705.9
1164.57	705.9
1169.545	703.9
1174.515	708.9
1179.48	710.9
1184.44	699.9
1189.395	694.9
1194.345	689.9
1199.29	668.9
1204.23	678.9
1209.165	690.9
1214.095	693.9
1219.021	685.9
1223.941	696.9
1228.856	711.9
1233.766	703.9
1238.672	688.9
1243.572	694.9
1248.467	695.9
1253.358	678.9
1258.244	672.9
1263.124	670.9
1268	651.9
1272.871	640.9
1277.737	638.9
1282.599	632.9
1287.455	643.9
1292.306	636.9
1297.153	634.9
1301.995	643.9
1306.832	652.9
1311.664	642.9
1316.491	638.9
1321.314	656.9
1326.132	636.9
1330.945	635.9
1335.753	619.9
1340.556	608.9
1345.354	590.9
1350.148	590.9
1354.937	577.9
1359.722	560.9
1364.501	542.9
1369.276	544.9
1374.046	529.9
1378.811	533.9
1383.572	527.9
1388.327	530.9
1393.079	517.9
1397.825	527.9
1402.567	539.9
1407.304	536.9
1412.036	543.9
1416.764	534.9
1421.487	541.9
1426.205	530.9
1430.919	523.9
1435.628	525.9
1440.333	545.9
1445.032	533.9
1449.727	555.9
1454.418	557.9
1459.104	545.9
1463.785	551.9
1468.462	528.9
1473.134	521.9
1477.802	492.9
1482.465	474.9
1487.123	479.9
1491.777	473.9
1496.426	460.9
1501.071	462.9
1505.711	455.9
1510.347	456.9
1514.978	445.9
1519.604	444.9
1524.226	445.9
1528.844	441.9
1533.457	438.9
1538.065	444.9
1542.669	446.9
1547.269	451.9
1551.864	439.9
1556.454	461.9
1561.041	459.9
1565.622	471.9
1570.199	462.9
1574.772	455.9
1579.34	474.9
1583.904	478.9
1588.464	492.9
1593.019	483.9
1597.569	483.9
1602.115	487.9
1606.657	487.9
1611.195	483.9
1615.728	476.9
1620.256	477.9
1624.78	473.9
1629.3	466.9
1633.816	483.9
1638.327	477.9
1642.834	479.9
1647.336	475.9
1651.834	473.9
1656.328	476.9
1660.817	475.9
1665.302	463.9
1669.783	457.9
1674.259	447.9
1678.732	434.9
1683.199	411.9
1687.663	402.9
1692.122	379.9
1696.577	374.9
1701.028	362.9
1705.474	339.9
1709.917	342.9
1714.355	335.9
1718.788	332.9
1723.218	319.9
1727.643	324.9
1732.064	325.9
1736.481	327.9
1740.893	312.9
1745.301	297.9
1749.705	304.9
1754.105	299.9
1758.501	283.9
1762.893	285.9
1767.28	272.9
1771.663	278.9
1776.042	275.9
1780.417	262.9
1784.787	267.9
1789.154	258.9
1793.516	244.9
1797.874	242.9
1802.228	246.9
1806.578	237.9
1810.924	233.9
1815.266	238.9
1819.603	245.9
1823.937	246.9
1828.266	241.9
1832.591	240.9
1836.913	237.9
1841.23	244.9
1845.543	245.9
1849.852	243.9
1854.156	244.9
1858.457	247.9
1862.754	243.9
1867.047	238.9
1871.335	246.9
1875.62	234.9
1879.9	240.9
1884.177	231.9
1888.449	230.9
1892.718	232.9
1896.982	229.9
1901.243	219.9
1905.499	225.9
1909.752	214.9
1914	214.9
1918.245	213.9
1922.485	206.9
1926.722	198.9
1930.954	199.9
1935.183	202.9
1939.408	193.9
1943.628	194.9
1947.845	194.9
1952.058	197.9
1956.267	193.9
1960.472	194.9
1964.673	191.9
1968.87	188.9
1973.063	187.9
1977.252	184.9
1981.438	182.9
1985.619	176.9
1989.797	177.9
1993.971	195.9
1998.14	189.9
2002.306	194.9
2006.469	194.9
2010.627	192.9
2014.781	187.9
2018.932	180.9
2023.078	183.9
2027.221	184.9
2031.36	178.9
2035.495	174.9
2039.627	163.9
2043.754	174.9
2047.878	168.9
2051.998	172.9
2056.114	176.9
2060.226	163.9
2064.334	158.9
2068.439	168.9
2072.54	164.9
2076.637	162.9
2080.73	166.9
2084.82	162.9
2088.906	157.9
2092.988	156.9
2097.066	152.9
2101.14	159.9
2105.211	158.9
2109.278	149.9
2113.342	147.9
2117.401	149.9
2121.457	148.9
2125.509	149.9
2129.558	144.9
2133.602	141.9
2137.643	144.9
2141.681	137.9
2145.714	151.9
2149.744	139.9
2153.77	145.9
2157.793	145.9
2161.812	141.9
2165.827	149.9
2169.838	135.9
2173.846	138.9
2177.851	135.9
2181.851	138.9
2185.848	133.9
2189.841	134.9
2193.831	125.9
2197.817	130.9
2201.799	135.9
2205.778	124.9
2209.753	128.9
2213.725	134.9
2217.693	129.9
2221.657	121.9
2225.618	120.9
2229.575	122.9
2233.529	126.9
2237.479	124.9
2241.425	117.9
2245.368	114.9
2249.307	115.9
2253.243	112.9
2257.175	115.9
2261.104	109.9
2265.029	109.9
2268.95	114.9
2272.868	113.9
2276.783	108.9
2280.694	104.9
2284.601	93.9
2288.505	104.9
2292.405	100.9
2296.302	104.9
2300.195	93.9
2304.085	104.9
2307.971	91.9
2311.854	99.9
2315.734	89.9
2319.609	109.9
2323.482	96.9
2327.351	99.9
2331.216	105.9
2335.078	121.9
2338.937	104.9
2342.792	87.9
2346.643	97.9
2350.492	88.9
2354.336	91.9
2358.178	92.9
2362.015	93.9
2365.85	93.9
2369.681	89.9
2373.508	100.9
2377.333	97.9
2381.153	84.9
2384.971	88.9
2388.785	83.9
2392.595	85.9
2396.402	86.9
2400.206	84.9
2404.007	92.9
2407.804	85.9
2411.597	86.9
2415.388	85.9
2419.174	91.9
2422.958	81.9
2426.738	84.9
2430.515	79.9
2434.289	82.9
2438.059	78.9
2441.825	77.9
2445.589	75.9
2449.349	79.9
2453.106	87.9
2456.859	72.9
2460.61	72.9
2464.356	79.9
2468.1	79.9
2471.84	77.9
2475.577	73.9
2479.311	67.9
2483.041	68.9
2486.768	62.9
2490.492	73.9
2494.213	64.9
2497.93	75.9
2501.644	73.9
2505.355	65.9
2509.062	65.9
2512.766	64.9
2516.467	59.9
2520.165	57.9
2523.859	65.9
2527.551	55.9
2531.239	57.9
2534.923	52.9
2538.605	51.9
2542.283	52.9
2545.958	54.9
2549.63	54.9
2553.299	53.9
2556.964	46.9
2560.626	43.9
2564.285	52.9
2567.941	48.9
2571.594	45.9
2575.243	49.9
2578.89	48.9
2582.533	47.9
2586.173	46.9
2589.809	50.9
2593.443	51.9
2597.073	44.9
2600.701	46.9
2604.325	42.9
2607.946	30.9
2611.564	36.9
2615.178	44.9
2618.79	41.9
2622.398	37.9
2626.004	38.9
2629.606	33.9
2633.205	37.9
2636.801	41.9
2640.394	43.9
2643.983	39.9
2647.57	35.9
2651.153	34.9
2654.734	32.9
2658.311	32.9
2661.885	35.9
2665.456	37.9
2669.025	31.9
2672.589	29.9
2676.151	37.9
2679.71	30.9
2683.266	33.9
2686.819	34.9
2690.368	30.9
2693.915	28.9
2697.458	22.9
2700.999	30.9
2704.536	27.9
2708.071	29.9
2711.602	19.9
2715.13	19.9
2718.656	21.9
2722.178	21.9
2725.697	25.9
2729.214	21.9
2732.727	31.9
2736.237	26.9
2739.744	22.9
2743.249	22.9
2746.75	26.9
2750.248	19.9
2753.743	15.9
2757.236	13.9
2760.725	12.9
2764.211	10.9
2767.695	9.9
2771.175	19.9
2774.652	11.9
2778.127	18.9
2781.598	10.9
2785.067	11.9
2788.532	10.9
2791.995	8.9
2795.455	14.9
2798.911	10.9
2802.365	19.9
2805.816	15.9
2809.264	18.9
2812.709	15.9
2816.151	18.9
2819.59	22.9
2823.026	20.9
2826.46	14.9
2829.89	17.9
2833.318	4.9
2836.742	12.9
2840.164	14.9
2843.583	12.9
2846.999	18.9
2850.412	16.9
2853.822	14.9
2857.229	18.9
2860.634	15.9
2864.035	23.9
2867.434	18.9
2870.83	19.9
2874.223	22.9
2877.613	22.9
2881	24.9
2884.385	18.9
2887.766	28.9
2891.145	23.9
2894.521	25.9
2897.894	26.9
2901.264	28.9
2904.631	27.9
2907.996	28.9
2911.358	37.9
2914.717	31.9
2918.073	27.9
2921.426	23.9
2924.777	35.9
2928.124	29.9
2931.469	32.9
2934.811	40.9
2938.15	45.9
2941.487	48.9
2944.821	40.9
2948.152	43.9
2951.48	39.9
2954.805	43.9
2958.128	39.9
2961.447	41.9
2964.765	35.9
2968.079	30.9
2971.39	34.9
2974.699	31.9
2978.005	41.9
2981.308	32.9
2984.609	34.9
2987.907	33.9
2991.202	40.9
2994.494	30.9
2997.784	29.9
3001.07	38.9
3004.355	38.9
3007.636	43.9
3010.915	36.9
3014.191	36.9
3017.464	42.9
3020.734	41.9
3024.002	45.9
3027.267	47.9
3030.53	41.9
3033.789	45.9
3037.046	42.9
3040.301	40.9
3043.552	45.9
3046.801	52.9
3050.048	51.9
3053.291	49.9
3056.532	51.9
3059.771	56.9
3063.006	62.9
3066.239	64.9
3069.469	67.9
3072.697	70.9
3075.922	68.9
3079.144	70.9
3082.364	76.9
3085.581	80.9
3088.795	81.9
3092.007	82.9
3095.216	82.9
3098.423	84.9
3101.627	78.9
3104.828	89.9
3108.026	92.9
3111.222	92.9
3114.416	92.9
3117.607	101.9
3120.795	100.9
3123.98	103.9
3127.163	109.9
3130.344	111.9
3133.521	106.9
3136.696	110.9
3139.869	120.9
3143.039	121.9
3146.206	123.9
3149.371	119.9
3152.533	131.9
3155.693	130.9
3158.85	129.9
3162.005	122.9
3165.157	128.9
3168.306	127.9
3171.453	134.9
3174.597	131.9
3177.739	131.9
3180.878	133.9
3184.014	131.9
3187.149	119.9
3190.28	130.9
3193.409	134.9
3196.536	122.9
3199.659	136.9
3202.781	131.9
3205.9	129.9
3209.016	131.9
3212.13	133.9
3215.241	126.9
3218.35	129.9
3221.456	130.9
3224.56	125.9
3227.661	126.9
3230.76	115.9
3233.856	120.9
3236.95	112.9
3240.041	108.9
3243.13	120.9
3246.216	106.9
3249.3	105.9
3252.382	108.9
3255.46	115.9
3258.537	106.9
3261.611	102.9
3264.682	100.9
3267.751	104.9
3270.818	85.9
3273.882	101.9
3276.943	93.9
3280.002	98.9
3283.059	89.9
3286.113	90.9
3289.165	96.9
3292.214	93.9
3295.261	93.9
3298.306	92.9
3301.348	90.9
3304.387	94.9
3307.425	87.9
3310.459	80.9
3313.492	83.9
3316.521	78.9
3319.549	88.9
3322.574	80.9
3325.597	86.9
3328.617	83.9
3331.635	94.9
3334.65	91.9
3337.663	81.9
3340.674	79.9
3343.682	81.9
3346.688	73.9
3349.691	88.9
3352.692	85.9
3355.691	90.9
3358.687	85.9
3361.681	77.9
3364.673	84.9
3367.662	78.9
3370.649	82.9
3373.633	76.9
3376.615	76.9
3379.595	72.9
3382.572	70.9
3385.547	70.9
3388.52	68.9
3391.49	59.9
3394.458	56.9
3397.424	59.9
3400.387	67.9
3403.348	55.9
3406.307	52.9
3409.263	59.9
3412.217	60.9
3415.168	61.9
3418.118	57.9
3421.065	55.9
3424.009	49.9
3426.951	44.9
3429.891	49.9
3432.829	40.9
3435.764	51.9
3438.697	43.9
3441.628	39.9
3444.557	41.9
3447.483	41.9
3450.407	33.9
3453.328	34.9
3456.247	27.9
3459.164	29.9
3462.079	22.9
3464.991	22.9
3467.902	18.9
3470.809	19.9
3473.715	16.9
3476.618	13.9
3479.519	12.9
3482.418	11.9
3485.315	9.9
3488.209	4.9
3491.101	4.9
3493.99	8.9
3496.878	2.9
3499.763	-0.1
3502.646	-1.1
3505.527	-1.1
3508.405	-4.1
3511.281	2.9
3514.155	-1.1
3517.027	-9.1
3519.897	-0.1
3522.764	-10.1
3525.629	-5.1
3528.492	-11.1
3531.352	-20.1
3534.211	-19.1
3537.067	-19.1
3539.921	-11.1
3542.773	-27.1
3545.622	-18.1
3548.469	-20.1
3551.315	-20.1
3554.157	-21.1
3556.998	-20.1
3559.837	-20.1
3562.673	-21.1
3565.507	-21.1
3568.339	-26.1
3571.169	-32.1
3573.996	-24.1
3576.822	-32.1
3579.645	-28.1
3582.466	-30.1
3585.285	-33.1
3588.101	-32.1
3590.916	-24.1
3593.728	-36.1
3596.538	-35.1
3599.346	-35.1
3602.152	-32.1
3604.956	-33.1
3607.757	-30.1
3610.556	-31.1
3613.354	-44.1
3616.149	-45.1
3618.942	-39.1
3621.732	-33.1
3624.521	-31.1
3627.307	-33.1
3630.092	-39.1
3632.874	-43.1
3635.654	-39.1
3638.432	-34.1
3641.208	-38.1
3643.982	-36.1
3646.753	-40.1
3649.523	-41.1
3652.29	-45.1
3655.055	-41.1
3657.818	-46.1
3660.579	-43.1
3663.338	-35.1
3666.095	-43.1
3668.849	-44.1
3671.602	-45.1
3674.352	-41.1
3677.101	-41.1
3679.847	-38.1
3682.591	-49.1
3685.333	-43.1
3688.073	-48.1
3690.811	-46.1
3693.547	-46.1
3696.281	-46.1
3699.013	-48.1
3701.742	-50.1
3704.47	-44.1
3707.195	-46.1
3709.919	-45.1
3712.64	-43.1
3715.359	-46.1
3718.076	-52.1
3720.792	-47.1
3723.505	-50.1
3726.216	-46.1
3728.925	-52.1
3731.632	-45.1
3734.336	-49.1
3737.039	-47.1
3739.74	-52.1
3742.439	-50.1
3745.136	-54.1
3747.83	-50.1
3750.523	-53.1
3753.213	-58.1
3755.902	-51.1
3758.589	-50.1
3761.273	-53.1
3763.956	-53.1
3766.636	-46.1
3769.315	-43.1
3771.991	-52.1
3774.665	-52.1
3777.338	-44.1
3780.008	-51.1
3782.677	-56.1
3785.343	-48.1
3788.007	-55.1
3790.67	-53.1
3793.33	-49.1
3795.989	-53.1
3798.645	-54.1
3801.299	-49.1
3803.952	-47.1
3806.602	-54.1
3809.251	-53.1
3811.897	-55.1
3814.542	-56.1
3817.184	-52.1
3819.825	-46.1
3822.463	-52.1
3825.1	-45.1
3827.735	-55.1
3830.367	-52.1
3832.998	-51.1
3835.627	-53.1
3838.253	-46.1
3840.878	-47.1
3843.501	-45.1
3846.122	-53.1
3848.741	-54.1
3851.358	-55.1
3853.973	-49.1
3856.586	-51.1
3859.197	-51.1
3861.806	-54.1
3864.414	-49.1
3867.019	-51.1
3869.622	-44.1
3872.224	-37.1
3874.823	-32.1
3877.421	-26.1
3880.016	-13.1
3882.61	6.9
3885.202	0.9
3887.792	4.9
3890.38	-20.1
3892.966	-34.1
3895.55	-44.1
3898.132	-49.1
3900.713	-47.1
3903.291	-48.1
3905.868	-47.1
3908.442	-54.1
3911.015	-51.1
3913.586	-58.1
3916.155	-52.1
3918.722	-55.1
3921.287	-54.1
3923.85	-48.1
3926.411	-52.1
3928.971	-54.1
3931.528	-54.1
3934.084	-48.1
3936.638	-51.1
3939.19	-57.1
3941.74	-53.1
3944.288	-55.1
3946.834	-52.1
3949.378	-54.1
3951.921	-55.1
3954.462	-55.1
3957	-46.1
3959.537	-41.1
3962.072	-45.1
3964.606	-51.1
3967.137	-47.1
3969.667	-56.1
3972.194	-50.1
3974.72	-48.1
3977.244	-55.1
3979.766	-54.1
3982.286	-56.1
3984.805	-59.1
3987.321	-48.1
3989.836	-46.1
3992.349	-52.1
3994.86	-49.1
3997.369	-50.1
3999.877	-51.1
4002.382	-50.1
4004.886	-54.1
4007.388	-53.1
4009.888	-55.1
4012.386	-52.1
4014.883	-50.1
4017.377	-48.1
4019.87	-50.1
4022.361	-55.1
4024.85	-48.1
4027.338	-51.1
4029.823	-51.1
4032.307	-51.1
4034.789	-47.1
4037.269	-52.1
4039.747	-53.1
4042.224	-50.1
4044.699	-51.1
4047.172	-56.1
4049.643	-56.1
4052.112	-50.1
4054.58	-50.1
4057.046	-49.1
4059.51	-51.1
4061.972	-57.1
4064.432	-54.1
4066.891	-49.1
4069.348	-51.1
4071.803	-50.1
4074.256	-48.1
4076.708	-51.1
4079.158	-58.1
4081.606	-54.1
4084.052	-50.1
4086.497	-49.1
4088.939	-50.1
4091.38	-53.1
4093.819	-55.1
4096.257	-54.1
4098.693	-57.1
4101.127	-48.1
4103.559	-59.1
4105.989	34.9
4108.418	22.9
4110.845	21.9
4113.27	21.9
4115.694	18.9
4118.115	13.9
4120.535	-46.1
4122.954	-47.1
4125.37	-54.1
4127.785	-47.1
4130.198	-47.1
4132.609	-59.1
4135.019	-56.1
4137.427	-59.1
4139.833	-57.1
4142.237	-56.1
