Data from 2018-3-7_conc=6_n=7_RamanShift_03.txt Node
Date: Wed Mar 07 13:16:52 IST 2018
User: aro
Spectrometer: QEPB0276
Trigger mode: 0
Integration Time (sec): 3.000000E1
Scans to average: 1
Electric dark correction enabled: true
Nonlinearity correction enabled: false
Boxcar width: 0
XAxis mode: Raman Shifts
Number of Pixels in Spectrum: 1044
>>>>>Begin Spectral Data<<<<<
160.701	4.6
166.742	19.6
172.777	46.6
178.805	146.6
184.826	387.6
190.841	831.6
196.849	1396.6
202.85	1810.6
208.845	1986.6
214.833	1989.6
220.815	1975.6
226.789	1953.6
232.758	1963.6
238.719	1952.6
244.674	1957.6
250.623	1909.6
256.565	1901.6
262.5	1862.6
268.429	1864.6
274.351	1843.6
280.267	1816.6
286.176	1827.6
292.079	1814.6
297.975	1813.6
303.865	1805.6
309.748	1787.6
315.625	1795.6
321.495	1794.6
327.359	1797.6
333.217	1777.6
339.068	1807.6
344.912	1804.6
350.751	1802.6
356.583	1801.6
362.408	1804.6
368.227	1808.6
374.04	1806.6
379.847	1807.6
385.647	1806.6
391.44	1816.6
397.228	1839.6
403.009	1851.6
408.784	1849.6
414.553	1859.6
420.315	1861.6
426.071	1871.6
431.821	1870.6
437.565	1862.6
443.302	1843.6
449.033	1840.6
454.758	1848.6
460.477	1829.6
466.189	1810.6
471.896	1798.6
477.596	1798.6
483.29	1778.6
488.978	1796.6
494.66	1778.6
500.335	1742.6
506.005	1702.6
511.668	1629.6
517.325	1595.6
522.977	1546.6
528.622	1523.6
534.261	1500.6
539.894	1481.6
545.521	1475.6
551.141	1450.6
556.756	1450.6
562.365	1453.6
567.968	1427.6
573.565	1435.6
579.155	1432.6
584.74	1426.6
590.319	1399.6
595.892	1395.6
601.459	1400.6
607.02	1396.6
612.575	1384.6
618.124	1381.6
623.667	1355.6
629.204	1353.6
634.735	1319.6
640.261	1313.6
645.781	1300.6
651.294	1323.6
656.802	1309.6
662.304	1303.6
667.8	1306.6
673.29	1301.6
678.775	1292.6
684.254	1279.6
689.726	1288.6
695.193	1276.6
700.655	1277.6
706.11	1275.6
711.56	1254.6
717.004	1258.6
722.442	1235.6
727.874	1224.6
733.301	1231.6
738.722	1210.6
744.137	1228.6
749.547	1221.6
754.951	1215.6
760.349	1227.6
765.741	1215.6
771.128	1230.6
776.509	1243.6
781.885	1253.6
787.254	1258.6
792.618	1235.6
797.977	1244.6
803.33	1207.6
808.677	1230.6
814.019	1216.6
819.355	1205.6
824.686	1192.6
830.011	1196.6
835.33	1195.6
840.644	1203.6
845.952	1192.6
851.255	1182.6
856.552	1196.6
861.844	1178.6
867.13	1148.6
872.41	1155.6
877.686	1145.6
882.955	1145.6
888.219	1136.6
893.478	1135.6
898.731	1116.6
903.979	1080.6
909.221	1082.6
914.458	1082.6
919.69	1094.6
924.916	1088.6
930.136	1099.6
935.351	1080.6
940.561	1089.6
945.766	1102.6
950.965	1080.6
956.158	1085.6
961.347	1057.6
966.529	1043.6
971.707	1018.6
976.879	1014.6
982.046	1004.6
987.208	1007.6
992.364	1016.6
997.515	993.6
1002.66	1027.6
1007.801	1020.6
1012.936	1043.6
1018.066	1035.6
1023.19	1037.6
1028.309	1034.6
1033.423	1020.6
1038.532	1023.6
1043.636	1018.6
1048.734	1022.6
1053.827	1004.6
1058.915	994.6
1063.998	976.6
1069.075	971.6
1074.147	977.6
1079.214	975.6
1084.276	985.6
1089.333	989.6
1094.385	984.6
1099.431	978.6
1104.472	975.6
1109.509	975.6
1114.54	954.6
1119.565	945.6
1124.586	937.6
1129.602	941.6
1134.613	907.6
1139.618	921.6
1144.619	923.6
1149.614	917.6
1154.604	922.6
1159.589	922.6
1164.57	931.6
1169.545	921.6
1174.515	938.6
1179.48	920.6
1184.44	913.6
1189.395	907.6
1194.345	906.6
1199.29	891.6
1204.23	896.6
1209.165	893.6
1214.095	899.6
1219.021	899.6
1223.941	912.6
1228.856	912.6
1233.766	910.6
1238.672	925.6
1243.572	921.6
1248.467	913.6
1253.358	910.6
1258.244	892.6
1263.124	877.6
1268	859.6
1272.871	848.6
1277.737	842.6
1282.599	847.6
1287.455	836.6
1292.306	840.6
1297.153	845.6
1301.995	830.6
1306.832	839.6
1311.664	854.6
1316.491	851.6
1321.314	865.6
1326.132	851.6
1330.945	835.6
1335.753	828.6
1340.556	808.6
1345.354	795.6
1350.148	789.6
1354.937	751.6
1359.722	739.6
1364.501	728.6
1369.276	707.6
1374.046	708.6
1378.811	690.6
1383.572	695.6
1388.327	680.6
1393.079	676.6
1397.825	686.6
1402.567	692.6
1407.304	687.6
1412.036	703.6
1416.764	698.6
1421.487	706.6
1426.205	703.6
1430.919	708.6
1435.628	721.6
1440.333	718.6
1445.032	737.6
1449.727	731.6
1454.418	742.6
1459.104	734.6
1463.785	706.6
1468.462	710.6
1473.134	686.6
1477.802	656.6
1482.465	649.6
1487.123	640.6
1491.777	619.6
1496.426	623.6
1501.071	605.6
1505.711	615.6
1510.347	596.6
1514.978	593.6
1519.604	590.6
1524.226	583.6
1528.844	587.6
1533.457	579.6
1538.065	573.6
1542.669	578.6
1547.269	568.6
1551.864	587.6
1556.454	596.6
1561.041	602.6
1565.622	612.6
1570.199	612.6
1574.772	608.6
1579.34	618.6
1583.904	629.6
1588.464	643.6
1593.019	640.6
1597.569	636.6
1602.115	641.6
1606.657	634.6
1611.195	640.6
1615.728	635.6
1620.256	626.6
1624.78	636.6
1629.3	633.6
1633.816	634.6
1638.327	652.6
1642.834	642.6
1647.336	632.6
1651.834	644.6
1656.328	630.6
1660.817	639.6
1665.302	620.6
1669.783	616.6
1674.259	603.6
1678.732	581.6
1683.199	555.6
1687.663	543.6
1692.122	521.6
1696.577	490.6
1701.028	478.6
1705.474	441.6
1709.917	421.6
1714.355	425.6
1718.788	412.6
1723.218	414.6
1727.643	421.6
1732.064	416.6
1736.481	422.6
1740.893	410.6
1745.301	414.6
1749.705	404.6
1754.105	380.6
1758.501	388.6
1762.893	376.6
1767.28	366.6
1771.663	359.6
1776.042	354.6
1780.417	349.6
1784.787	335.6
1789.154	339.6
1793.516	334.6
1797.874	321.6
1802.228	310.6
1806.578	309.6
1810.924	300.6
1815.266	299.6
1819.603	297.6
1823.937	312.6
1828.266	306.6
1832.591	315.6
1836.913	325.6
1841.23	321.6
1845.543	317.6
1849.852	327.6
1854.156	338.6
1858.457	325.6
1862.754	323.6
1867.047	325.6
1871.335	325.6
1875.62	316.6
1879.9	331.6
1884.177	316.6
1888.449	314.6
1892.718	310.6
1896.982	302.6
1901.243	292.6
1905.499	291.6
1909.752	278.6
1914	276.6
1918.245	275.6
1922.485	262.6
1926.722	261.6
1930.954	262.6
1935.183	262.6
1939.408	250.6
1943.628	261.6
1947.845	245.6
1952.058	242.6
1956.267	233.6
1960.472	249.6
1964.673	239.6
1968.87	234.6
1973.063	236.6
1977.252	237.6
1981.438	252.6
1985.619	243.6
1989.797	246.6
1993.971	244.6
1998.14	241.6
2002.306	253.6
2006.469	255.6
2010.627	247.6
2014.781	254.6
2018.932	249.6
2023.078	252.6
2027.221	251.6
2031.36	248.6
2035.495	241.6
2039.627	231.6
2043.754	234.6
2047.878	230.6
2051.998	235.6
2056.114	226.6
2060.226	229.6
2064.334	222.6
2068.439	220.6
2072.54	224.6
2076.637	215.6
2080.73	209.6
2084.82	222.6
2088.906	220.6
2092.988	209.6
2097.066	207.6
2101.14	203.6
2105.211	201.6
2109.278	199.6
2113.342	184.6
2117.401	188.6
2121.457	197.6
2125.509	194.6
2129.558	187.6
2133.602	187.6
2137.643	190.6
2141.681	188.6
2145.714	192.6
2149.744	195.6
2153.77	195.6
2157.793	196.6
2161.812	204.6
2165.827	197.6
2169.838	189.6
2173.846	185.6
2177.851	184.6
2181.851	187.6
2185.848	184.6
2189.841	179.6
2193.831	181.6
2197.817	171.6
2201.799	184.6
2205.778	176.6
2209.753	175.6
2213.725	176.6
2217.693	177.6
2221.657	171.6
2225.618	172.6
2229.575	167.6
2233.529	174.6
2237.479	182.6
2241.425	172.6
2245.368	174.6
2249.307	173.6
2253.243	163.6
2257.175	164.6
2261.104	154.6
2265.029	156.6
2268.95	161.6
2272.868	158.6
2276.783	152.6
2280.694	147.6
2284.601	147.6
2288.505	149.6
2292.405	144.6
2296.302	144.6
2300.195	148.6
2304.085	138.6
2307.971	138.6
2311.854	132.6
2315.734	131.6
2319.609	139.6
2323.482	138.6
2327.351	136.6
2331.216	140.6
2335.078	150.6
2338.937	143.6
2342.792	147.6
2346.643	137.6
2350.492	145.6
2354.336	135.6
2358.178	136.6
2362.015	138.6
2365.85	140.6
2369.681	144.6
2373.508	143.6
2377.333	144.6
2381.153	146.6
2384.971	131.6
2388.785	133.6
2392.595	128.6
2396.402	140.6
2400.206	136.6
2404.007	130.6
2407.804	132.6
2411.597	133.6
2415.388	131.6
2419.174	142.6
2422.958	132.6
2426.738	137.6
2430.515	135.6
2434.289	132.6
2438.059	133.6
2441.825	136.6
2445.589	128.6
2449.349	124.6
2453.106	124.6
2456.859	122.6
2460.61	120.6
2464.356	128.6
2468.1	118.6
2471.84	112.6
2475.577	113.6
2479.311	115.6
2483.041	113.6
2486.768	109.6
2490.492	118.6
2494.213	106.6
2497.93	112.6
2501.644	102.6
2505.355	105.6
2509.062	107.6
2512.766	111.6
2516.467	108.6
2520.165	100.6
2523.859	107.6
2527.551	104.6
2531.239	101.6
2534.923	94.6
2538.605	90.6
2542.283	91.6
2545.958	99.6
2549.63	92.6
2553.299	93.6
2556.964	83.6
2560.626	83.6
2564.285	92.6
2567.941	78.6
2571.594	73.6
2575.243	83.6
2578.89	76.6
2582.533	84.6
2586.173	78.6
2589.809	89.6
2593.443	84.6
2597.073	82.6
2600.701	76.6
2604.325	77.6
2607.946	63.6
2611.564	76.6
2615.178	78.6
2618.79	75.6
2622.398	71.6
2626.004	67.6
2629.606	65.6
2633.205	72.6
2636.801	69.6
2640.394	72.6
2643.983	70.6
2647.57	68.6
2651.153	64.6
2654.734	59.6
2658.311	65.6
2661.885	62.6
2665.456	65.6
2669.025	67.6
2672.589	63.6
2676.151	57.6
2679.71	59.6
2683.266	58.6
2686.819	61.6
2690.368	59.6
2693.915	61.6
2697.458	52.6
2700.999	59.6
2704.536	54.6
2708.071	54.6
2711.602	45.6
2715.13	45.6
2718.656	53.6
2722.178	41.6
2725.697	46.6
2729.214	46.6
2732.727	48.6
2736.237	56.6
2739.744	38.6
2743.249	49.6
2746.75	43.6
2750.248	42.6
2753.743	40.6
2757.236	35.6
2760.725	37.6
2764.211	27.6
2767.695	30.6
2771.175	28.6
2774.652	30.6
2778.127	36.6
2781.598	24.6
2785.067	29.6
2788.532	31.6
2791.995	34.6
2795.455	27.6
2798.911	34.6
2802.365	38.6
2805.816	31.6
2809.264	31.6
2812.709	26.6
2816.151	40.6
2819.59	46.6
2823.026	38.6
2826.46	36.6
2829.89	38.6
2833.318	34.6
2836.742	37.6
2840.164	36.6
2843.583	36.6
2846.999	34.6
2850.412	35.6
2853.822	34.6
2857.229	35.6
2860.634	34.6
2864.035	34.6
2867.434	38.6
2870.83	44.6
2874.223	37.6
2877.613	45.6
2881	47.6
2884.385	50.6
2887.766	47.6
2891.145	47.6
2894.521	47.6
2897.894	48.6
2901.264	52.6
2904.631	41.6
2907.996	50.6
2911.358	60.6
2914.717	48.6
2918.073	48.6
2921.426	51.6
2924.777	56.6
2928.124	50.6
2931.469	58.6
2934.811	65.6
2938.15	64.6
2941.487	74.6
2944.821	60.6
2948.152	65.6
2951.48	66.6
2954.805	63.6
2958.128	65.6
2961.447	65.6
2964.765	57.6
2968.079	54.6
2971.39	62.6
2974.699	55.6
2978.005	68.6
2981.308	55.6
2984.609	58.6
2987.907	57.6
2991.202	57.6
2994.494	63.6
2997.784	46.6
3001.07	58.6
3004.355	53.6
3007.636	57.6
3010.915	59.6
3014.191	59.6
3017.464	61.6
3020.734	64.6
3024.002	61.6
3027.267	72.6
3030.53	67.6
3033.789	72.6
3037.046	74.6
3040.301	70.6
3043.552	73.6
3046.801	76.6
3050.048	84.6
3053.291	83.6
3056.532	85.6
3059.771	89.6
3063.006	97.6
3066.239	96.6
3069.469	105.6
3072.697	97.6
3075.922	111.6
3079.144	110.6
3082.364	113.6
3085.581	122.6
3088.795	119.6
3092.007	120.6
3095.216	125.6
3098.423	133.6
3101.627	126.6
3104.828	139.6
3108.026	138.6
3111.222	138.6
3114.416	142.6
3117.607	146.6
3120.795	145.6
3123.98	150.6
3127.163	164.6
3130.344	156.6
3133.521	162.6
3136.696	161.6
3139.869	173.6
3143.039	177.6
3146.206	175.6
3149.371	167.6
3152.533	179.6
3155.693	179.6
3158.85	184.6
3162.005	180.6
3165.157	182.6
3168.306	192.6
3171.453	182.6
3174.597	188.6
3177.739	188.6
3180.878	187.6
3184.014	183.6
3187.149	179.6
3190.28	188.6
3193.409	187.6
3196.536	183.6
3199.659	182.6
3202.781	187.6
3205.9	185.6
3209.016	186.6
3212.13	191.6
3215.241	188.6
3218.35	183.6
3221.456	188.6
3224.56	180.6
3227.661	175.6
3230.76	168.6
3233.856	176.6
3236.95	164.6
3240.041	162.6
3243.13	171.6
3246.216	153.6
3249.3	156.6
3252.382	160.6
3255.46	160.6
3258.537	157.6
3261.611	144.6
3264.682	151.6
3267.751	151.6
3270.818	132.6
3273.882	146.6
3276.943	137.6
3280.002	143.6
3283.059	141.6
3286.113	130.6
3289.165	140.6
3292.214	132.6
3295.261	140.6
3298.306	141.6
3301.348	139.6
3304.387	127.6
3307.425	127.6
3310.459	120.6
3313.492	127.6
3316.521	123.6
3319.549	132.6
3322.574	127.6
3325.597	124.6
3328.617	125.6
3331.635	131.6
3334.65	134.6
3337.663	125.6
3340.674	121.6
3343.682	129.6
3346.688	125.6
3349.691	131.6
3352.692	118.6
3355.691	132.6
3358.687	134.6
3361.681	123.6
3364.673	127.6
3367.662	127.6
3370.649	126.6
3373.633	118.6
3376.615	118.6
3379.595	107.6
3382.572	106.6
3385.547	119.6
3388.52	112.6
3391.49	106.6
3394.458	101.6
3397.424	103.6
3400.387	106.6
3403.348	100.6
3406.307	94.6
3409.263	94.6
3412.217	93.6
3415.168	102.6
3418.118	87.6
3421.065	86.6
3424.009	88.6
3426.951	78.6
3429.891	85.6
3432.829	87.6
3435.764	83.6
3438.697	79.6
3441.628	68.6
3444.557	77.6
3447.483	64.6
3450.407	63.6
3453.328	69.6
3456.247	58.6
3459.164	64.6
3462.079	48.6
3464.991	50.6
3467.902	53.6
3470.809	43.6
3473.715	40.6
3476.618	33.6
3479.519	33.6
3482.418	28.6
3485.315	27.6
3488.209	24.6
3491.101	22.6
3493.99	30.6
3496.878	17.6
3499.763	12.6
3502.646	13.6
3505.527	18.6
3508.405	17.6
3511.281	11.6
3514.155	7.6
3517.027	5.6
3519.897	13.6
3522.764	5.6
3525.629	5.6
3528.492	-0.4
3531.352	-3.4
3534.211	-4.4
3537.067	-9.4
3539.921	-5.4
3542.773	-19.4
3545.622	-9.4
3548.469	-7.4
3551.315	-11.4
3554.157	-15.4
3556.998	-14.4
3559.837	-21.4
3562.673	-15.4
3565.507	-16.4
3568.339	-12.4
3571.169	-19.4
3573.996	-13.4
3576.822	-21.4
3579.645	-22.4
3582.466	-24.4
3585.285	-22.4
3588.101	-25.4
3590.916	-21.4
3593.728	-28.4
3596.538	-28.4
3599.346	-31.4
3602.152	-30.4
3604.956	-29.4
3607.757	-20.4
3610.556	-30.4
3613.354	-43.4
3616.149	-32.4
3618.942	-35.4
3621.732	-42.4
3624.521	-32.4
3627.307	-35.4
3630.092	-35.4
3632.874	-37.4
3635.654	-37.4
3638.432	-36.4
3641.208	-35.4
3643.982	-35.4
3646.753	-38.4
3649.523	-33.4
3652.29	-38.4
3655.055	-35.4
3657.818	-37.4
3660.579	-41.4
3663.338	-41.4
3666.095	-39.4
3668.849	-41.4
3671.602	-39.4
3674.352	-45.4
3677.101	-44.4
3679.847	-41.4
3682.591	-45.4
3685.333	-47.4
3688.073	-46.4
3690.811	-41.4
3693.547	-47.4
3696.281	-40.4
3699.013	-45.4
3701.742	-46.4
3704.47	-45.4
3707.195	-45.4
3709.919	-46.4
3712.64	-44.4
3715.359	-49.4
3718.076	-46.4
3720.792	-43.4
3723.505	-44.4
3726.216	-42.4
3728.925	-56.4
3731.632	-44.4
3734.336	-45.4
3737.039	-44.4
3739.74	-52.4
3742.439	-54.4
3745.136	-49.4
3747.83	-49.4
3750.523	-55.4
3753.213	-50.4
3755.902	-55.4
3758.589	-47.4
3761.273	-49.4
3763.956	-49.4
3766.636	-49.4
3769.315	-45.4
3771.991	-47.4
3774.665	-48.4
3777.338	-49.4
3780.008	-42.4
3782.677	-54.4
3785.343	-46.4
3788.007	-50.4
3790.67	-49.4
3793.33	-54.4
3795.989	-52.4
3798.645	-52.4
3801.299	-49.4
3803.952	-52.4
3806.602	-52.4
3809.251	-59.4
3811.897	-57.4
3814.542	-52.4
3817.184	-56.4
3819.825	-48.4
3822.463	-53.4
3825.1	-43.4
3827.735	-55.4
3830.367	-57.4
3832.998	-55.4
3835.627	-52.4
3838.253	-46.4
3840.878	-43.4
3843.501	-44.4
3846.122	-56.4
3848.741	-49.4
3851.358	-53.4
3853.973	-47.4
3856.586	-50.4
3859.197	-51.4
3861.806	-58.4
3864.414	-54.4
3867.019	-54.4
3869.622	-50.4
3872.224	-43.4
3874.823	-31.4
3877.421	-18.4
3880.016	-16.4
3882.61	-2.4
3885.202	0.6
3887.792	-8.4
3890.38	-20.4
3892.966	-38.4
3895.55	-45.4
3898.132	-47.4
3900.713	-51.4
3903.291	-53.4
3905.868	-47.4
3908.442	-54.4
3911.015	-50.4
3913.586	-59.4
3916.155	-52.4
3918.722	-54.4
3921.287	-57.4
3923.85	-48.4
3926.411	-55.4
3928.971	-66.4
3931.528	-53.4
3934.084	-52.4
3936.638	-49.4
3939.19	-56.4
3941.74	-48.4
3944.288	-46.4
3946.834	-52.4
3949.378	-49.4
3951.921	-49.4
3954.462	-56.4
3957	-42.4
3959.537	-49.4
3962.072	-45.4
3964.606	-50.4
3967.137	-53.4
3969.667	-56.4
3972.194	-51.4
3974.72	-51.4
3977.244	-47.4
3979.766	-55.4
3982.286	-52.4
3984.805	-61.4
3987.321	-51.4
3989.836	-47.4
3992.349	-50.4
3994.86	-52.4
3997.369	-51.4
3999.877	-50.4
4002.382	-47.4
4004.886	-50.4
4007.388	-54.4
4009.888	-50.4
4012.386	-54.4
4014.883	-49.4
4017.377	-53.4
4019.87	-50.4
4022.361	-59.4
4024.85	-49.4
4027.338	-59.4
4029.823	-56.4
4032.307	-58.4
4034.789	-51.4
4037.269	-55.4
4039.747	-54.4
4042.224	-50.4
4044.699	-54.4
4047.172	-52.4
4049.643	-53.4
4052.112	-50.4
4054.58	-47.4
4057.046	-48.4
4059.51	-56.4
4061.972	-58.4
4064.432	-51.4
4066.891	-54.4
4069.348	-53.4
4071.803	-51.4
4074.256	-52.4
4076.708	-53.4
4079.158	-59.4
4081.606	-52.4
4084.052	-55.4
4086.497	-49.4
4088.939	-48.4
4091.38	-55.4
4093.819	-55.4
4096.257	-51.4
4098.693	-54.4
4101.127	-47.4
4103.559	-57.4
4105.989	6.6
4108.418	-1.4
4110.845	1.6
4113.27	-1.4
4115.694	7.6
4118.115	0.6
4120.535	-48.4
4122.954	-49.4
4125.37	-49.4
4127.785	-49.4
4130.198	-52.4
4132.609	-51.4
4135.019	-53.4
4137.427	-55.4
4139.833	-54.4
4142.237	-54.4
