Data from 2018-3-7_conc=0_n=1_RamanShift_01.txt Node
Date: Wed Mar 07 10:03:53 IST 2018
User: aro
Spectrometer: QEPB0276
Trigger mode: 0
Integration Time (sec): 3.000000E1
Scans to average: 1
Electric dark correction enabled: true
Nonlinearity correction enabled: false
Boxcar width: 0
XAxis mode: Raman Shifts
Number of Pixels in Spectrum: 1044
>>>>>Begin Spectral Data<<<<<
160.701	15.1
166.742	27.1
172.777	65.1
178.805	191.1
184.826	502.1
190.841	1062.1
196.849	1759.1
202.85	2330.1
208.845	2550.1
214.833	2550.1
220.815	2574.1
226.789	2553.1
232.758	2560.1
238.719	2576.1
244.674	2563.1
250.623	2563.1
256.565	2535.1
262.5	2512.1
268.429	2494.1
274.351	2489.1
280.267	2485.1
286.176	2478.1
292.079	2466.1
297.975	2496.1
303.865	2475.1
309.748	2505.1
315.625	2490.1
321.495	2487.1
327.359	2502.1
333.217	2495.1
339.068	2531.1
344.912	2517.1
350.751	2516.1
356.583	2551.1
362.408	2551.1
368.227	2569.1
374.04	2577.1
379.847	2596.1
385.647	2609.1
391.44	2629.1
397.228	2641.1
403.009	2668.1
408.784	2666.1
414.553	2697.1
420.315	2700.1
426.071	2731.1
431.821	2757.1
437.565	2764.1
443.302	2755.1
449.033	2754.1
454.758	2727.1
460.477	2691.1
466.189	2654.1
471.896	2611.1
477.596	2587.1
483.29	2566.1
488.978	2574.1
494.66	2553.1
500.335	2512.1
506.005	2397.1
511.668	2272.1
517.325	2174.1
522.977	2084.1
528.622	2011.1
534.261	1983.1
539.894	1918.1
545.521	1901.1
551.141	1868.1
556.756	1851.1
562.365	1837.1
567.968	1840.1
573.565	1805.1
579.155	1802.1
584.74	1796.1
590.319	1772.1
595.892	1750.1
601.459	1777.1
607.02	1767.1
612.575	1750.1
618.124	1731.1
623.667	1712.1
629.204	1687.1
634.735	1671.1
640.261	1655.1
645.781	1648.1
651.294	1629.1
656.802	1607.1
662.304	1619.1
667.8	1630.1
673.29	1609.1
678.775	1597.1
684.254	1602.1
689.726	1592.1
695.193	1590.1
700.655	1576.1
706.11	1574.1
711.56	1552.1
717.004	1540.1
722.442	1538.1
727.874	1536.1
733.301	1545.1
738.722	1507.1
744.137	1513.1
749.547	1510.1
754.951	1506.1
760.349	1528.1
765.741	1521.1
771.128	1508.1
776.509	1553.1
781.885	1579.1
787.254	1570.1
792.618	1603.1
797.977	1584.1
803.33	1585.1
808.677	1568.1
814.019	1568.1
819.355	1550.1
824.686	1523.1
830.011	1521.1
835.33	1522.1
840.644	1532.1
845.952	1525.1
851.255	1515.1
856.552	1517.1
861.844	1523.1
867.13	1551.1
872.41	1638.1
877.686	1794.1
882.955	1938.1
888.219	1963.1
893.478	1784.1
898.731	1578.1
903.979	1459.1
909.221	1396.1
914.458	1358.1
919.69	1357.1
924.916	1354.1
930.136	1338.1
935.351	1334.1
940.561	1334.1
945.766	1349.1
950.965	1333.1
956.158	1326.1
961.347	1301.1
966.529	1293.1
971.707	1253.1
976.879	1243.1
982.046	1234.1
987.208	1239.1
992.364	1238.1
997.515	1243.1
1002.66	1241.1
1007.801	1270.1
1012.936	1300.1
1018.066	1333.1
1023.19	1335.1
1028.309	1335.1
1033.423	1339.1
1038.532	1363.1
1043.636	1396.1
1048.734	1434.1
1053.827	1449.1
1058.915	1417.1
1063.998	1356.1
1069.075	1317.1
1074.147	1313.1
1079.214	1338.1
1084.276	1377.1
1089.333	1404.1
1094.385	1414.1
1099.431	1389.1
1104.472	1333.1
1109.509	1298.1
1114.54	1240.1
1119.565	1220.1
1124.586	1190.1
1129.602	1176.1
1134.613	1176.1
1139.618	1143.1
1144.619	1133.1
1149.614	1140.1
1154.604	1133.1
1159.589	1146.1
1164.57	1143.1
1169.545	1135.1
1174.515	1139.1
1179.48	1134.1
1184.44	1123.1
1189.395	1106.1
1194.345	1097.1
1199.29	1098.1
1204.23	1088.1
1209.165	1093.1
1214.095	1112.1
1219.021	1114.1
1223.941	1132.1
1228.856	1114.1
1233.766	1125.1
1238.672	1127.1
1243.572	1119.1
1248.467	1130.1
1253.358	1098.1
1258.244	1098.1
1263.124	1081.1
1268	1081.1
1272.871	1073.1
1277.737	1092.1
1282.599	1086.1
1287.455	1088.1
1292.306	1072.1
1297.153	1060.1
1301.995	1068.1
1306.832	1043.1
1311.664	1043.1
1316.491	1048.1
1321.314	1032.1
1326.132	1033.1
1330.945	1006.1
1335.753	1000.1
1340.556	971.1
1345.354	974.1
1350.148	935.1
1354.937	912.1
1359.722	897.1
1364.501	880.1
1369.276	869.1
1374.046	846.1
1378.811	857.1
1383.572	862.1
1388.327	858.1
1393.079	866.1
1397.825	868.1
1402.567	871.1
1407.304	901.1
1412.036	891.1
1416.764	906.1
1421.487	909.1
1426.205	916.1
1430.919	911.1
1435.628	938.1
1440.333	950.1
1445.032	967.1
1449.727	1014.1
1454.418	1085.1
1459.104	1132.1
1463.785	1103.1
1468.462	1032.1
1473.134	942.1
1477.802	881.1
1482.465	834.1
1487.123	825.1
1491.777	805.1
1496.426	785.1
1501.071	758.1
1505.711	747.1
1510.347	716.1
1514.978	711.1
1519.604	694.1
1524.226	703.1
1528.844	692.1
1533.457	683.1
1538.065	694.1
1542.669	688.1
1547.269	685.1
1551.864	702.1
1556.454	716.1
1561.041	728.1
1565.622	732.1
1570.199	730.1
1574.772	731.1
1579.34	737.1
1583.904	739.1
1588.464	752.1
1593.019	753.1
1597.569	752.1
1602.115	745.1
1606.657	745.1
1611.195	749.1
1615.728	728.1
1620.256	732.1
1624.78	723.1
1629.3	735.1
1633.816	736.1
1638.327	742.1
1642.834	719.1
1647.336	720.1
1651.834	717.1
1656.328	717.1
1660.817	712.1
1665.302	691.1
1669.783	680.1
1674.259	671.1
1678.732	645.1
1683.199	606.1
1687.663	596.1
1692.122	553.1
1696.577	534.1
1701.028	501.1
1705.474	480.1
1709.917	471.1
1714.355	448.1
1718.788	466.1
1723.218	468.1
1727.643	470.1
1732.064	472.1
1736.481	473.1
1740.893	461.1
1745.301	445.1
1749.705	446.1
1754.105	429.1
1758.501	417.1
1762.893	416.1
1767.28	396.1
1771.663	390.1
1776.042	384.1
1780.417	369.1
1784.787	363.1
1789.154	361.1
1793.516	344.1
1797.874	338.1
1802.228	339.1
1806.578	336.1
1810.924	329.1
1815.266	333.1
1819.603	337.1
1823.937	342.1
1828.266	339.1
1832.591	357.1
1836.913	352.1
1841.23	350.1
1845.543	349.1
1849.852	362.1
1854.156	358.1
1858.457	362.1
1862.754	361.1
1867.047	353.1
1871.335	356.1
1875.62	339.1
1879.9	334.1
1884.177	330.1
1888.449	340.1
1892.718	320.1
1896.982	323.1
1901.243	303.1
1905.499	295.1
1909.752	295.1
1914	290.1
1918.245	279.1
1922.485	275.1
1926.722	263.1
1930.954	263.1
1935.183	267.1
1939.408	266.1
1943.628	258.1
1947.845	265.1
1952.058	262.1
1956.267	253.1
1960.472	255.1
1964.673	242.1
1968.87	256.1
1973.063	256.1
1977.252	259.1
1981.438	259.1
1985.619	248.1
1989.797	264.1
1993.971	264.1
1998.14	260.1
2002.306	268.1
2006.469	281.1
2010.627	270.1
2014.781	266.1
2018.932	267.1
2023.078	272.1
2027.221	262.1
2031.36	258.1
2035.495	245.1
2039.627	248.1
2043.754	251.1
2047.878	250.1
2051.998	241.1
2056.114	237.1
2060.226	235.1
2064.334	235.1
2068.439	232.1
2072.54	226.1
2076.637	226.1
2080.73	222.1
2084.82	215.1
2088.906	212.1
2092.988	214.1
2097.066	204.1
2101.14	218.1
2105.211	209.1
2109.278	204.1
2113.342	197.1
2117.401	195.1
2121.457	202.1
2125.509	202.1
2129.558	204.1
2133.602	209.1
2137.643	204.1
2141.681	207.1
2145.714	214.1
2149.744	209.1
2153.77	209.1
2157.793	206.1
2161.812	214.1
2165.827	212.1
2169.838	217.1
2173.846	200.1
2177.851	199.1
2181.851	211.1
2185.848	201.1
2189.841	196.1
2193.831	194.1
2197.817	192.1
2201.799	191.1
2205.778	188.1
2209.753	195.1
2213.725	188.1
2217.693	199.1
2221.657	204.1
2225.618	183.1
2229.575	184.1
2233.529	182.1
2237.479	195.1
2241.425	182.1
2245.368	187.1
2249.307	186.1
2253.243	174.1
2257.175	175.1
2261.104	171.1
2265.029	171.1
2268.95	174.1
2272.868	170.1
2276.783	156.1
2280.694	159.1
2284.601	157.1
2288.505	166.1
2292.405	175.1
2296.302	175.1
2300.195	159.1
2304.085	161.1
2307.971	154.1
2311.854	150.1
2315.734	146.1
2319.609	157.1
2323.482	153.1
2327.351	159.1
2331.216	176.1
2335.078	188.1
2338.937	166.1
2342.792	160.1
2346.643	148.1
2350.492	157.1
2354.336	164.1
2358.178	152.1
2362.015	158.1
2365.85	158.1
2369.681	157.1
2373.508	164.1
2377.333	165.1
2381.153	162.1
2384.971	152.1
2388.785	152.1
2392.595	155.1
2396.402	161.1
2400.206	155.1
2404.007	160.1
2407.804	155.1
2411.597	151.1
2415.388	151.1
2419.174	155.1
2422.958	146.1
2426.738	158.1
2430.515	142.1
2434.289	152.1
2438.059	140.1
2441.825	135.1
2445.589	136.1
2449.349	126.1
2453.106	134.1
2456.859	132.1
2460.61	138.1
2464.356	135.1
2468.1	131.1
2471.84	127.1
2475.577	124.1
2479.311	128.1
2483.041	129.1
2486.768	125.1
2490.492	126.1
2494.213	121.1
2497.93	122.1
2501.644	118.1
2505.355	112.1
2509.062	117.1
2512.766	113.1
2516.467	106.1
2520.165	106.1
2523.859	113.1
2527.551	97.1
2531.239	102.1
2534.923	93.1
2538.605	93.1
2542.283	85.1
2545.958	99.1
2549.63	91.1
2553.299	84.1
2556.964	94.1
2560.626	95.1
2564.285	100.1
2567.941	82.1
2571.594	84.1
2575.243	85.1
2578.89	76.1
2582.533	83.1
2586.173	83.1
2589.809	90.1
2593.443	88.1
2597.073	76.1
2600.701	81.1
2604.325	73.1
2607.946	73.1
2611.564	78.1
2615.178	77.1
2618.79	87.1
2622.398	76.1
2626.004	70.1
2629.606	75.1
2633.205	69.1
2636.801	73.1
2640.394	81.1
2643.983	74.1
2647.57	70.1
2651.153	71.1
2654.734	72.1
2658.311	70.1
2661.885	73.1
2665.456	73.1
2669.025	77.1
2672.589	67.1
2676.151	69.1
2679.71	65.1
2683.266	71.1
2686.819	72.1
2690.368	68.1
2693.915	67.1
2697.458	63.1
2700.999	68.1
2704.536	77.1
2708.071	72.1
2711.602	65.1
2715.13	61.1
2718.656	66.1
2722.178	60.1
2725.697	58.1
2729.214	57.1
2732.727	68.1
2736.237	66.1
2739.744	58.1
2743.249	49.1
2746.75	52.1
2750.248	50.1
2753.743	45.1
2757.236	45.1
2760.725	47.1
2764.211	36.1
2767.695	40.1
2771.175	39.1
2774.652	38.1
2778.127	35.1
2781.598	40.1
2785.067	41.1
2788.532	47.1
2791.995	43.1
2795.455	42.1
2798.911	39.1
2802.365	42.1
2805.816	53.1
2809.264	51.1
2812.709	49.1
2816.151	52.1
2819.59	59.1
2823.026	50.1
2826.46	62.1
2829.89	67.1
2833.318	62.1
2836.742	73.1
2840.164	72.1
2843.583	72.1
2846.999	78.1
2850.412	81.1
2853.822	87.1
2857.229	88.1
2860.634	93.1
2864.035	107.1
2867.434	112.1
2870.83	126.1
2874.223	134.1
2877.613	145.1
2881	159.1
2884.385	177.1
2887.766	195.1
2891.145	182.1
2894.521	200.1
2897.894	183.1
2901.264	175.1
2904.631	178.1
2907.996	191.1
2911.358	183.1
2914.717	173.1
2918.073	188.1
2921.426	188.1
2924.777	200.1
2928.124	213.1
2931.469	244.1
2934.811	271.1
2938.15	291.1
2941.487	291.1
2944.821	263.1
2948.152	246.1
2951.48	222.1
2954.805	198.1
2958.128	182.1
2961.447	178.1
2964.765	150.1
2968.079	157.1
2971.39	155.1
2974.699	146.1
2978.005	161.1
2981.308	153.1
2984.609	151.1
2987.907	148.1
2991.202	146.1
2994.494	133.1
2997.784	118.1
3001.07	116.1
3004.355	108.1
3007.636	107.1
3010.915	105.1
3014.191	90.1
3017.464	92.1
3020.734	95.1
3024.002	87.1
3027.267	96.1
3030.53	93.1
3033.789	90.1
3037.046	86.1
3040.301	87.1
3043.552	98.1
3046.801	97.1
3050.048	96.1
3053.291	103.1
3056.532	102.1
3059.771	100.1
3063.006	112.1
3066.239	115.1
3069.469	118.1
3072.697	130.1
3075.922	121.1
3079.144	121.1
3082.364	128.1
3085.581	132.1
3088.795	134.1
3092.007	138.1
3095.216	142.1
3098.423	138.1
3101.627	133.1
3104.828	148.1
3108.026	149.1
3111.222	152.1
3114.416	153.1
3117.607	156.1
3120.795	154.1
3123.98	164.1
3127.163	172.1
3130.344	173.1
3133.521	175.1
3136.696	172.1
3139.869	187.1
3143.039	181.1
3146.206	190.1
3149.371	191.1
3152.533	196.1
3155.693	194.1
3158.85	204.1
3162.005	203.1
3165.157	199.1
3168.306	200.1
3171.453	190.1
3174.597	199.1
3177.739	211.1
3180.878	208.1
3184.014	193.1
3187.149	195.1
3190.28	205.1
3193.409	201.1
3196.536	193.1
3199.659	209.1
3202.781	204.1
3205.9	200.1
3209.016	197.1
3212.13	201.1
3215.241	198.1
3218.35	190.1
3221.456	193.1
3224.56	188.1
3227.661	185.1
3230.76	179.1
3233.856	175.1
3236.95	162.1
3240.041	169.1
3243.13	169.1
3246.216	159.1
3249.3	148.1
3252.382	160.1
3255.46	148.1
3258.537	151.1
3261.611	143.1
3264.682	150.1
3267.751	141.1
3270.818	134.1
3273.882	143.1
3276.943	138.1
3280.002	140.1
3283.059	137.1
3286.113	136.1
3289.165	137.1
3292.214	141.1
3295.261	135.1
3298.306	135.1
3301.348	132.1
3304.387	135.1
3307.425	130.1
3310.459	123.1
3313.492	138.1
3316.521	130.1
3319.549	138.1
3322.574	128.1
3325.597	125.1
3328.617	131.1
3331.635	131.1
3334.65	142.1
3337.663	133.1
3340.674	127.1
3343.682	125.1
3346.688	130.1
3349.691	133.1
3352.692	129.1
3355.691	135.1
3358.687	124.1
3361.681	125.1
3364.673	123.1
3367.662	123.1
3370.649	120.1
3373.633	112.1
3376.615	121.1
3379.595	111.1
3382.572	106.1
3385.547	100.1
3388.52	102.1
3391.49	103.1
3394.458	96.1
3397.424	101.1
3400.387	97.1
3403.348	94.1
3406.307	87.1
3409.263	89.1
3412.217	91.1
3415.168	96.1
3418.118	89.1
3421.065	75.1
3424.009	71.1
3426.951	77.1
3429.891	73.1
3432.829	75.1
3435.764	77.1
3438.697	72.1
3441.628	66.1
3444.557	57.1
3447.483	54.1
3450.407	49.1
3453.328	53.1
3456.247	45.1
3459.164	47.1
3462.079	36.1
3464.991	40.1
3467.902	37.1
3470.809	34.1
3473.715	30.1
3476.618	25.1
3479.519	20.1
3482.418	15.1
3485.315	16.1
3488.209	8.1
3491.101	9.1
3493.99	15.1
3496.878	10.1
3499.763	4.1
3502.646	6.1
3505.527	4.1
3508.405	-2.9
3511.281	-1.9
3514.155	-3.9
3517.027	-11.9
3519.897	-5.9
3522.764	-13.9
3525.629	-14.9
3528.492	-17.9
3531.352	-20.9
3534.211	-25.9
3537.067	-21.9
3539.921	-17.9
3542.773	-26.9
3545.622	-22.9
3548.469	-29.9
3551.315	-28.9
3554.157	-33.9
3556.998	-31.9
3559.837	-36.9
3562.673	-32.9
3565.507	-35.9
3568.339	-31.9
3571.169	-36.9
3573.996	-36.9
3576.822	-44.9
3579.645	-40.9
3582.466	-42.9
3585.285	-39.9
3588.101	-46.9
3590.916	-41.9
3593.728	-44.9
3596.538	-41.9
3599.346	-47.9
3602.152	-42.9
3604.956	-41.9
3607.757	-42.9
3610.556	-44.9
3613.354	-46.9
3616.149	-53.9
3618.942	-47.9
3621.732	-55.9
3624.521	-51.9
3627.307	-49.9
3630.092	-50.9
3632.874	-49.9
3635.654	-52.9
3638.432	-51.9
3641.208	-53.9
3643.982	-54.9
3646.753	-60.9
3649.523	-47.9
3652.29	-51.9
3655.055	-49.9
3657.818	-56.9
3660.579	-58.9
3663.338	-59.9
3666.095	-59.9
3668.849	-58.9
3671.602	-57.9
3674.352	-52.9
3677.101	-58.9
3679.847	-59.9
3682.591	-65.9
3685.333	-60.9
3688.073	-65.9
3690.811	-57.9
3693.547	-62.9
3696.281	-54.9
3699.013	-62.9
3701.742	-63.9
3704.47	-59.9
3707.195	-59.9
3709.919	-59.9
3712.64	-61.9
3715.359	-65.9
3718.076	-65.9
3720.792	-66.9
3723.505	-67.9
3726.216	-62.9
3728.925	-64.9
3731.632	-58.9
3734.336	-68.9
3737.039	-59.9
3739.74	-67.9
3742.439	-73.9
3745.136	-67.9
3747.83	-61.9
3750.523	-64.9
3753.213	-78.9
3755.902	-67.9
3758.589	-68.9
3761.273	-60.9
3763.956	-66.9
3766.636	-63.9
3769.315	-61.9
3771.991	-65.9
3774.665	-72.9
3777.338	-66.9
3780.008	-69.9
3782.677	-69.9
3785.343	-68.9
3788.007	-65.9
3790.67	-66.9
3793.33	-70.9
3795.989	-67.9
3798.645	-71.9
3801.299	-70.9
3803.952	-67.9
3806.602	-69.9
3809.251	-73.9
3811.897	-70.9
3814.542	-73.9
3817.184	-73.9
3819.825	-66.9
3822.463	-62.9
3825.1	-61.9
3827.735	-70.9
3830.367	-77.9
3832.998	-73.9
3835.627	-73.9
3838.253	-62.9
3840.878	-65.9
3843.501	-66.9
3846.122	-71.9
3848.741	-70.9
3851.358	-68.9
3853.973	-64.9
3856.586	-67.9
3859.197	-67.9
3861.806	-69.9
3864.414	-65.9
3867.019	-68.9
3869.622	-70.9
3872.224	-64.9
3874.823	-50.9
3877.421	-47.9
3880.016	-40.9
3882.61	-25.9
3885.202	-17.9
3887.792	-29.9
3890.38	-47.9
3892.966	-56.9
3895.55	-59.9
3898.132	-64.9
3900.713	-72.9
3903.291	-73.9
3905.868	-70.9
3908.442	-70.9
3911.015	-63.9
3913.586	-73.9
3916.155	-71.9
3918.722	-73.9
3921.287	-72.9
3923.85	-63.9
3926.411	-76.9
3928.971	-74.9
3931.528	-71.9
3934.084	-66.9
3936.638	-61.9
3939.19	-74.9
3941.74	-68.9
3944.288	-69.9
3946.834	-67.9
3949.378	-70.9
3951.921	-67.9
3954.462	-72.9
3957	-63.9
3959.537	-61.9
3962.072	-66.9
3964.606	-68.9
3967.137	-67.9
3969.667	-70.9
3972.194	-68.9
3974.72	-64.9
3977.244	-68.9
3979.766	-68.9
3982.286	-70.9
3984.805	-74.9
3987.321	-69.9
3989.836	-61.9
3992.349	-68.9
3994.86	-72.9
3997.369	-71.9
3999.877	-71.9
4002.382	-64.9
4004.886	-67.9
4007.388	-72.9
4009.888	-71.9
4012.386	-73.9
4014.883	-72.9
4017.377	-67.9
4019.87	-64.9
4022.361	-70.9
4024.85	-62.9
4027.338	-72.9
4029.823	-74.9
4032.307	-68.9
4034.789	-69.9
4037.269	-66.9
4039.747	-69.9
4042.224	-71.9
4044.699	-73.9
4047.172	-74.9
4049.643	-70.9
4052.112	-71.9
4054.58	-69.9
4057.046	-65.9
4059.51	-69.9
4061.972	-73.9
4064.432	-64.9
4066.891	-68.9
4069.348	-71.9
4071.803	-65.9
4074.256	-64.9
4076.708	-67.9
4079.158	-72.9
4081.606	-67.9
4084.052	-69.9
4086.497	-62.9
4088.939	-66.9
4091.38	-68.9
4093.819	-71.9
4096.257	-70.9
4098.693	-72.9
4101.127	-66.9
4103.559	-78.9
4105.989	16.1
4108.418	12.1
4110.845	9.1
4113.27	12.1
4115.694	9.1
4118.115	13.1
4120.535	-68.9
4122.954	-65.9
4125.37	-68.9
4127.785	-70.9
4130.198	-64.9
4132.609	-67.9
4135.019	-72.9
4137.427	-76.9
4139.833	-73.9
4142.237	-74.9
