Data from 2018-3-7_conc=4_n=6_RamanShift_03.txt Node
Date: Wed Mar 07 12:06:22 IST 2018
User: aro
Spectrometer: QEPB0276
Trigger mode: 0
Integration Time (sec): 3.000000E1
Scans to average: 1
Electric dark correction enabled: true
Nonlinearity correction enabled: false
Boxcar width: 0
XAxis mode: Raman Shifts
Number of Pixels in Spectrum: 1044
>>>>>Begin Spectral Data<<<<<
160.701	14.1
166.742	18.1
172.777	51.1
178.805	136.1
184.826	348.1
190.841	749.1
196.849	1226.1
202.85	1604.1
208.845	1753.1
214.833	1759.1
220.815	1737.1
226.789	1736.1
232.758	1752.1
238.719	1725.1
244.674	1725.1
250.623	1725.1
256.565	1703.1
262.5	1667.1
268.429	1659.1
274.351	1650.1
280.267	1631.1
286.176	1613.1
292.079	1644.1
297.975	1621.1
303.865	1628.1
309.748	1621.1
315.625	1609.1
321.495	1611.1
327.359	1630.1
333.217	1613.1
339.068	1631.1
344.912	1629.1
350.751	1634.1
356.583	1618.1
362.408	1626.1
368.227	1646.1
374.04	1646.1
379.847	1673.1
385.647	1666.1
391.44	1652.1
397.228	1665.1
403.009	1678.1
408.784	1686.1
414.553	1698.1
420.315	1704.1
426.071	1709.1
431.821	1709.1
437.565	1701.1
443.302	1693.1
449.033	1699.1
454.758	1687.1
460.477	1651.1
466.189	1644.1
471.896	1645.1
477.596	1636.1
483.29	1634.1
488.978	1628.1
494.66	1624.1
500.335	1581.1
506.005	1542.1
511.668	1477.1
517.325	1421.1
522.977	1388.1
528.622	1351.1
534.261	1336.1
539.894	1307.1
545.521	1292.1
551.141	1280.1
556.756	1264.1
562.365	1242.1
567.968	1251.1
573.565	1254.1
579.155	1251.1
584.74	1247.1
590.319	1212.1
595.892	1224.1
601.459	1224.1
607.02	1219.1
612.575	1220.1
618.124	1200.1
623.667	1183.1
629.204	1177.1
634.735	1162.1
640.261	1156.1
645.781	1137.1
651.294	1148.1
656.802	1139.1
662.304	1143.1
667.8	1134.1
673.29	1135.1
678.775	1131.1
684.254	1132.1
689.726	1111.1
695.193	1107.1
700.655	1095.1
706.11	1106.1
711.56	1094.1
717.004	1063.1
722.442	1073.1
727.874	1078.1
733.301	1073.1
738.722	1059.1
744.137	1062.1
749.547	1047.1
754.951	1057.1
760.349	1033.1
765.741	1069.1
771.128	1057.1
776.509	1077.1
781.885	1081.1
787.254	1093.1
792.618	1081.1
797.977	1095.1
803.33	1060.1
808.677	1064.1
814.019	1053.1
819.355	1053.1
824.686	1037.1
830.011	1045.1
835.33	1033.1
840.644	1034.1
845.952	1026.1
851.255	1028.1
856.552	1014.1
861.844	1015.1
867.13	1007.1
872.41	1013.1
877.686	997.1
882.955	997.1
888.219	982.1
893.478	983.1
898.731	947.1
903.979	924.1
909.221	934.1
914.458	934.1
919.69	932.1
924.916	938.1
930.136	933.1
935.351	940.1
940.561	924.1
945.766	918.1
950.965	918.1
956.158	913.1
961.347	907.1
966.529	897.1
971.707	881.1
976.879	868.1
982.046	865.1
987.208	869.1
992.364	851.1
997.515	869.1
1002.66	867.1
1007.801	891.1
1012.936	878.1
1018.066	897.1
1023.19	895.1
1028.309	890.1
1033.423	879.1
1038.532	876.1
1043.636	879.1
1048.734	874.1
1053.827	874.1
1058.915	941.1
1063.998	851.1
1069.075	845.1
1074.147	850.1
1079.214	834.1
1084.276	851.1
1089.333	857.1
1094.385	841.1
1099.431	824.1
1104.472	834.1
1109.509	826.1
1114.54	820.1
1119.565	822.1
1124.586	806.1
1129.602	795.1
1134.613	784.1
1139.618	783.1
1144.619	781.1
1149.614	782.1
1154.604	783.1
1159.589	788.1
1164.57	799.1
1169.545	791.1
1174.515	783.1
1179.48	786.1
1184.44	789.1
1189.395	767.1
1194.345	779.1
1199.29	762.1
1204.23	761.1
1209.165	763.1
1214.095	760.1
1219.021	777.1
1223.941	775.1
1228.856	781.1
1233.766	778.1
1238.672	786.1
1243.572	779.1
1248.467	775.1
1253.358	762.1
1258.244	752.1
1263.124	737.1
1268	727.1
1272.871	715.1
1277.737	720.1
1282.599	720.1
1287.455	730.1
1292.306	718.1
1297.153	717.1
1301.995	731.1
1306.832	731.1
1311.664	721.1
1316.491	715.1
1321.314	737.1
1326.132	726.1
1330.945	710.1
1335.753	692.1
1340.556	684.1
1345.354	664.1
1350.148	662.1
1354.937	645.1
1359.722	624.1
1364.501	617.1
1369.276	606.1
1374.046	583.1
1378.811	596.1
1383.572	589.1
1388.327	586.1
1393.079	583.1
1397.825	591.1
1402.567	596.1
1407.304	594.1
1412.036	598.1
1416.764	598.1
1421.487	598.1
1426.205	590.1
1430.919	595.1
1435.628	600.1
1440.333	609.1
1445.032	597.1
1449.727	623.1
1454.418	622.1
1459.104	602.1
1463.785	599.1
1468.462	593.1
1473.134	578.1
1477.802	561.1
1482.465	556.1
1487.123	542.1
1491.777	520.1
1496.426	524.1
1501.071	518.1
1505.711	502.1
1510.347	512.1
1514.978	515.1
1519.604	497.1
1524.226	501.1
1528.844	501.1
1533.457	494.1
1538.065	493.1
1542.669	494.1
1547.269	488.1
1551.864	499.1
1556.454	503.1
1561.041	512.1
1565.622	518.1
1570.199	515.1
1574.772	521.1
1579.34	523.1
1583.904	524.1
1588.464	537.1
1593.019	545.1
1597.569	535.1
1602.115	542.1
1606.657	536.1
1611.195	534.1
1615.728	539.1
1620.256	520.1
1624.78	540.1
1629.3	529.1
1633.816	538.1
1638.327	531.1
1642.834	536.1
1647.336	543.1
1651.834	532.1
1656.328	538.1
1660.817	538.1
1665.302	518.1
1669.783	516.1
1674.259	495.1
1678.732	475.1
1683.199	465.1
1687.663	451.1
1692.122	432.1
1696.577	407.1
1701.028	400.1
1705.474	377.1
1709.917	373.1
1714.355	368.1
1718.788	358.1
1723.218	366.1
1727.643	361.1
1732.064	357.1
1736.481	369.1
1740.893	348.1
1745.301	343.1
1749.705	340.1
1754.105	328.1
1758.501	321.1
1762.893	310.1
1767.28	305.1
1771.663	312.1
1776.042	295.1
1780.417	291.1
1784.787	291.1
1789.154	283.1
1793.516	270.1
1797.874	275.1
1802.228	278.1
1806.578	284.1
1810.924	262.1
1815.266	261.1
1819.603	265.1
1823.937	267.1
1828.266	272.1
1832.591	268.1
1836.913	273.1
1841.23	273.1
1845.543	268.1
1849.852	268.1
1854.156	283.1
1858.457	270.1
1862.754	279.1
1867.047	273.1
1871.335	277.1
1875.62	274.1
1879.9	276.1
1884.177	267.1
1888.449	257.1
1892.718	267.1
1896.982	252.1
1901.243	246.1
1905.499	248.1
1909.752	237.1
1914	236.1
1918.245	235.1
1922.485	223.1
1926.722	223.1
1930.954	212.1
1935.183	227.1
1939.408	226.1
1943.628	219.1
1947.845	221.1
1952.058	212.1
1956.267	208.1
1960.472	218.1
1964.673	204.1
1968.87	198.1
1973.063	212.1
1977.252	218.1
1981.438	205.1
1985.619	205.1
1989.797	204.1
1993.971	219.1
1998.14	210.1
2002.306	206.1
2006.469	220.1
2010.627	209.1
2014.781	207.1
2018.932	209.1
2023.078	218.1
2027.221	213.1
2031.36	215.1
2035.495	201.1
2039.627	191.1
2043.754	195.1
2047.878	194.1
2051.998	200.1
2056.114	187.1
2060.226	184.1
2064.334	182.1
2068.439	179.1
2072.54	180.1
2076.637	192.1
2080.73	183.1
2084.82	176.1
2088.906	174.1
2092.988	181.1
2097.066	185.1
2101.14	181.1
2105.211	174.1
2109.278	168.1
2113.342	165.1
2117.401	172.1
2121.457	166.1
2125.509	161.1
2129.558	160.1
2133.602	164.1
2137.643	159.1
2141.681	158.1
2145.714	155.1
2149.744	161.1
2153.77	158.1
2157.793	161.1
2161.812	162.1
2165.827	165.1
2169.838	160.1
2173.846	154.1
2177.851	151.1
2181.851	163.1
2185.848	151.1
2189.841	152.1
2193.831	142.1
2197.817	149.1
2201.799	147.1
2205.778	145.1
2209.753	146.1
2213.725	139.1
2217.693	147.1
2221.657	141.1
2225.618	138.1
2229.575	139.1
2233.529	142.1
2237.479	142.1
2241.425	134.1
2245.368	138.1
2249.307	143.1
2253.243	128.1
2257.175	130.1
2261.104	127.1
2265.029	123.1
2268.95	125.1
2272.868	126.1
2276.783	117.1
2280.694	119.1
2284.601	114.1
2288.505	116.1
2292.405	121.1
2296.302	123.1
2300.195	113.1
2304.085	107.1
2307.971	113.1
2311.854	110.1
2315.734	107.1
2319.609	110.1
2323.482	113.1
2327.351	114.1
2331.216	120.1
2335.078	128.1
2338.937	127.1
2342.792	112.1
2346.643	107.1
2350.492	109.1
2354.336	106.1
2358.178	100.1
2362.015	109.1
2365.85	110.1
2369.681	117.1
2373.508	114.1
2377.333	116.1
2381.153	113.1
2384.971	110.1
2388.785	108.1
2392.595	108.1
2396.402	105.1
2400.206	109.1
2404.007	103.1
2407.804	104.1
2411.597	104.1
2415.388	97.1
2419.174	106.1
2422.958	102.1
2426.738	107.1
2430.515	102.1
2434.289	106.1
2438.059	101.1
2441.825	95.1
2445.589	91.1
2449.349	97.1
2453.106	97.1
2456.859	94.1
2460.61	100.1
2464.356	96.1
2468.1	88.1
2471.84	91.1
2475.577	86.1
2479.311	82.1
2483.041	77.1
2486.768	82.1
2490.492	85.1
2494.213	78.1
2497.93	86.1
2501.644	87.1
2505.355	82.1
2509.062	81.1
2512.766	76.1
2516.467	77.1
2520.165	73.1
2523.859	79.1
2527.551	78.1
2531.239	70.1
2534.923	71.1
2538.605	68.1
2542.283	65.1
2545.958	68.1
2549.63	65.1
2553.299	64.1
2556.964	61.1
2560.626	64.1
2564.285	58.1
2567.941	65.1
2571.594	62.1
2575.243	59.1
2578.89	59.1
2582.533	58.1
2586.173	58.1
2589.809	58.1
2593.443	66.1
2597.073	62.1
2600.701	58.1
2604.325	49.1
2607.946	38.1
2611.564	54.1
2615.178	51.1
2618.79	58.1
2622.398	57.1
2626.004	50.1
2629.606	44.1
2633.205	53.1
2636.801	42.1
2640.394	57.1
2643.983	52.1
2647.57	46.1
2651.153	45.1
2654.734	42.1
2658.311	45.1
2661.885	49.1
2665.456	51.1
2669.025	48.1
2672.589	44.1
2676.151	39.1
2679.71	36.1
2683.266	41.1
2686.819	48.1
2690.368	47.1
2693.915	44.1
2697.458	36.1
2700.999	41.1
2704.536	38.1
2708.071	40.1
2711.602	35.1
2715.13	28.1
2718.656	29.1
2722.178	30.1
2725.697	34.1
2729.214	33.1
2732.727	37.1
2736.237	35.1
2739.744	18.1
2743.249	28.1
2746.75	26.1
2750.248	30.1
2753.743	18.1
2757.236	24.1
2760.725	22.1
2764.211	26.1
2767.695	17.1
2771.175	19.1
2774.652	18.1
2778.127	26.1
2781.598	20.1
2785.067	18.1
2788.532	25.1
2791.995	22.1
2795.455	13.1
2798.911	22.1
2802.365	28.1
2805.816	19.1
2809.264	17.1
2812.709	16.1
2816.151	22.1
2819.59	34.1
2823.026	21.1
2826.46	23.1
2829.89	15.1
2833.318	21.1
2836.742	23.1
2840.164	21.1
2843.583	24.1
2846.999	21.1
2850.412	22.1
2853.822	21.1
2857.229	36.1
2860.634	25.1
2864.035	25.1
2867.434	27.1
2870.83	32.1
2874.223	32.1
2877.613	31.1
2881	31.1
2884.385	34.1
2887.766	33.1
2891.145	27.1
2894.521	35.1
2897.894	37.1
2901.264	35.1
2904.631	24.1
2907.996	35.1
2911.358	42.1
2914.717	35.1
2918.073	32.1
2921.426	32.1
2924.777	41.1
2928.124	40.1
2931.469	38.1
2934.811	50.1
2938.15	47.1
2941.487	50.1
2944.821	41.1
2948.152	46.1
2951.48	48.1
2954.805	49.1
2958.128	40.1
2961.447	55.1
2964.765	40.1
2968.079	38.1
2971.39	43.1
2974.699	37.1
2978.005	48.1
2981.308	37.1
2984.609	37.1
2987.907	47.1
2991.202	34.1
2994.494	40.1
2997.784	30.1
3001.07	40.1
3004.355	44.1
3007.636	41.1
3010.915	41.1
3014.191	38.1
3017.464	42.1
3020.734	48.1
3024.002	49.1
3027.267	57.1
3030.53	50.1
3033.789	50.1
3037.046	48.1
3040.301	48.1
3043.552	57.1
3046.801	63.1
3050.048	61.1
3053.291	64.1
3056.532	64.1
3059.771	62.1
3063.006	68.1
3066.239	68.1
3069.469	79.1
3072.697	75.1
3075.922	85.1
3079.144	81.1
3082.364	81.1
3085.581	86.1
3088.795	94.1
3092.007	101.1
3095.216	92.1
3098.423	98.1
3101.627	97.1
3104.828	105.1
3108.026	108.1
3111.222	110.1
3114.416	108.1
3117.607	109.1
3120.795	111.1
3123.98	116.1
3127.163	128.1
3130.344	129.1
3133.521	126.1
3136.696	126.1
3139.869	133.1
3143.039	128.1
3146.206	136.1
3149.371	134.1
3152.533	145.1
3155.693	147.1
3158.85	150.1
3162.005	153.1
3165.157	142.1
3168.306	144.1
3171.453	147.1
3174.597	146.1
3177.739	142.1
3180.878	150.1
3184.014	140.1
3187.149	141.1
3190.28	146.1
3193.409	143.1
3196.536	144.1
3199.659	146.1
3202.781	147.1
3205.9	139.1
3209.016	143.1
3212.13	152.1
3215.241	151.1
3218.35	152.1
3221.456	152.1
3224.56	139.1
3227.661	139.1
3230.76	129.1
3233.856	139.1
3236.95	127.1
3240.041	125.1
3243.13	131.1
3246.216	124.1
3249.3	110.1
3252.382	119.1
3255.46	121.1
3258.537	116.1
3261.611	107.1
3264.682	119.1
3267.751	122.1
3270.818	107.1
3273.882	115.1
3276.943	104.1
3280.002	114.1
3283.059	111.1
3286.113	111.1
3289.165	107.1
3292.214	105.1
3295.261	109.1
3298.306	102.1
3301.348	105.1
3304.387	99.1
3307.425	106.1
3310.459	99.1
3313.492	99.1
3316.521	94.1
3319.549	98.1
3322.574	102.1
3325.597	99.1
3328.617	97.1
3331.635	104.1
3334.65	104.1
3337.663	90.1
3340.674	102.1
3343.682	102.1
3346.688	93.1
3349.691	97.1
3352.692	100.1
3355.691	103.1
3358.687	90.1
3361.681	88.1
3364.673	93.1
3367.662	92.1
3370.649	95.1
3373.633	91.1
3376.615	91.1
3379.595	91.1
3382.572	80.1
3385.547	84.1
3388.52	80.1
3391.49	72.1
3394.458	78.1
3397.424	79.1
3400.387	76.1
3403.348	71.1
3406.307	67.1
3409.263	72.1
3412.217	72.1
3415.168	71.1
3418.118	60.1
3421.065	60.1
3424.009	63.1
3426.951	65.1
3429.891	56.1
3432.829	60.1
3435.764	61.1
3438.697	58.1
3441.628	53.1
3444.557	50.1
3447.483	57.1
3450.407	38.1
3453.328	47.1
3456.247	34.1
3459.164	32.1
3462.079	31.1
3464.991	34.1
3467.902	25.1
3470.809	27.1
3473.715	23.1
3476.618	26.1
3479.519	21.1
3482.418	22.1
3485.315	18.1
3488.209	3.1
3491.101	13.1
3493.99	9.1
3496.878	4.1
3499.763	7.1
3502.646	7.1
3505.527	5.1
3508.405	-0.9
3511.281	-1.9
3514.155	-2.9
3517.027	-8.9
3519.897	0.1
3522.764	-2.9
3525.629	-4.9
3528.492	-13.9
3531.352	-11.9
3534.211	-11.9
3537.067	-14.9
3539.921	-13.9
3542.773	-22.9
3545.622	-13.9
3548.469	-14.9
3551.315	-13.9
3554.157	-21.9
3556.998	-23.9
3559.837	-20.9
3562.673	-23.9
3565.507	-20.9
3568.339	-24.9
3571.169	-27.9
3573.996	-18.9
3576.822	-30.9
3579.645	-28.9
3582.466	-27.9
3585.285	-25.9
3588.101	-30.9
3590.916	-26.9
3593.728	-30.9
3596.538	-34.9
3599.346	-36.9
3602.152	-35.9
3604.956	-33.9
3607.757	-31.9
3610.556	-34.9
3613.354	-39.9
3616.149	-39.9
3618.942	-36.9
3621.732	-38.9
3624.521	-29.9
3627.307	-33.9
3630.092	-38.9
3632.874	-37.9
3635.654	-37.9
3638.432	-37.9
3641.208	-35.9
3643.982	-37.9
3646.753	-41.9
3649.523	-40.9
3652.29	-43.9
3655.055	-40.9
3657.818	-43.9
3660.579	-43.9
3663.338	-41.9
3666.095	-44.9
3668.849	-43.9
3671.602	-43.9
3674.352	-39.9
3677.101	-45.9
3679.847	-36.9
3682.591	-48.9
3685.333	-43.9
3688.073	-51.9
3690.811	-45.9
3693.547	-49.9
3696.281	-44.9
3699.013	-42.9
3701.742	-53.9
3704.47	-45.9
3707.195	-53.9
3709.919	-47.9
3712.64	-48.9
3715.359	-48.9
3718.076	-50.9
3720.792	-46.9
3723.505	-46.9
3726.216	-44.9
3728.925	-48.9
3731.632	-45.9
3734.336	-51.9
3737.039	-46.9
3739.74	-46.9
3742.439	-54.9
3745.136	-50.9
3747.83	-44.9
3750.523	-55.9
3753.213	-55.9
3755.902	-47.9
3758.589	-53.9
3761.273	-48.9
3763.956	-48.9
3766.636	-49.9
3769.315	-43.9
3771.991	-53.9
3774.665	-52.9
3777.338	-48.9
3780.008	-51.9
3782.677	-53.9
3785.343	-48.9
3788.007	-51.9
3790.67	-55.9
3793.33	-47.9
3795.989	-55.9
3798.645	-55.9
3801.299	-56.9
3803.952	-55.9
3806.602	-51.9
3809.251	-53.9
3811.897	-54.9
3814.542	-57.9
3817.184	-51.9
3819.825	-47.9
3822.463	-49.9
3825.1	-48.9
3827.735	-52.9
3830.367	-52.9
3832.998	-50.9
3835.627	-50.9
3838.253	-48.9
3840.878	-53.9
3843.501	-46.9
3846.122	-56.9
3848.741	-52.9
3851.358	-54.9
3853.973	-49.9
3856.586	-50.9
3859.197	-50.9
3861.806	-50.9
3864.414	-52.9
3867.019	-49.9
3869.622	-44.9
3872.224	-39.9
3874.823	-28.9
3877.421	-29.9
3880.016	-12.9
3882.61	4.1
3885.202	5.1
3887.792	-8.9
3890.38	-26.9
3892.966	-41.9
3895.55	-50.9
3898.132	-53.9
3900.713	-51.9
3903.291	-51.9
3905.868	-47.9
3908.442	-48.9
3911.015	-47.9
3913.586	-55.9
3916.155	-53.9
3918.722	-54.9
3921.287	-53.9
3923.85	-44.9
3926.411	-53.9
3928.971	-57.9
3931.528	-49.9
3934.084	-51.9
3936.638	-52.9
3939.19	-60.9
3941.74	-53.9
3944.288	-53.9
3946.834	-54.9
3949.378	-51.9
3951.921	-56.9
3954.462	-56.9
3957	-45.9
3959.537	-40.9
3962.072	-47.9
3964.606	-47.9
3967.137	-48.9
3969.667	-51.9
3972.194	-45.9
3974.72	-49.9
3977.244	-49.9
3979.766	-52.9
3982.286	-51.9
3984.805	-57.9
3987.321	-52.9
3989.836	-47.9
3992.349	-50.9
3994.86	-51.9
3997.369	-50.9
3999.877	-55.9
4002.382	-53.9
4004.886	-48.9
4007.388	-52.9
4009.888	-45.9
4012.386	-50.9
4014.883	-48.9
4017.377	-43.9
4019.87	-47.9
4022.361	-54.9
4024.85	-51.9
4027.338	-56.9
4029.823	-57.9
4032.307	-55.9
4034.789	-50.9
4037.269	-52.9
4039.747	-53.9
4042.224	-55.9
4044.699	-56.9
4047.172	-57.9
4049.643	-54.9
4052.112	-52.9
4054.58	-55.9
4057.046	-48.9
4059.51	-53.9
4061.972	-58.9
4064.432	-53.9
4066.891	-52.9
4069.348	-50.9
4071.803	-43.9
4074.256	-50.9
4076.708	-48.9
4079.158	-56.9
4081.606	-52.9
4084.052	-51.9
4086.497	-49.9
4088.939	-48.9
4091.38	-58.9
4093.819	-59.9
4096.257	-56.9
4098.693	-55.9
4101.127	-46.9
4103.559	-55.9
4105.989	28.1
4108.418	16.1
4110.845	14.1
4113.27	17.1
4115.694	23.1
4118.115	13.1
4120.535	-51.9
4122.954	-54.9
4125.37	-51.9
4127.785	-46.9
4130.198	-52.9
4132.609	-52.9
4135.019	-54.9
4137.427	-55.9
4139.833	-52.9
4142.237	-55.9
