Data from 2018-3-7_conc=2_n=10_RamanShift_02.txt Node
Date: Wed Mar 07 11:08:22 IST 2018
User: aro
Spectrometer: QEPB0276
Trigger mode: 0
Integration Time (sec): 3.000000E1
Scans to average: 1
Electric dark correction enabled: true
Nonlinearity correction enabled: false
Boxcar width: 0
XAxis mode: Raman Shifts
Number of Pixels in Spectrum: 1044
>>>>>Begin Spectral Data<<<<<
160.701	18.2
166.742	25.2
172.777	49.2
178.805	143.2
184.826	352.2
190.841	757.2
196.849	1218.2
202.85	1618.2
208.845	1758.2
214.833	1764.2
220.815	1725.2
226.789	1739.2
232.758	1735.2
238.719	1756.2
244.674	1740.2
250.623	1716.2
256.565	1712.2
262.5	1676.2
268.429	1672.2
274.351	1669.2
280.267	1674.2
286.176	1672.2
292.079	1665.2
297.975	1700.2
303.865	1668.2
309.748	1672.2
315.625	1654.2
321.495	1671.2
327.359	1681.2
333.217	1676.2
339.068	1687.2
344.912	1685.2
350.751	1698.2
356.583	1698.2
362.408	1690.2
368.227	1712.2
374.04	1725.2
379.847	1727.2
385.647	1735.2
391.44	1731.2
397.228	1738.2
403.009	1774.2
408.784	1762.2
414.553	1779.2
420.315	1771.2
426.071	1796.2
431.821	1777.2
437.565	1788.2
443.302	1781.2
449.033	1761.2
454.758	1777.2
460.477	1739.2
466.189	1714.2
471.896	1716.2
477.596	1699.2
483.29	1697.2
488.978	1680.2
494.66	1709.2
500.335	1645.2
506.005	1591.2
511.668	1512.2
517.325	1460.2
522.977	1388.2
528.622	1357.2
534.261	1317.2
539.894	1311.2
545.521	1294.2
551.141	1263.2
556.756	1266.2
562.365	1244.2
567.968	1243.2
573.565	1234.2
579.155	1225.2
584.74	1237.2
590.319	1222.2
595.892	1222.2
601.459	1210.2
607.02	1215.2
612.575	1190.2
618.124	1191.2
623.667	1178.2
629.204	1162.2
634.735	1158.2
640.261	1141.2
645.781	1116.2
651.294	1138.2
656.802	1122.2
662.304	1115.2
667.8	1117.2
673.29	1122.2
678.775	1100.2
684.254	1093.2
689.726	1104.2
695.193	1087.2
700.655	1088.2
706.11	1068.2
711.56	1065.2
717.004	1063.2
722.442	1037.2
727.874	1052.2
733.301	1045.2
738.722	1033.2
744.137	1047.2
749.547	1053.2
754.951	1031.2
760.349	1052.2
765.741	1055.2
771.128	1041.2
776.509	1057.2
781.885	1083.2
787.254	1084.2
792.618	1067.2
797.977	1082.2
803.33	1064.2
808.677	1066.2
814.019	1080.2
819.355	1054.2
824.686	1038.2
830.011	1025.2
835.33	1022.2
840.644	1018.2
845.952	1017.2
851.255	1006.2
856.552	1017.2
861.844	986.2
867.13	976.2
872.41	995.2
877.686	972.2
882.955	977.2
888.219	963.2
893.478	942.2
898.731	937.2
903.979	913.2
909.221	936.2
914.458	913.2
919.69	908.2
924.916	912.2
930.136	910.2
935.351	909.2
940.561	905.2
945.766	910.2
950.965	896.2
956.158	889.2
961.347	891.2
966.529	881.2
971.707	859.2
976.879	848.2
982.046	839.2
987.208	841.2
992.364	839.2
997.515	844.2
1002.66	847.2
1007.801	861.2
1012.936	858.2
1018.066	865.2
1023.19	866.2
1028.309	861.2
1033.423	859.2
1038.532	860.2
1043.636	862.2
1048.734	854.2
1053.827	832.2
1058.915	837.2
1063.998	810.2
1069.075	822.2
1074.147	815.2
1079.214	814.2
1084.276	836.2
1089.333	817.2
1094.385	835.2
1099.431	813.2
1104.472	816.2
1109.509	817.2
1114.54	805.2
1119.565	795.2
1124.586	782.2
1129.602	789.2
1134.613	767.2
1139.618	747.2
1144.619	773.2
1149.614	763.2
1154.604	762.2
1159.589	774.2
1164.57	767.2
1169.545	769.2
1174.515	774.2
1179.48	759.2
1184.44	764.2
1189.395	757.2
1194.345	750.2
1199.29	745.2
1204.23	742.2
1209.165	743.2
1214.095	756.2
1219.021	750.2
1223.941	752.2
1228.856	765.2
1233.766	764.2
1238.672	767.2
1243.572	760.2
1248.467	748.2
1253.358	754.2
1258.244	724.2
1263.124	727.2
1268	697.2
1272.871	689.2
1277.737	693.2
1282.599	708.2
1287.455	683.2
1292.306	689.2
1297.153	702.2
1301.995	695.2
1306.832	711.2
1311.664	700.2
1316.491	706.2
1321.314	690.2
1326.132	700.2
1330.945	676.2
1335.753	671.2
1340.556	644.2
1345.354	638.2
1350.148	634.2
1354.937	618.2
1359.722	602.2
1364.501	595.2
1369.276	595.2
1374.046	576.2
1378.811	573.2
1383.572	570.2
1388.327	569.2
1393.079	569.2
1397.825	578.2
1402.567	570.2
1407.304	583.2
1412.036	577.2
1416.764	575.2
1421.487	578.2
1426.205	574.2
1430.919	585.2
1435.628	589.2
1440.333	584.2
1445.032	579.2
1449.727	614.2
1454.418	599.2
1459.104	603.2
1463.785	589.2
1468.462	566.2
1473.134	556.2
1477.802	537.2
1482.465	528.2
1487.123	520.2
1491.777	508.2
1496.426	516.2
1501.071	499.2
1505.711	485.2
1510.347	481.2
1514.978	488.2
1519.604	487.2
1524.226	479.2
1528.844	482.2
1533.457	489.2
1538.065	492.2
1542.669	473.2
1547.269	475.2
1551.864	477.2
1556.454	490.2
1561.041	504.2
1565.622	513.2
1570.199	506.2
1574.772	509.2
1579.34	509.2
1583.904	502.2
1588.464	526.2
1593.019	527.2
1597.569	528.2
1602.115	528.2
1606.657	515.2
1611.195	527.2
1615.728	515.2
1620.256	510.2
1624.78	513.2
1629.3	514.2
1633.816	507.2
1638.327	532.2
1642.834	525.2
1647.336	516.2
1651.834	512.2
1656.328	517.2
1660.817	516.2
1665.302	498.2
1669.783	496.2
1674.259	479.2
1678.732	468.2
1683.199	459.2
1687.663	445.2
1692.122	413.2
1696.577	402.2
1701.028	386.2
1705.474	363.2
1709.917	360.2
1714.355	362.2
1718.788	351.2
1723.218	353.2
1727.643	343.2
1732.064	349.2
1736.481	348.2
1740.893	330.2
1745.301	327.2
1749.705	324.2
1754.105	318.2
1758.501	299.2
1762.893	300.2
1767.28	291.2
1771.663	292.2
1776.042	286.2
1780.417	283.2
1784.787	282.2
1789.154	277.2
1793.516	259.2
1797.874	253.2
1802.228	266.2
1806.578	266.2
1810.924	253.2
1815.266	254.2
1819.603	260.2
1823.937	260.2
1828.266	260.2
1832.591	267.2
1836.913	257.2
1841.23	262.2
1845.543	261.2
1849.852	258.2
1854.156	263.2
1858.457	268.2
1862.754	263.2
1867.047	258.2
1871.335	257.2
1875.62	264.2
1879.9	256.2
1884.177	250.2
1888.449	254.2
1892.718	263.2
1896.982	248.2
1901.243	235.2
1905.499	237.2
1909.752	228.2
1914	230.2
1918.245	218.2
1922.485	211.2
1926.722	217.2
1930.954	202.2
1935.183	213.2
1939.408	208.2
1943.628	219.2
1947.845	211.2
1952.058	208.2
1956.267	193.2
1960.472	208.2
1964.673	200.2
1968.87	201.2
1973.063	206.2
1977.252	196.2
1981.438	196.2
1985.619	195.2
1989.797	193.2
1993.971	202.2
1998.14	204.2
2002.306	207.2
2006.469	204.2
2010.627	199.2
2014.781	197.2
2018.932	196.2
2023.078	209.2
2027.221	198.2
2031.36	207.2
2035.495	186.2
2039.627	180.2
2043.754	191.2
2047.878	189.2
2051.998	185.2
2056.114	173.2
2060.226	175.2
2064.334	166.2
2068.439	174.2
2072.54	176.2
2076.637	179.2
2080.73	175.2
2084.82	182.2
2088.906	172.2
2092.988	170.2
2097.066	162.2
2101.14	162.2
2105.211	160.2
2109.278	169.2
2113.342	159.2
2117.401	151.2
2121.457	160.2
2125.509	155.2
2129.558	149.2
2133.602	153.2
2137.643	158.2
2141.681	152.2
2145.714	149.2
2149.744	160.2
2153.77	153.2
2157.793	159.2
2161.812	155.2
2165.827	156.2
2169.838	147.2
2173.846	148.2
2177.851	144.2
2181.851	141.2
2185.848	141.2
2189.841	147.2
2193.831	138.2
2197.817	140.2
2201.799	143.2
2205.778	140.2
2209.753	143.2
2213.725	130.2
2217.693	144.2
2221.657	131.2
2225.618	132.2
2229.575	120.2
2233.529	133.2
2237.479	134.2
2241.425	121.2
2245.368	129.2
2249.307	129.2
2253.243	125.2
2257.175	123.2
2261.104	114.2
2265.029	117.2
2268.95	116.2
2272.868	108.2
2276.783	110.2
2280.694	102.2
2284.601	105.2
2288.505	112.2
2292.405	111.2
2296.302	113.2
2300.195	100.2
2304.085	111.2
2307.971	101.2
2311.854	100.2
2315.734	93.2
2319.609	110.2
2323.482	102.2
2327.351	110.2
2331.216	111.2
2335.078	124.2
2338.937	111.2
2342.792	106.2
2346.643	101.2
2350.492	100.2
2354.336	102.2
2358.178	88.2
2362.015	106.2
2365.85	97.2
2369.681	105.2
2373.508	100.2
2377.333	106.2
2381.153	103.2
2384.971	90.2
2388.785	91.2
2392.595	96.2
2396.402	99.2
2400.206	96.2
2404.007	94.2
2407.804	93.2
2411.597	92.2
2415.388	94.2
2419.174	96.2
2422.958	95.2
2426.738	98.2
2430.515	97.2
2434.289	93.2
2438.059	89.2
2441.825	93.2
2445.589	82.2
2449.349	81.2
2453.106	89.2
2456.859	85.2
2460.61	78.2
2464.356	89.2
2468.1	81.2
2471.84	80.2
2475.577	72.2
2479.311	74.2
2483.041	75.2
2486.768	75.2
2490.492	78.2
2494.213	72.2
2497.93	75.2
2501.644	71.2
2505.355	66.2
2509.062	73.2
2512.766	71.2
2516.467	72.2
2520.165	69.2
2523.859	77.2
2527.551	62.2
2531.239	61.2
2534.923	57.2
2538.605	65.2
2542.283	55.2
2545.958	60.2
2549.63	54.2
2553.299	59.2
2556.964	53.2
2560.626	55.2
2564.285	51.2
2567.941	54.2
2571.594	54.2
2575.243	60.2
2578.89	55.2
2582.533	47.2
2586.173	53.2
2589.809	56.2
2593.443	50.2
2597.073	49.2
2600.701	51.2
2604.325	40.2
2607.946	33.2
2611.564	46.2
2615.178	39.2
2618.79	45.2
2622.398	47.2
2626.004	40.2
2629.606	42.2
2633.205	44.2
2636.801	43.2
2640.394	44.2
2643.983	35.2
2647.57	37.2
2651.153	34.2
2654.734	33.2
2658.311	38.2
2661.885	38.2
2665.456	37.2
2669.025	39.2
2672.589	41.2
2676.151	31.2
2679.71	34.2
2683.266	28.2
2686.819	36.2
2690.368	35.2
2693.915	30.2
2697.458	24.2
2700.999	28.2
2704.536	37.2
2708.071	34.2
2711.602	22.2
2715.13	28.2
2718.656	28.2
2722.178	28.2
2725.697	25.2
2729.214	20.2
2732.727	27.2
2736.237	26.2
2739.744	21.2
2743.249	16.2
2746.75	19.2
2750.248	16.2
2753.743	15.2
2757.236	19.2
2760.725	21.2
2764.211	10.2
2767.695	13.2
2771.175	12.2
2774.652	18.2
2778.127	14.2
2781.598	11.2
2785.067	15.2
2788.532	10.2
2791.995	9.2
2795.455	14.2
2798.911	10.2
2802.365	14.2
2805.816	19.2
2809.264	13.2
2812.709	14.2
2816.151	20.2
2819.59	22.2
2823.026	14.2
2826.46	18.2
2829.89	13.2
2833.318	13.2
2836.742	14.2
2840.164	19.2
2843.583	13.2
2846.999	15.2
2850.412	20.2
2853.822	17.2
2857.229	20.2
2860.634	15.2
2864.035	15.2
2867.434	18.2
2870.83	24.2
2874.223	23.2
2877.613	18.2
2881	22.2
2884.385	25.2
2887.766	25.2
2891.145	22.2
2894.521	28.2
2897.894	30.2
2901.264	28.2
2904.631	22.2
2907.996	24.2
2911.358	30.2
2914.717	29.2
2918.073	25.2
2921.426	21.2
2924.777	32.2
2928.124	32.2
2931.469	30.2
2934.811	43.2
2938.15	43.2
2941.487	41.2
2944.821	42.2
2948.152	41.2
2951.48	43.2
2954.805	41.2
2958.128	40.2
2961.447	41.2
2964.765	29.2
2968.079	29.2
2971.39	27.2
2974.699	24.2
2978.005	42.2
2981.308	33.2
2984.609	28.2
2987.907	37.2
2991.202	34.2
2994.494	35.2
2997.784	26.2
3001.07	40.2
3004.355	40.2
3007.636	34.2
3010.915	40.2
3014.191	34.2
3017.464	36.2
3020.734	36.2
3024.002	39.2
3027.267	42.2
3030.53	43.2
3033.789	41.2
3037.046	44.2
3040.301	47.2
3043.552	49.2
3046.801	52.2
3050.048	47.2
3053.291	59.2
3056.532	52.2
3059.771	54.2
3063.006	64.2
3066.239	62.2
3069.469	71.2
3072.697	70.2
3075.922	80.2
3079.144	70.2
3082.364	76.2
3085.581	78.2
3088.795	86.2
3092.007	90.2
3095.216	86.2
3098.423	89.2
3101.627	91.2
3104.828	95.2
3108.026	87.2
3111.222	102.2
3114.416	94.2
3117.607	105.2
3120.795	102.2
3123.98	105.2
3127.163	115.2
3130.344	119.2
3133.521	115.2
3136.696	120.2
3139.869	129.2
3143.039	128.2
3146.206	128.2
3149.371	124.2
3152.533	133.2
3155.693	134.2
3158.85	130.2
3162.005	132.2
3165.157	134.2
3168.306	135.2
3171.453	137.2
3174.597	132.2
3177.739	147.2
3180.878	142.2
3184.014	138.2
3187.149	132.2
3190.28	139.2
3193.409	142.2
3196.536	132.2
3199.659	140.2
3202.781	137.2
3205.9	134.2
3209.016	131.2
3212.13	139.2
3215.241	134.2
3218.35	141.2
3221.456	134.2
3224.56	125.2
3227.661	128.2
3230.76	124.2
3233.856	122.2
3236.95	118.2
3240.041	120.2
3243.13	123.2
3246.216	113.2
3249.3	110.2
3252.382	113.2
3255.46	109.2
3258.537	109.2
3261.611	100.2
3264.682	106.2
3267.751	113.2
3270.818	91.2
3273.882	100.2
3276.943	96.2
3280.002	108.2
3283.059	107.2
3286.113	96.2
3289.165	91.2
3292.214	95.2
3295.261	95.2
3298.306	91.2
3301.348	97.2
3304.387	91.2
3307.425	92.2
3310.459	89.2
3313.492	87.2
3316.521	93.2
3319.549	99.2
3322.574	78.2
3325.597	94.2
3328.617	89.2
3331.635	92.2
3334.65	93.2
3337.663	78.2
3340.674	84.2
3343.682	81.2
3346.688	81.2
3349.691	91.2
3352.692	91.2
3355.691	94.2
3358.687	95.2
3361.681	87.2
3364.673	86.2
3367.662	82.2
3370.649	83.2
3373.633	81.2
3376.615	73.2
3379.595	78.2
3382.572	72.2
3385.547	76.2
3388.52	72.2
3391.49	71.2
3394.458	69.2
3397.424	70.2
3400.387	60.2
3403.348	58.2
3406.307	62.2
3409.263	63.2
3412.217	65.2
3415.168	66.2
3418.118	61.2
3421.065	57.2
3424.009	57.2
3426.951	54.2
3429.891	47.2
3432.829	55.2
3435.764	51.2
3438.697	49.2
3441.628	43.2
3444.557	41.2
3447.483	37.2
3450.407	36.2
3453.328	36.2
3456.247	33.2
3459.164	30.2
3462.079	21.2
3464.991	24.2
3467.902	23.2
3470.809	16.2
3473.715	15.2
3476.618	18.2
3479.519	10.2
3482.418	12.2
3485.315	10.2
3488.209	8.2
3491.101	7.2
3493.99	13.2
3496.878	4.2
3499.763	1.2
3502.646	1.2
3505.527	-1.8
3508.405	-3.8
3511.281	-2.8
3514.155	-5.8
3517.027	-15.8
3519.897	-11.8
3522.764	-8.8
3525.629	-6.8
3528.492	-8.8
3531.352	-22.8
3534.211	-18.8
3537.067	-15.8
3539.921	-15.8
3542.773	-29.8
3545.622	-17.8
3548.469	-27.8
3551.315	-25.8
3554.157	-25.8
3556.998	-22.8
3559.837	-31.8
3562.673	-27.8
3565.507	-22.8
3568.339	-21.8
3571.169	-35.8
3573.996	-24.8
3576.822	-32.8
3579.645	-31.8
3582.466	-35.8
3585.285	-34.8
3588.101	-38.8
3590.916	-38.8
3593.728	-39.8
3596.538	-39.8
3599.346	-45.8
3602.152	-35.8
3604.956	-32.8
3607.757	-31.8
3610.556	-33.8
3613.354	-42.8
3616.149	-43.8
3618.942	-36.8
3621.732	-36.8
3624.521	-40.8
3627.307	-43.8
3630.092	-42.8
3632.874	-48.8
3635.654	-42.8
3638.432	-39.8
3641.208	-42.8
3643.982	-37.8
3646.753	-49.8
3649.523	-39.8
3652.29	-40.8
3655.055	-40.8
3657.818	-51.8
3660.579	-46.8
3663.338	-43.8
3666.095	-48.8
3668.849	-48.8
3671.602	-52.8
3674.352	-44.8
3677.101	-51.8
3679.847	-47.8
3682.591	-50.8
3685.333	-45.8
3688.073	-49.8
3690.811	-46.8
3693.547	-51.8
3696.281	-46.8
3699.013	-47.8
3701.742	-52.8
3704.47	-51.8
3707.195	-50.8
3709.919	-56.8
3712.64	-49.8
3715.359	-51.8
3718.076	-50.8
3720.792	-51.8
3723.505	-53.8
3726.216	-48.8
3728.925	-56.8
3731.632	-45.8
3734.336	-54.8
3737.039	-50.8
3739.74	-54.8
3742.439	-54.8
3745.136	-50.8
3747.83	-52.8
3750.523	-56.8
3753.213	-68.8
3755.902	-52.8
3758.589	-54.8
3761.273	-54.8
3763.956	-53.8
3766.636	-53.8
3769.315	-49.8
3771.991	-52.8
3774.665	-55.8
3777.338	-54.8
3780.008	-52.8
3782.677	-57.8
3785.343	-54.8
3788.007	-56.8
3790.67	-58.8
3793.33	-53.8
3795.989	-58.8
3798.645	-60.8
3801.299	-53.8
3803.952	-55.8
3806.602	-58.8
3809.251	-56.8
3811.897	-63.8
3814.542	-60.8
3817.184	-54.8
3819.825	-52.8
3822.463	-56.8
3825.1	-53.8
3827.735	-62.8
3830.367	-60.8
3832.998	-60.8
3835.627	-53.8
3838.253	-50.8
3840.878	-50.8
3843.501	-49.8
3846.122	-56.8
3848.741	-51.8
3851.358	-56.8
3853.973	-58.8
3856.586	-55.8
3859.197	-58.8
3861.806	-58.8
3864.414	-60.8
3867.019	-54.8
3869.622	-50.8
3872.224	-41.8
3874.823	-29.8
3877.421	-21.8
3880.016	-4.8
3882.61	13.2
3885.202	10.2
3887.792	3.2
3890.38	-21.8
3892.966	-47.8
3895.55	-48.8
3898.132	-48.8
3900.713	-52.8
3903.291	-54.8
3905.868	-49.8
3908.442	-54.8
3911.015	-58.8
3913.586	-58.8
3916.155	-56.8
3918.722	-60.8
3921.287	-58.8
3923.85	-52.8
3926.411	-63.8
3928.971	-65.8
3931.528	-58.8
3934.084	-51.8
3936.638	-55.8
3939.19	-59.8
3941.74	-53.8
3944.288	-58.8
3946.834	-55.8
3949.378	-57.8
3951.921	-59.8
3954.462	-60.8
3957	-58.8
3959.537	-50.8
3962.072	-54.8
3964.606	-56.8
3967.137	-55.8
3969.667	-58.8
3972.194	-53.8
3974.72	-47.8
3977.244	-50.8
3979.766	-50.8
3982.286	-60.8
3984.805	-63.8
3987.321	-54.8
3989.836	-59.8
3992.349	-57.8
3994.86	-61.8
3997.369	-57.8
3999.877	-60.8
4002.382	-56.8
4004.886	-53.8
4007.388	-59.8
4009.888	-50.8
4012.386	-53.8
4014.883	-52.8
4017.377	-55.8
4019.87	-52.8
4022.361	-59.8
4024.85	-58.8
4027.338	-58.8
4029.823	-55.8
4032.307	-57.8
4034.789	-55.8
4037.269	-55.8
4039.747	-55.8
4042.224	-53.8
4044.699	-56.8
4047.172	-58.8
4049.643	-53.8
4052.112	-54.8
4054.58	-57.8
4057.046	-52.8
4059.51	-57.8
4061.972	-60.8
4064.432	-56.8
4066.891	-49.8
4069.348	-51.8
4071.803	-48.8
4074.256	-49.8
4076.708	-57.8
4079.158	-59.8
4081.606	-54.8
4084.052	-53.8
4086.497	-57.8
4088.939	-55.8
4091.38	-62.8
4093.819	-58.8
4096.257	-60.8
4098.693	-60.8
4101.127	-57.8
4103.559	-63.8
4105.989	24.2
4108.418	24.2
4110.845	15.2
4113.27	19.2
4115.694	22.2
4118.115	17.2
4120.535	-57.8
4122.954	-56.8
4125.37	-56.8
4127.785	-52.8
4130.198	-53.8
4132.609	-58.8
4135.019	-56.8
4137.427	-59.8
4139.833	-61.8
4142.237	-57.8
