Data from 2018-3-7_conc=4_n=3_RamanShift_04.txt Node
Date: Wed Mar 07 11:56:22 IST 2018
User: aro
Spectrometer: QEPB0276
Trigger mode: 0
Integration Time (sec): 3.000000E1
Scans to average: 1
Electric dark correction enabled: true
Nonlinearity correction enabled: false
Boxcar width: 0
XAxis mode: Raman Shifts
Number of Pixels in Spectrum: 1044
>>>>>Begin Spectral Data<<<<<
160.701	13.2
166.742	19.2
172.777	56.2
178.805	140.2
184.826	351.2
190.841	742.2
196.849	1231.2
202.85	1613.2
208.845	1753.2
214.833	1767.2
220.815	1721.2
226.789	1721.2
232.758	1724.2
238.719	1729.2
244.674	1693.2
250.623	1702.2
256.565	1673.2
262.5	1654.2
268.429	1629.2
274.351	1621.2
280.267	1607.2
286.176	1617.2
292.079	1631.2
297.975	1616.2
303.865	1612.2
309.748	1621.2
315.625	1615.2
321.495	1601.2
327.359	1607.2
333.217	1600.2
339.068	1615.2
344.912	1609.2
350.751	1609.2
356.583	1632.2
362.408	1616.2
368.227	1623.2
374.04	1627.2
379.847	1644.2
385.647	1641.2
391.44	1665.2
397.228	1652.2
403.009	1673.2
408.784	1668.2
414.553	1710.2
420.315	1698.2
426.071	1682.2
431.821	1699.2
437.565	1700.2
443.302	1692.2
449.033	1689.2
454.758	1692.2
460.477	1678.2
466.189	1653.2
471.896	1633.2
477.596	1616.2
483.29	1622.2
488.978	1623.2
494.66	1613.2
500.335	1584.2
506.005	1526.2
511.668	1462.2
517.325	1403.2
522.977	1343.2
528.622	1306.2
534.261	1307.2
539.894	1277.2
545.521	1265.2
551.141	1253.2
556.756	1228.2
562.365	1234.2
567.968	1233.2
573.565	1221.2
579.155	1227.2
584.74	1191.2
590.319	1196.2
595.892	1207.2
601.459	1199.2
607.02	1194.2
612.575	1194.2
618.124	1162.2
623.667	1154.2
629.204	1144.2
634.735	1137.2
640.261	1109.2
645.781	1112.2
651.294	1114.2
656.802	1093.2
662.304	1095.2
667.8	1103.2
673.29	1101.2
678.775	1102.2
684.254	1090.2
689.726	1080.2
695.193	1070.2
700.655	1070.2
706.11	1049.2
711.56	1052.2
717.004	1048.2
722.442	1028.2
727.874	1043.2
733.301	1037.2
738.722	1019.2
744.137	1039.2
749.547	1049.2
754.951	1032.2
760.349	1031.2
765.741	1036.2
771.128	1041.2
776.509	1052.2
781.885	1067.2
787.254	1060.2
792.618	1073.2
797.977	1052.2
803.33	1048.2
808.677	1041.2
814.019	1047.2
819.355	1016.2
824.686	1013.2
830.011	1021.2
835.33	1011.2
840.644	1001.2
845.952	998.2
851.255	991.2
856.552	1001.2
861.844	987.2
867.13	983.2
872.41	961.2
877.686	986.2
882.955	955.2
888.219	961.2
893.478	929.2
898.731	924.2
903.979	902.2
909.221	909.2
914.458	892.2
919.69	912.2
924.916	906.2
930.136	889.2
935.351	900.2
940.561	906.2
945.766	889.2
950.965	905.2
956.158	882.2
961.347	883.2
966.529	880.2
971.707	849.2
976.879	846.2
982.046	841.2
987.208	829.2
992.364	844.2
997.515	839.2
1002.66	846.2
1007.801	854.2
1012.936	860.2
1018.066	853.2
1023.19	851.2
1028.309	853.2
1033.423	856.2
1038.532	845.2
1043.636	846.2
1048.734	841.2
1053.827	843.2
1058.915	825.2
1063.998	826.2
1069.075	808.2
1074.147	812.2
1079.214	813.2
1084.276	818.2
1089.333	815.2
1094.385	821.2
1099.431	808.2
1104.472	815.2
1109.509	799.2
1114.54	785.2
1119.565	787.2
1124.586	771.2
1129.602	773.2
1134.613	762.2
1139.618	752.2
1144.619	771.2
1149.614	771.2
1154.604	757.2
1159.589	773.2
1164.57	774.2
1169.545	774.2
1174.515	775.2
1179.48	762.2
1184.44	758.2
1189.395	751.2
1194.345	734.2
1199.29	723.2
1204.23	739.2
1209.165	745.2
1214.095	750.2
1219.021	739.2
1223.941	747.2
1228.856	743.2
1233.766	759.2
1238.672	759.2
1243.572	752.2
1248.467	749.2
1253.358	727.2
1258.244	731.2
1263.124	706.2
1268	703.2
1272.871	703.2
1277.737	705.2
1282.599	700.2
1287.455	684.2
1292.306	686.2
1297.153	690.2
1301.995	691.2
1306.832	711.2
1311.664	695.2
1316.491	705.2
1321.314	693.2
1326.132	690.2
1330.945	684.2
1335.753	675.2
1340.556	650.2
1345.354	642.2
1350.148	633.2
1354.937	627.2
1359.722	608.2
1364.501	598.2
1369.276	576.2
1374.046	579.2
1378.811	578.2
1383.572	578.2
1388.327	560.2
1393.079	562.2
1397.825	570.2
1402.567	566.2
1407.304	576.2
1412.036	578.2
1416.764	582.2
1421.487	585.2
1426.205	586.2
1430.919	578.2
1435.628	588.2
1440.333	587.2
1445.032	601.2
1449.727	596.2
1454.418	595.2
1459.104	592.2
1463.785	580.2
1468.462	572.2
1473.134	561.2
1477.802	534.2
1482.465	533.2
1487.123	518.2
1491.777	503.2
1496.426	510.2
1501.071	502.2
1505.711	490.2
1510.347	496.2
1514.978	488.2
1519.604	481.2
1524.226	489.2
1528.844	488.2
1533.457	471.2
1538.065	477.2
1542.669	475.2
1547.269	476.2
1551.864	480.2
1556.454	490.2
1561.041	500.2
1565.622	497.2
1570.199	492.2
1574.772	504.2
1579.34	512.2
1583.904	509.2
1588.464	526.2
1593.019	521.2
1597.569	523.2
1602.115	528.2
1606.657	532.2
1611.195	521.2
1615.728	532.2
1620.256	510.2
1624.78	517.2
1629.3	516.2
1633.816	519.2
1638.327	528.2
1642.834	510.2
1647.336	507.2
1651.834	518.2
1656.328	515.2
1660.817	506.2
1665.302	507.2
1669.783	492.2
1674.259	482.2
1678.732	470.2
1683.199	443.2
1687.663	442.2
1692.122	409.2
1696.577	393.2
1701.028	378.2
1705.474	358.2
1709.917	354.2
1714.355	342.2
1718.788	346.2
1723.218	351.2
1727.643	339.2
1732.064	342.2
1736.481	356.2
1740.893	331.2
1745.301	335.2
1749.705	324.2
1754.105	309.2
1758.501	309.2
1762.893	308.2
1767.28	292.2
1771.663	293.2
1776.042	289.2
1780.417	279.2
1784.787	276.2
1789.154	280.2
1793.516	259.2
1797.874	260.2
1802.228	263.2
1806.578	251.2
1810.924	252.2
1815.266	253.2
1819.603	251.2
1823.937	265.2
1828.266	255.2
1832.591	264.2
1836.913	262.2
1841.23	263.2
1845.543	259.2
1849.852	255.2
1854.156	261.2
1858.457	264.2
1862.754	270.2
1867.047	268.2
1871.335	254.2
1875.62	256.2
1879.9	262.2
1884.177	249.2
1888.449	247.2
1892.718	247.2
1896.982	245.2
1901.243	236.2
1905.499	235.2
1909.752	226.2
1914	228.2
1918.245	215.2
1922.485	212.2
1926.722	212.2
1930.954	208.2
1935.183	214.2
1939.408	208.2
1943.628	202.2
1947.845	202.2
1952.058	208.2
1956.267	198.2
1960.472	201.2
1964.673	199.2
1968.87	192.2
1973.063	199.2
1977.252	197.2
1981.438	193.2
1985.619	197.2
1989.797	200.2
1993.971	199.2
1998.14	202.2
2002.306	207.2
2006.469	197.2
2010.627	201.2
2014.781	199.2
2018.932	194.2
2023.078	200.2
2027.221	192.2
2031.36	197.2
2035.495	193.2
2039.627	180.2
2043.754	186.2
2047.878	182.2
2051.998	187.2
2056.114	178.2
2060.226	184.2
2064.334	169.2
2068.439	178.2
2072.54	170.2
2076.637	180.2
2080.73	179.2
2084.82	172.2
2088.906	172.2
2092.988	173.2
2097.066	164.2
2101.14	168.2
2105.211	165.2
2109.278	165.2
2113.342	151.2
2117.401	159.2
2121.457	154.2
2125.509	154.2
2129.558	156.2
2133.602	157.2
2137.643	159.2
2141.681	152.2
2145.714	151.2
2149.744	153.2
2153.77	156.2
2157.793	150.2
2161.812	155.2
2165.827	153.2
2169.838	143.2
2173.846	142.2
2177.851	146.2
2181.851	150.2
2185.848	139.2
2189.841	141.2
2193.831	140.2
2197.817	143.2
2201.799	138.2
2205.778	142.2
2209.753	133.2
2213.725	135.2
2217.693	133.2
2221.657	133.2
2225.618	137.2
2229.575	136.2
2233.529	124.2
2237.479	138.2
2241.425	129.2
2245.368	134.2
2249.307	125.2
2253.243	124.2
2257.175	124.2
2261.104	127.2
2265.029	121.2
2268.95	116.2
2272.868	112.2
2276.783	117.2
2280.694	112.2
2284.601	113.2
2288.505	113.2
2292.405	115.2
2296.302	110.2
2300.195	106.2
2304.085	100.2
2307.971	107.2
2311.854	106.2
2315.734	96.2
2319.609	106.2
2323.482	96.2
2327.351	105.2
2331.216	112.2
2335.078	123.2
2338.937	116.2
2342.792	96.2
2346.643	103.2
2350.492	106.2
2354.336	100.2
2358.178	92.2
2362.015	98.2
2365.85	100.2
2369.681	109.2
2373.508	102.2
2377.333	110.2
2381.153	99.2
2384.971	102.2
2388.785	98.2
2392.595	110.2
2396.402	105.2
2400.206	105.2
2404.007	104.2
2407.804	104.2
2411.597	88.2
2415.388	88.2
2419.174	105.2
2422.958	94.2
2426.738	100.2
2430.515	95.2
2434.289	93.2
2438.059	87.2
2441.825	90.2
2445.589	86.2
2449.349	88.2
2453.106	91.2
2456.859	82.2
2460.61	87.2
2464.356	86.2
2468.1	88.2
2471.84	89.2
2475.577	75.2
2479.311	77.2
2483.041	76.2
2486.768	77.2
2490.492	76.2
2494.213	80.2
2497.93	77.2
2501.644	71.2
2505.355	67.2
2509.062	68.2
2512.766	68.2
2516.467	68.2
2520.165	70.2
2523.859	70.2
2527.551	65.2
2531.239	72.2
2534.923	61.2
2538.605	60.2
2542.283	55.2
2545.958	62.2
2549.63	65.2
2553.299	62.2
2556.964	53.2
2560.626	61.2
2564.285	63.2
2567.941	47.2
2571.594	53.2
2575.243	56.2
2578.89	55.2
2582.533	52.2
2586.173	51.2
2589.809	54.2
2593.443	59.2
2597.073	47.2
2600.701	54.2
2604.325	48.2
2607.946	38.2
2611.564	49.2
2615.178	51.2
2618.79	48.2
2622.398	52.2
2626.004	47.2
2629.606	36.2
2633.205	40.2
2636.801	42.2
2640.394	48.2
2643.983	45.2
2647.57	35.2
2651.153	36.2
2654.734	38.2
2658.311	41.2
2661.885	45.2
2665.456	46.2
2669.025	44.2
2672.589	36.2
2676.151	37.2
2679.71	36.2
2683.266	37.2
2686.819	40.2
2690.368	39.2
2693.915	34.2
2697.458	24.2
2700.999	36.2
2704.536	34.2
2708.071	32.2
2711.602	28.2
2715.13	23.2
2718.656	26.2
2722.178	23.2
2725.697	28.2
2729.214	31.2
2732.727	31.2
2736.237	35.2
2739.744	17.2
2743.249	24.2
2746.75	20.2
2750.248	24.2
2753.743	19.2
2757.236	17.2
2760.725	17.2
2764.211	15.2
2767.695	9.2
2771.175	13.2
2774.652	12.2
2778.127	17.2
2781.598	13.2
2785.067	16.2
2788.532	14.2
2791.995	12.2
2795.455	13.2
2798.911	14.2
2802.365	16.2
2805.816	17.2
2809.264	19.2
2812.709	14.2
2816.151	19.2
2819.59	26.2
2823.026	20.2
2826.46	22.2
2829.89	20.2
2833.318	10.2
2836.742	19.2
2840.164	16.2
2843.583	18.2
2846.999	17.2
2850.412	22.2
2853.822	17.2
2857.229	24.2
2860.634	19.2
2864.035	25.2
2867.434	26.2
2870.83	26.2
2874.223	27.2
2877.613	25.2
2881	30.2
2884.385	31.2
2887.766	30.2
2891.145	31.2
2894.521	28.2
2897.894	31.2
2901.264	32.2
2904.631	20.2
2907.996	31.2
2911.358	36.2
2914.717	30.2
2918.073	32.2
2921.426	31.2
2924.777	37.2
2928.124	34.2
2931.469	41.2
2934.811	50.2
2938.15	45.2
2941.487	54.2
2944.821	39.2
2948.152	43.2
2951.48	42.2
2954.805	44.2
2958.128	38.2
2961.447	41.2
2964.765	31.2
2968.079	40.2
2971.39	34.2
2974.699	33.2
2978.005	43.2
2981.308	41.2
2984.609	38.2
2987.907	42.2
2991.202	44.2
2994.494	36.2
2997.784	38.2
3001.07	42.2
3004.355	40.2
3007.636	46.2
3010.915	42.2
3014.191	45.2
3017.464	40.2
3020.734	42.2
3024.002	43.2
3027.267	50.2
3030.53	46.2
3033.789	51.2
3037.046	54.2
3040.301	47.2
3043.552	56.2
3046.801	65.2
3050.048	58.2
3053.291	64.2
3056.532	62.2
3059.771	68.2
3063.006	70.2
3066.239	74.2
3069.469	82.2
3072.697	72.2
3075.922	83.2
3079.144	79.2
3082.364	87.2
3085.581	88.2
3088.795	88.2
3092.007	98.2
3095.216	95.2
3098.423	101.2
3101.627	97.2
3104.828	105.2
3108.026	110.2
3111.222	102.2
3114.416	114.2
3117.607	108.2
3120.795	112.2
3123.98	111.2
3127.163	127.2
3130.344	120.2
3133.521	125.2
3136.696	129.2
3139.869	133.2
3143.039	136.2
3146.206	132.2
3149.371	136.2
3152.533	148.2
3155.693	146.2
3158.85	146.2
3162.005	145.2
3165.157	144.2
3168.306	147.2
3171.453	145.2
3174.597	139.2
3177.739	147.2
3180.878	150.2
3184.014	146.2
3187.149	144.2
3190.28	143.2
3193.409	158.2
3196.536	150.2
3199.659	156.2
3202.781	147.2
3205.9	143.2
3209.016	152.2
3212.13	150.2
3215.241	149.2
3218.35	144.2
3221.456	147.2
3224.56	145.2
3227.661	145.2
3230.76	138.2
3233.856	137.2
3236.95	129.2
3240.041	128.2
3243.13	129.2
3246.216	125.2
3249.3	121.2
3252.382	115.2
3255.46	121.2
3258.537	118.2
3261.611	115.2
3264.682	121.2
3267.751	118.2
3270.818	105.2
3273.882	117.2
3276.943	105.2
3280.002	110.2
3283.059	109.2
3286.113	96.2
3289.165	106.2
3292.214	100.2
3295.261	107.2
3298.306	97.2
3301.348	97.2
3304.387	96.2
3307.425	103.2
3310.459	97.2
3313.492	97.2
3316.521	106.2
3319.549	104.2
3322.574	105.2
3325.597	98.2
3328.617	99.2
3331.635	102.2
3334.65	104.2
3337.663	94.2
3340.674	94.2
3343.682	94.2
3346.688	95.2
3349.691	101.2
3352.692	100.2
3355.691	98.2
3358.687	92.2
3361.681	95.2
3364.673	98.2
3367.662	99.2
3370.649	98.2
3373.633	83.2
3376.615	94.2
3379.595	91.2
3382.572	82.2
3385.547	84.2
3388.52	79.2
3391.49	73.2
3394.458	75.2
3397.424	74.2
3400.387	75.2
3403.348	70.2
3406.307	66.2
3409.263	74.2
3412.217	73.2
3415.168	76.2
3418.118	71.2
3421.065	65.2
3424.009	69.2
3426.951	59.2
3429.891	54.2
3432.829	51.2
3435.764	60.2
3438.697	56.2
3441.628	47.2
3444.557	51.2
3447.483	43.2
3450.407	37.2
3453.328	45.2
3456.247	40.2
3459.164	40.2
3462.079	30.2
3464.991	27.2
3467.902	31.2
3470.809	30.2
3473.715	27.2
3476.618	25.2
3479.519	13.2
3482.418	18.2
3485.315	22.2
3488.209	6.2
3491.101	7.2
3493.99	16.2
3496.878	2.2
3499.763	-0.8
3502.646	4.2
3505.527	7.2
3508.405	4.2
3511.281	3.2
3514.155	-0.8
3517.027	-6.8
3519.897	7.2
3522.764	-1.8
3525.629	-11.8
3528.492	-8.8
3531.352	-9.8
3534.211	-18.8
3537.067	-18.8
3539.921	-14.8
3542.773	-20.8
3545.622	-14.8
3548.469	-20.8
3551.315	-17.8
3554.157	-21.8
3556.998	-17.8
3559.837	-23.8
3562.673	-21.8
3565.507	-22.8
3568.339	-16.8
3571.169	-28.8
3573.996	-22.8
3576.822	-36.8
3579.645	-32.8
3582.466	-31.8
3585.285	-29.8
3588.101	-36.8
3590.916	-27.8
3593.728	-35.8
3596.538	-31.8
3599.346	-31.8
3602.152	-36.8
3604.956	-30.8
3607.757	-28.8
3610.556	-29.8
3613.354	-36.8
3616.149	-40.8
3618.942	-36.8
3621.732	-38.8
3624.521	-36.8
3627.307	-37.8
3630.092	-41.8
3632.874	-41.8
3635.654	-43.8
3638.432	-41.8
3641.208	-41.8
3643.982	-40.8
3646.753	-42.8
3649.523	-39.8
3652.29	-41.8
3655.055	-44.8
3657.818	-44.8
3660.579	-38.8
3663.338	-41.8
3666.095	-46.8
3668.849	-46.8
3671.602	-40.8
3674.352	-41.8
3677.101	-42.8
3679.847	-49.8
3682.591	-49.8
3685.333	-45.8
3688.073	-53.8
3690.811	-42.8
3693.547	-50.8
3696.281	-44.8
3699.013	-48.8
3701.742	-51.8
3704.47	-41.8
3707.195	-43.8
3709.919	-47.8
3712.64	-48.8
3715.359	-50.8
3718.076	-48.8
3720.792	-49.8
3723.505	-50.8
3726.216	-41.8
3728.925	-50.8
3731.632	-53.8
3734.336	-50.8
3737.039	-55.8
3739.74	-53.8
3742.439	-54.8
3745.136	-52.8
3747.83	-48.8
3750.523	-53.8
3753.213	-51.8
3755.902	-53.8
3758.589	-52.8
3761.273	-47.8
3763.956	-54.8
3766.636	-47.8
3769.315	-46.8
3771.991	-52.8
3774.665	-52.8
3777.338	-52.8
3780.008	-54.8
3782.677	-56.8
3785.343	-49.8
3788.007	-56.8
3790.67	-59.8
3793.33	-52.8
3795.989	-53.8
3798.645	-52.8
3801.299	-48.8
3803.952	-53.8
3806.602	-51.8
3809.251	-55.8
3811.897	-54.8
3814.542	-57.8
3817.184	-51.8
3819.825	-49.8
3822.463	-52.8
3825.1	-55.8
3827.735	-60.8
3830.367	-53.8
3832.998	-57.8
3835.627	-51.8
3838.253	-48.8
3840.878	-51.8
3843.501	-48.8
3846.122	-56.8
3848.741	-57.8
3851.358	-50.8
3853.973	-50.8
3856.586	-48.8
3859.197	-48.8
3861.806	-53.8
3864.414	-52.8
3867.019	-50.8
3869.622	-41.8
3872.224	-38.8
3874.823	-37.8
3877.421	-29.8
3880.016	-16.8
3882.61	-0.8
3885.202	-3.8
3887.792	-11.8
3890.38	-24.8
3892.966	-43.8
3895.55	-48.8
3898.132	-48.8
3900.713	-55.8
3903.291	-55.8
3905.868	-53.8
3908.442	-51.8
3911.015	-52.8
3913.586	-55.8
3916.155	-53.8
3918.722	-52.8
3921.287	-52.8
3923.85	-48.8
3926.411	-55.8
3928.971	-58.8
3931.528	-56.8
3934.084	-58.8
3936.638	-49.8
3939.19	-57.8
3941.74	-55.8
3944.288	-57.8
3946.834	-53.8
3949.378	-54.8
3951.921	-56.8
3954.462	-55.8
3957	-43.8
3959.537	-43.8
3962.072	-46.8
3964.606	-48.8
3967.137	-52.8
3969.667	-56.8
3972.194	-54.8
3974.72	-48.8
3977.244	-50.8
3979.766	-54.8
3982.286	-56.8
3984.805	-60.8
3987.321	-50.8
3989.836	-46.8
3992.349	-51.8
3994.86	-52.8
3997.369	-50.8
3999.877	-51.8
4002.382	-51.8
4004.886	-49.8
4007.388	-54.8
4009.888	-49.8
4012.386	-55.8
4014.883	-52.8
4017.377	-51.8
4019.87	-52.8
4022.361	-60.8
4024.85	-50.8
4027.338	-56.8
4029.823	-53.8
4032.307	-54.8
4034.789	-50.8
4037.269	-51.8
4039.747	-49.8
4042.224	-55.8
4044.699	-52.8
4047.172	-59.8
4049.643	-55.8
4052.112	-50.8
4054.58	-50.8
4057.046	-47.8
4059.51	-54.8
4061.972	-55.8
4064.432	-57.8
4066.891	-48.8
4069.348	-50.8
4071.803	-53.8
4074.256	-54.8
4076.708	-54.8
4079.158	-59.8
4081.606	-50.8
4084.052	-55.8
4086.497	-48.8
4088.939	-50.8
4091.38	-55.8
4093.819	-55.8
4096.257	-55.8
4098.693	-50.8
4101.127	-48.8
4103.559	-54.8
4105.989	28.2
4108.418	14.2
4110.845	14.2
4113.27	9.2
4115.694	21.2
4118.115	12.2
4120.535	-54.8
4122.954	-47.8
4125.37	-49.8
4127.785	-47.8
4130.198	-51.8
4132.609	-55.8
4135.019	-57.8
4137.427	-57.8
4139.833	-55.8
4142.237	-57.8
