Data from 2018-3-7_conc=2_n=4_RamanShift_05.txt Node
Date: Wed Mar 07 10:50:22 IST 2018
User: aro
Spectrometer: QEPB0276
Trigger mode: 0
Integration Time (sec): 3.000000E1
Scans to average: 1
Electric dark correction enabled: true
Nonlinearity correction enabled: false
Boxcar width: 0
XAxis mode: Raman Shifts
Number of Pixels in Spectrum: 1044
>>>>>Begin Spectral Data<<<<<
160.701	12.9
166.742	18.9
172.777	46.9
178.805	145.9
184.826	368.9
190.841	763.9
196.849	1260.9
202.85	1647.9
208.845	1795.9
214.833	1820.9
220.815	1784.9
226.789	1786.9
232.758	1801.9
238.719	1811.9
244.674	1799.9
250.623	1789.9
256.565	1761.9
262.5	1743.9
268.429	1744.9
274.351	1736.9
280.267	1738.9
286.176	1717.9
292.079	1722.9
297.975	1743.9
303.865	1747.9
309.748	1740.9
315.625	1732.9
321.495	1752.9
327.359	1729.9
333.217	1751.9
339.068	1748.9
344.912	1754.9
350.751	1759.9
356.583	1769.9
362.408	1758.9
368.227	1757.9
374.04	1777.9
379.847	1796.9
385.647	1791.9
391.44	1818.9
397.228	1808.9
403.009	1830.9
408.784	1844.9
414.553	1838.9
420.315	1861.9
426.071	1834.9
431.821	1854.9
437.565	1855.9
443.302	1837.9
449.033	1822.9
454.758	1835.9
460.477	1797.9
466.189	1803.9
471.896	1791.9
477.596	1773.9
483.29	1757.9
488.978	1756.9
494.66	1753.9
500.335	1712.9
506.005	1655.9
511.668	1578.9
517.325	1500.9
522.977	1426.9
528.622	1398.9
534.261	1358.9
539.894	1335.9
545.521	1328.9
551.141	1321.9
556.756	1308.9
562.365	1308.9
567.968	1299.9
573.565	1278.9
579.155	1259.9
584.74	1279.9
590.319	1250.9
595.892	1244.9
601.459	1244.9
607.02	1251.9
612.575	1242.9
618.124	1239.9
623.667	1223.9
629.204	1203.9
634.735	1184.9
640.261	1160.9
645.781	1166.9
651.294	1161.9
656.802	1141.9
662.304	1150.9
667.8	1154.9
673.29	1144.9
678.775	1144.9
684.254	1142.9
689.726	1127.9
695.193	1115.9
700.655	1119.9
706.11	1118.9
711.56	1112.9
717.004	1096.9
722.442	1097.9
727.874	1074.9
733.301	1097.9
738.722	1073.9
744.137	1074.9
749.547	1071.9
754.951	1078.9
760.349	1076.9
765.741	1091.9
771.128	1067.9
776.509	1099.9
781.885	1111.9
787.254	1124.9
792.618	1113.9
797.977	1107.9
803.33	1106.9
808.677	1105.9
814.019	1103.9
819.355	1083.9
824.686	1061.9
830.011	1067.9
835.33	1067.9
840.644	1060.9
845.952	1046.9
851.255	1029.9
856.552	1031.9
861.844	1037.9
867.13	1017.9
872.41	1007.9
877.686	1013.9
882.955	1021.9
888.219	995.9
893.478	977.9
898.731	974.9
903.979	962.9
909.221	944.9
914.458	937.9
919.69	943.9
924.916	940.9
930.136	941.9
935.351	940.9
940.561	933.9
945.766	943.9
950.965	944.9
956.158	943.9
961.347	917.9
966.529	899.9
971.707	878.9
976.879	873.9
982.046	869.9
987.208	866.9
992.364	861.9
997.515	858.9
1002.66	870.9
1007.801	886.9
1012.936	905.9
1018.066	910.9
1023.19	892.9
1028.309	899.9
1033.423	903.9
1038.532	886.9
1043.636	895.9
1048.734	887.9
1053.827	872.9
1058.915	865.9
1063.998	854.9
1069.075	850.9
1074.147	848.9
1079.214	849.9
1084.276	869.9
1089.333	877.9
1094.385	858.9
1099.431	841.9
1104.472	846.9
1109.509	844.9
1114.54	839.9
1119.565	826.9
1124.586	817.9
1129.602	802.9
1134.613	787.9
1139.618	796.9
1144.619	782.9
1149.614	793.9
1154.604	795.9
1159.589	797.9
1164.57	795.9
1169.545	803.9
1174.515	800.9
1179.48	789.9
1184.44	799.9
1189.395	786.9
1194.345	776.9
1199.29	783.9
1204.23	772.9
1209.165	775.9
1214.095	779.9
1219.021	777.9
1223.941	781.9
1228.856	781.9
1233.766	796.9
1238.672	776.9
1243.572	790.9
1248.467	792.9
1253.358	775.9
1258.244	777.9
1263.124	743.9
1268	737.9
1272.871	729.9
1277.737	714.9
1282.599	713.9
1287.455	700.9
1292.306	707.9
1297.153	714.9
1301.995	718.9
1306.832	724.9
1311.664	735.9
1316.491	733.9
1321.314	730.9
1326.132	723.9
1330.945	719.9
1335.753	701.9
1340.556	678.9
1345.354	663.9
1350.148	639.9
1354.937	638.9
1359.722	625.9
1364.501	620.9
1369.276	611.9
1374.046	595.9
1378.811	594.9
1383.572	590.9
1388.327	600.9
1393.079	578.9
1397.825	592.9
1402.567	598.9
1407.304	599.9
1412.036	602.9
1416.764	606.9
1421.487	597.9
1426.205	605.9
1430.919	599.9
1435.628	601.9
1440.333	612.9
1445.032	611.9
1449.727	630.9
1454.418	615.9
1459.104	616.9
1463.785	592.9
1468.462	585.9
1473.134	570.9
1477.802	562.9
1482.465	552.9
1487.123	535.9
1491.777	528.9
1496.426	526.9
1501.071	513.9
1505.711	493.9
1510.347	499.9
1514.978	502.9
1519.604	491.9
1524.226	496.9
1528.844	501.9
1533.457	493.9
1538.065	487.9
1542.669	483.9
1547.269	494.9
1551.864	504.9
1556.454	510.9
1561.041	510.9
1565.622	517.9
1570.199	523.9
1574.772	509.9
1579.34	525.9
1583.904	529.9
1588.464	545.9
1593.019	543.9
1597.569	547.9
1602.115	531.9
1606.657	531.9
1611.195	525.9
1615.728	527.9
1620.256	520.9
1624.78	529.9
1629.3	536.9
1633.816	517.9
1638.327	540.9
1642.834	531.9
1647.336	505.9
1651.834	528.9
1656.328	521.9
1660.817	512.9
1665.302	510.9
1669.783	498.9
1674.259	486.9
1678.732	467.9
1683.199	448.9
1687.663	446.9
1692.122	423.9
1696.577	411.9
1701.028	397.9
1705.474	361.9
1709.917	373.9
1714.355	355.9
1718.788	351.9
1723.218	353.9
1727.643	349.9
1732.064	359.9
1736.481	363.9
1740.893	351.9
1745.301	347.9
1749.705	339.9
1754.105	325.9
1758.501	319.9
1762.893	305.9
1767.28	297.9
1771.663	305.9
1776.042	304.9
1780.417	291.9
1784.787	292.9
1789.154	280.9
1793.516	264.9
1797.874	273.9
1802.228	272.9
1806.578	265.9
1810.924	269.9
1815.266	268.9
1819.603	267.9
1823.937	271.9
1828.266	268.9
1832.591	268.9
1836.913	270.9
1841.23	260.9
1845.543	271.9
1849.852	272.9
1854.156	278.9
1858.457	272.9
1862.754	283.9
1867.047	275.9
1871.335	274.9
1875.62	269.9
1879.9	268.9
1884.177	250.9
1888.449	257.9
1892.718	258.9
1896.982	248.9
1901.243	245.9
1905.499	248.9
1909.752	234.9
1914	223.9
1918.245	230.9
1922.485	216.9
1926.722	222.9
1930.954	224.9
1935.183	217.9
1939.408	220.9
1943.628	214.9
1947.845	211.9
1952.058	220.9
1956.267	209.9
1960.472	217.9
1964.673	203.9
1968.87	205.9
1973.063	204.9
1977.252	203.9
1981.438	204.9
1985.619	194.9
1989.797	199.9
1993.971	208.9
1998.14	207.9
2002.306	206.9
2006.469	215.9
2010.627	206.9
2014.781	214.9
2018.932	201.9
2023.078	204.9
2027.221	202.9
2031.36	202.9
2035.495	199.9
2039.627	182.9
2043.754	190.9
2047.878	187.9
2051.998	194.9
2056.114	189.9
2060.226	183.9
2064.334	187.9
2068.439	185.9
2072.54	180.9
2076.637	186.9
2080.73	187.9
2084.82	176.9
2088.906	176.9
2092.988	175.9
2097.066	170.9
2101.14	172.9
2105.211	167.9
2109.278	170.9
2113.342	158.9
2117.401	170.9
2121.457	165.9
2125.509	164.9
2129.558	154.9
2133.602	156.9
2137.643	149.9
2141.681	163.9
2145.714	157.9
2149.744	163.9
2153.77	165.9
2157.793	166.9
2161.812	161.9
2165.827	161.9
2169.838	147.9
2173.846	154.9
2177.851	148.9
2181.851	156.9
2185.848	144.9
2189.841	145.9
2193.831	146.9
2197.817	142.9
2201.799	144.9
2205.778	149.9
2209.753	139.9
2213.725	147.9
2217.693	149.9
2221.657	142.9
2225.618	140.9
2229.575	135.9
2233.529	142.9
2237.479	136.9
2241.425	129.9
2245.368	134.9
2249.307	140.9
2253.243	125.9
2257.175	130.9
2261.104	118.9
2265.029	127.9
2268.95	123.9
2272.868	123.9
2276.783	117.9
2280.694	112.9
2284.601	113.9
2288.505	114.9
2292.405	113.9
2296.302	116.9
2300.195	112.9
2304.085	111.9
2307.971	109.9
2311.854	111.9
2315.734	111.9
2319.609	112.9
2323.482	111.9
2327.351	110.9
2331.216	124.9
2335.078	131.9
2338.937	120.9
2342.792	113.9
2346.643	104.9
2350.492	106.9
2354.336	105.9
2358.178	103.9
2362.015	106.9
2365.85	113.9
2369.681	102.9
2373.508	110.9
2377.333	113.9
2381.153	101.9
2384.971	98.9
2388.785	107.9
2392.595	101.9
2396.402	98.9
2400.206	105.9
2404.007	105.9
2407.804	105.9
2411.597	110.9
2415.388	105.9
2419.174	106.9
2422.958	101.9
2426.738	106.9
2430.515	90.9
2434.289	102.9
2438.059	100.9
2441.825	91.9
2445.589	91.9
2449.349	91.9
2453.106	91.9
2456.859	93.9
2460.61	91.9
2464.356	91.9
2468.1	85.9
2471.84	79.9
2475.577	84.9
2479.311	82.9
2483.041	82.9
2486.768	78.9
2490.492	83.9
2494.213	73.9
2497.93	79.9
2501.644	80.9
2505.355	75.9
2509.062	71.9
2512.766	76.9
2516.467	68.9
2520.165	73.9
2523.859	71.9
2527.551	65.9
2531.239	65.9
2534.923	66.9
2538.605	64.9
2542.283	61.9
2545.958	66.9
2549.63	59.9
2553.299	66.9
2556.964	59.9
2560.626	59.9
2564.285	65.9
2567.941	61.9
2571.594	60.9
2575.243	57.9
2578.89	53.9
2582.533	55.9
2586.173	59.9
2589.809	60.9
2593.443	63.9
2597.073	56.9
2600.701	57.9
2604.325	46.9
2607.946	36.9
2611.564	44.9
2615.178	48.9
2618.79	51.9
2622.398	44.9
2626.004	47.9
2629.606	48.9
2633.205	44.9
2636.801	46.9
2640.394	49.9
2643.983	52.9
2647.57	39.9
2651.153	40.9
2654.734	42.9
2658.311	47.9
2661.885	44.9
2665.456	46.9
2669.025	41.9
2672.589	38.9
2676.151	48.9
2679.71	41.9
2683.266	42.9
2686.819	40.9
2690.368	39.9
2693.915	43.9
2697.458	28.9
2700.999	36.9
2704.536	39.9
2708.071	38.9
2711.602	33.9
2715.13	31.9
2718.656	31.9
2722.178	30.9
2725.697	32.9
2729.214	29.9
2732.727	30.9
2736.237	27.9
2739.744	28.9
2743.249	22.9
2746.75	26.9
2750.248	23.9
2753.743	16.9
2757.236	18.9
2760.725	20.9
2764.211	19.9
2767.695	13.9
2771.175	19.9
2774.652	22.9
2778.127	14.9
2781.598	13.9
2785.067	19.9
2788.532	18.9
2791.995	27.9
2795.455	12.9
2798.911	18.9
2802.365	24.9
2805.816	25.9
2809.264	22.9
2812.709	14.9
2816.151	19.9
2819.59	26.9
2823.026	18.9
2826.46	20.9
2829.89	17.9
2833.318	20.9
2836.742	18.9
2840.164	26.9
2843.583	26.9
2846.999	27.9
2850.412	19.9
2853.822	24.9
2857.229	18.9
2860.634	20.9
2864.035	21.9
2867.434	20.9
2870.83	29.9
2874.223	25.9
2877.613	32.9
2881	32.9
2884.385	32.9
2887.766	31.9
2891.145	33.9
2894.521	31.9
2897.894	30.9
2901.264	29.9
2904.631	27.9
2907.996	31.9
2911.358	35.9
2914.717	34.9
2918.073	38.9
2921.426	33.9
2924.777	40.9
2928.124	43.9
2931.469	39.9
2934.811	48.9
2938.15	48.9
2941.487	53.9
2944.821	45.9
2948.152	48.9
2951.48	42.9
2954.805	48.9
2958.128	44.9
2961.447	40.9
2964.765	35.9
2968.079	39.9
2971.39	36.9
2974.699	39.9
2978.005	46.9
2981.308	36.9
2984.609	38.9
2987.907	37.9
2991.202	40.9
2994.494	45.9
2997.784	34.9
3001.07	39.9
3004.355	39.9
3007.636	39.9
3010.915	44.9
3014.191	39.9
3017.464	43.9
3020.734	44.9
3024.002	46.9
3027.267	47.9
3030.53	52.9
3033.789	50.9
3037.046	52.9
3040.301	48.9
3043.552	57.9
3046.801	60.9
3050.048	51.9
3053.291	55.9
3056.532	62.9
3059.771	67.9
3063.006	72.9
3066.239	61.9
3069.469	76.9
3072.697	74.9
3075.922	80.9
3079.144	78.9
3082.364	80.9
3085.581	80.9
3088.795	87.9
3092.007	88.9
3095.216	93.9
3098.423	89.9
3101.627	91.9
3104.828	101.9
3108.026	95.9
3111.222	102.9
3114.416	101.9
3117.607	97.9
3120.795	107.9
3123.98	108.9
3127.163	121.9
3130.344	122.9
3133.521	117.9
3136.696	116.9
3139.869	123.9
3143.039	124.9
3146.206	130.9
3149.371	120.9
3152.533	134.9
3155.693	133.9
3158.85	138.9
3162.005	138.9
3165.157	134.9
3168.306	134.9
3171.453	134.9
3174.597	136.9
3177.739	140.9
3180.878	143.9
3184.014	134.9
3187.149	138.9
3190.28	136.9
3193.409	143.9
3196.536	136.9
3199.659	144.9
3202.781	141.9
3205.9	134.9
3209.016	134.9
3212.13	147.9
3215.241	138.9
3218.35	139.9
3221.456	134.9
3224.56	134.9
3227.661	125.9
3230.76	130.9
3233.856	119.9
3236.95	118.9
3240.041	116.9
3243.13	119.9
3246.216	118.9
3249.3	121.9
3252.382	110.9
3255.46	116.9
3258.537	113.9
3261.611	103.9
3264.682	108.9
3267.751	112.9
3270.818	95.9
3273.882	101.9
3276.943	95.9
3280.002	103.9
3283.059	106.9
3286.113	95.9
3289.165	97.9
3292.214	96.9
3295.261	99.9
3298.306	98.9
3301.348	94.9
3304.387	95.9
3307.425	91.9
3310.459	88.9
3313.492	88.9
3316.521	96.9
3319.549	95.9
3322.574	93.9
3325.597	87.9
3328.617	94.9
3331.635	91.9
3334.65	93.9
3337.663	82.9
3340.674	86.9
3343.682	84.9
3346.688	87.9
3349.691	87.9
3352.692	88.9
3355.691	99.9
3358.687	89.9
3361.681	86.9
3364.673	85.9
3367.662	79.9
3370.649	86.9
3373.633	81.9
3376.615	79.9
3379.595	75.9
3382.572	69.9
3385.547	73.9
3388.52	75.9
3391.49	71.9
3394.458	62.9
3397.424	74.9
3400.387	75.9
3403.348	62.9
3406.307	66.9
3409.263	67.9
3412.217	64.9
3415.168	62.9
3418.118	57.9
3421.065	55.9
3424.009	48.9
3426.951	50.9
3429.891	56.9
3432.829	50.9
3435.764	58.9
3438.697	44.9
3441.628	43.9
3444.557	45.9
3447.483	45.9
3450.407	29.9
3453.328	34.9
3456.247	32.9
3459.164	28.9
3462.079	21.9
3464.991	25.9
3467.902	18.9
3470.809	18.9
3473.715	22.9
3476.618	21.9
3479.519	19.9
3482.418	17.9
3485.315	18.9
3488.209	5.9
3491.101	4.9
3493.99	10.9
3496.878	5.9
3499.763	5.9
3502.646	1.9
3505.527	-0.1
3508.405	-2.1
3511.281	-0.1
3514.155	-4.1
3517.027	-6.1
3519.897	-3.1
3522.764	-5.1
3525.629	-12.1
3528.492	-9.1
3531.352	-16.1
3534.211	-15.1
3537.067	-19.1
3539.921	-15.1
3542.773	-24.1
3545.622	-20.1
3548.469	-12.1
3551.315	-17.1
3554.157	-21.1
3556.998	-19.1
3559.837	-24.1
3562.673	-22.1
3565.507	-27.1
3568.339	-27.1
3571.169	-25.1
3573.996	-17.1
3576.822	-35.1
3579.645	-30.1
3582.466	-30.1
3585.285	-30.1
3588.101	-33.1
3590.916	-26.1
3593.728	-36.1
3596.538	-33.1
3599.346	-39.1
3602.152	-34.1
3604.956	-34.1
3607.757	-33.1
3610.556	-36.1
3613.354	-41.1
3616.149	-42.1
3618.942	-37.1
3621.732	-42.1
3624.521	-39.1
3627.307	-43.1
3630.092	-41.1
3632.874	-42.1
3635.654	-46.1
3638.432	-42.1
3641.208	-42.1
3643.982	-40.1
3646.753	-42.1
3649.523	-44.1
3652.29	-45.1
3655.055	-34.1
3657.818	-44.1
3660.579	-47.1
3663.338	-43.1
3666.095	-47.1
3668.849	-52.1
3671.602	-47.1
3674.352	-44.1
3677.101	-50.1
3679.847	-44.1
3682.591	-42.1
3685.333	-46.1
3688.073	-53.1
3690.811	-44.1
3693.547	-50.1
3696.281	-45.1
3699.013	-44.1
3701.742	-50.1
3704.47	-44.1
3707.195	-51.1
3709.919	-50.1
3712.64	-51.1
3715.359	-49.1
3718.076	-47.1
3720.792	-48.1
3723.505	-47.1
3726.216	-44.1
3728.925	-53.1
3731.632	-45.1
3734.336	-52.1
3737.039	-46.1
3739.74	-54.1
3742.439	-51.1
3745.136	-50.1
3747.83	-46.1
3750.523	-53.1
3753.213	-59.1
3755.902	-51.1
3758.589	-49.1
3761.273	-51.1
3763.956	-52.1
3766.636	-49.1
3769.315	-47.1
3771.991	-54.1
3774.665	-59.1
3777.338	-51.1
3780.008	-51.1
3782.677	-58.1
3785.343	-48.1
3788.007	-53.1
3790.67	-53.1
3793.33	-54.1
3795.989	-56.1
3798.645	-52.1
3801.299	-50.1
3803.952	-54.1
3806.602	-59.1
3809.251	-56.1
3811.897	-58.1
3814.542	-57.1
3817.184	-54.1
3819.825	-48.1
3822.463	-47.1
3825.1	-49.1
3827.735	-58.1
3830.367	-58.1
3832.998	-56.1
3835.627	-53.1
3838.253	-53.1
3840.878	-51.1
3843.501	-48.1
3846.122	-57.1
3848.741	-54.1
3851.358	-50.1
3853.973	-49.1
3856.586	-45.1
3859.197	-54.1
3861.806	-53.1
3864.414	-60.1
3867.019	-53.1
3869.622	-51.1
3872.224	-42.1
3874.823	-34.1
3877.421	-25.1
3880.016	-16.1
3882.61	-4.1
3885.202	-4.1
3887.792	-6.1
3890.38	-26.1
3892.966	-43.1
3895.55	-48.1
3898.132	-51.1
3900.713	-57.1
3903.291	-57.1
3905.868	-46.1
3908.442	-53.1
3911.015	-49.1
3913.586	-54.1
3916.155	-52.1
3918.722	-51.1
3921.287	-54.1
3923.85	-41.1
3926.411	-59.1
3928.971	-63.1
3931.528	-60.1
3934.084	-51.1
3936.638	-48.1
3939.19	-60.1
3941.74	-53.1
3944.288	-50.1
3946.834	-52.1
3949.378	-55.1
3951.921	-58.1
3954.462	-51.1
3957	-46.1
3959.537	-52.1
3962.072	-49.1
3964.606	-56.1
3967.137	-49.1
3969.667	-51.1
3972.194	-52.1
3974.72	-48.1
3977.244	-46.1
3979.766	-52.1
3982.286	-56.1
3984.805	-67.1
3987.321	-53.1
3989.836	-52.1
3992.349	-55.1
3994.86	-55.1
3997.369	-56.1
3999.877	-52.1
4002.382	-51.1
4004.886	-46.1
4007.388	-57.1
4009.888	-53.1
4012.386	-51.1
4014.883	-55.1
4017.377	-54.1
4019.87	-54.1
4022.361	-54.1
4024.85	-53.1
4027.338	-52.1
4029.823	-53.1
4032.307	-56.1
4034.789	-50.1
4037.269	-54.1
4039.747	-56.1
4042.224	-53.1
4044.699	-56.1
4047.172	-58.1
4049.643	-53.1
4052.112	-57.1
4054.58	-56.1
4057.046	-42.1
4059.51	-54.1
4061.972	-55.1
4064.432	-49.1
4066.891	-49.1
4069.348	-49.1
4071.803	-43.1
4074.256	-53.1
4076.708	-54.1
4079.158	-58.1
4081.606	-51.1
4084.052	-52.1
4086.497	-45.1
4088.939	-46.1
4091.38	-56.1
4093.819	-55.1
4096.257	-53.1
4098.693	-56.1
4101.127	-52.1
4103.559	-57.1
4105.989	9.9
4108.418	10.9
4110.845	4.9
4113.27	5.9
4115.694	12.9
4118.115	10.9
4120.535	-57.1
4122.954	-53.1
4125.37	-53.1
4127.785	-53.1
4130.198	-51.1
4132.609	-56.1
4135.019	-56.1
4137.427	-60.1
4139.833	-55.1
4142.237	-53.1
