Data from 2018-3-7_conc=4_n=5_RamanShift_04.txt Node
Date: Wed Mar 07 12:02:52 IST 2018
User: aro
Spectrometer: QEPB0276
Trigger mode: 0
Integration Time (sec): 3.000000E1
Scans to average: 1
Electric dark correction enabled: true
Nonlinearity correction enabled: false
Boxcar width: 0
XAxis mode: Raman Shifts
Number of Pixels in Spectrum: 1044
>>>>>Begin Spectral Data<<<<<
160.701	11.1
166.742	24.1
172.777	52.1
178.805	132.1
184.826	332.1
190.841	688.1
196.849	1142.1
202.85	1499.1
208.845	1654.1
214.833	1655.1
220.815	1636.1
226.789	1622.1
232.758	1655.1
238.719	1643.1
244.674	1612.1
250.623	1635.1
256.565	1604.1
262.5	1562.1
268.429	1565.1
274.351	1560.1
280.267	1545.1
286.176	1553.1
292.079	1552.1
297.975	1533.1
303.865	1549.1
309.748	1535.1
315.625	1530.1
321.495	1547.1
327.359	1543.1
333.217	1561.1
339.068	1562.1
344.912	1561.1
350.751	1568.1
356.583	1554.1
362.408	1560.1
368.227	1583.1
374.04	1585.1
379.847	1582.1
385.647	1586.1
391.44	1584.1
397.228	1595.1
403.009	1605.1
408.784	1608.1
414.553	1628.1
420.315	1623.1
426.071	1629.1
431.821	1630.1
437.565	1614.1
443.302	1623.1
449.033	1611.1
454.758	1623.1
460.477	1586.1
466.189	1597.1
471.896	1561.1
477.596	1567.1
483.29	1558.1
488.978	1533.1
494.66	1537.1
500.335	1517.1
506.005	1467.1
511.668	1412.1
517.325	1344.1
522.977	1312.1
528.622	1270.1
534.261	1256.1
539.894	1226.1
545.521	1223.1
551.141	1207.1
556.756	1200.1
562.365	1174.1
567.968	1184.1
573.565	1150.1
579.155	1165.1
584.74	1159.1
590.319	1140.1
595.892	1153.1
601.459	1154.1
607.02	1140.1
612.575	1137.1
618.124	1120.1
623.667	1101.1
629.204	1087.1
634.735	1073.1
640.261	1080.1
645.781	1080.1
651.294	1072.1
656.802	1064.1
662.304	1053.1
667.8	1055.1
673.29	1048.1
678.775	1043.1
684.254	1050.1
689.726	1044.1
695.193	1018.1
700.655	1033.1
706.11	1012.1
711.56	1017.1
717.004	1016.1
722.442	1001.1
727.874	987.1
733.301	1008.1
738.722	982.1
744.137	985.1
749.547	998.1
754.951	993.1
760.349	981.1
765.741	1002.1
771.128	989.1
776.509	1004.1
781.885	1026.1
787.254	1021.1
792.618	1013.1
797.977	1025.1
803.33	1004.1
808.677	1003.1
814.019	1008.1
819.355	993.1
824.686	974.1
830.011	986.1
835.33	969.1
840.644	962.1
845.952	977.1
851.255	959.1
856.552	969.1
861.844	943.1
867.13	935.1
872.41	929.1
877.686	927.1
882.955	920.1
888.219	911.1
893.478	913.1
898.731	891.1
903.979	881.1
909.221	866.1
914.458	862.1
919.69	871.1
924.916	876.1
930.136	869.1
935.351	859.1
940.561	867.1
945.766	872.1
950.965	873.1
956.158	891.1
961.347	846.1
966.529	839.1
971.707	815.1
976.879	802.1
982.046	809.1
987.208	801.1
992.364	788.1
997.515	799.1
1002.66	802.1
1007.801	813.1
1012.936	832.1
1018.066	837.1
1023.19	826.1
1028.309	829.1
1033.423	828.1
1038.532	815.1
1043.636	824.1
1048.734	806.1
1053.827	786.1
1058.915	792.1
1063.998	785.1
1069.075	773.1
1074.147	770.1
1079.214	786.1
1084.276	772.1
1089.333	809.1
1094.385	787.1
1099.431	788.1
1104.472	779.1
1109.509	770.1
1114.54	761.1
1119.565	762.1
1124.586	737.1
1129.602	736.1
1134.613	733.1
1139.618	726.1
1144.619	721.1
1149.614	734.1
1154.604	727.1
1159.589	722.1
1164.57	729.1
1169.545	726.1
1174.515	731.1
1179.48	732.1
1184.44	724.1
1189.395	715.1
1194.345	720.1
1199.29	699.1
1204.23	710.1
1209.165	702.1
1214.095	717.1
1219.021	713.1
1223.941	712.1
1228.856	718.1
1233.766	723.1
1238.672	736.1
1243.572	721.1
1248.467	714.1
1253.358	699.1
1258.244	705.1
1263.124	687.1
1268	677.1
1272.871	671.1
1277.737	661.1
1282.599	665.1
1287.455	656.1
1292.306	658.1
1297.153	646.1
1301.995	658.1
1306.832	672.1
1311.664	681.1
1316.491	669.1
1321.314	665.1
1326.132	670.1
1330.945	664.1
1335.753	638.1
1340.556	623.1
1345.354	622.1
1350.148	610.1
1354.937	583.1
1359.722	581.1
1364.501	568.1
1369.276	560.1
1374.046	550.1
1378.811	541.1
1383.572	549.1
1388.327	550.1
1393.079	536.1
1397.825	551.1
1402.567	552.1
1407.304	537.1
1412.036	559.1
1416.764	548.1
1421.487	553.1
1426.205	550.1
1430.919	552.1
1435.628	559.1
1440.333	570.1
1445.032	554.1
1449.727	568.1
1454.418	565.1
1459.104	571.1
1463.785	559.1
1468.462	552.1
1473.134	544.1
1477.802	525.1
1482.465	504.1
1487.123	511.1
1491.777	495.1
1496.426	486.1
1501.071	477.1
1505.711	475.1
1510.347	463.1
1514.978	461.1
1519.604	465.1
1524.226	475.1
1528.844	457.1
1533.457	467.1
1538.065	455.1
1542.669	456.1
1547.269	456.1
1551.864	458.1
1556.454	474.1
1561.041	470.1
1565.622	476.1
1570.199	474.1
1574.772	479.1
1579.34	472.1
1583.904	490.1
1588.464	507.1
1593.019	498.1
1597.569	498.1
1602.115	488.1
1606.657	497.1
1611.195	489.1
1615.728	496.1
1620.256	497.1
1624.78	490.1
1629.3	489.1
1633.816	495.1
1638.327	502.1
1642.834	491.1
1647.336	494.1
1651.834	478.1
1656.328	503.1
1660.817	490.1
1665.302	489.1
1669.783	475.1
1674.259	457.1
1678.732	452.1
1683.199	430.1
1687.663	428.1
1692.122	402.1
1696.577	381.1
1701.028	367.1
1705.474	359.1
1709.917	353.1
1714.355	346.1
1718.788	344.1
1723.218	342.1
1727.643	339.1
1732.064	330.1
1736.481	337.1
1740.893	324.1
1745.301	323.1
1749.705	312.1
1754.105	301.1
1758.501	286.1
1762.893	290.1
1767.28	291.1
1771.663	285.1
1776.042	278.1
1780.417	277.1
1784.787	273.1
1789.154	269.1
1793.516	263.1
1797.874	244.1
1802.228	258.1
1806.578	254.1
1810.924	254.1
1815.266	252.1
1819.603	241.1
1823.937	251.1
1828.266	248.1
1832.591	248.1
1836.913	247.1
1841.23	248.1
1845.543	245.1
1849.852	256.1
1854.156	257.1
1858.457	257.1
1862.754	260.1
1867.047	259.1
1871.335	252.1
1875.62	251.1
1879.9	247.1
1884.177	246.1
1888.449	255.1
1892.718	235.1
1896.982	234.1
1901.243	229.1
1905.499	223.1
1909.752	221.1
1914	223.1
1918.245	217.1
1922.485	214.1
1926.722	200.1
1930.954	204.1
1935.183	216.1
1939.408	210.1
1943.628	198.1
1947.845	211.1
1952.058	201.1
1956.267	195.1
1960.472	207.1
1964.673	186.1
1968.87	191.1
1973.063	195.1
1977.252	200.1
1981.438	191.1
1985.619	189.1
1989.797	191.1
1993.971	190.1
1998.14	192.1
2002.306	193.1
2006.469	200.1
2010.627	187.1
2014.781	194.1
2018.932	187.1
2023.078	193.1
2027.221	191.1
2031.36	191.1
2035.495	185.1
2039.627	177.1
2043.754	179.1
2047.878	173.1
2051.998	179.1
2056.114	176.1
2060.226	170.1
2064.334	166.1
2068.439	165.1
2072.54	173.1
2076.637	173.1
2080.73	170.1
2084.82	169.1
2088.906	170.1
2092.988	162.1
2097.066	160.1
2101.14	161.1
2105.211	165.1
2109.278	151.1
2113.342	143.1
2117.401	158.1
2121.457	151.1
2125.509	141.1
2129.558	146.1
2133.602	142.1
2137.643	148.1
2141.681	150.1
2145.714	153.1
2149.744	149.1
2153.77	152.1
2157.793	154.1
2161.812	156.1
2165.827	150.1
2169.838	141.1
2173.846	134.1
2177.851	148.1
2181.851	143.1
2185.848	141.1
2189.841	138.1
2193.831	134.1
2197.817	137.1
2201.799	129.1
2205.778	133.1
2209.753	136.1
2213.725	129.1
2217.693	133.1
2221.657	132.1
2225.618	128.1
2229.575	127.1
2233.529	126.1
2237.479	138.1
2241.425	127.1
2245.368	128.1
2249.307	134.1
2253.243	117.1
2257.175	113.1
2261.104	111.1
2265.029	116.1
2268.95	119.1
2272.868	108.1
2276.783	108.1
2280.694	110.1
2284.601	102.1
2288.505	112.1
2292.405	111.1
2296.302	107.1
2300.195	108.1
2304.085	99.1
2307.971	99.1
2311.854	103.1
2315.734	95.1
2319.609	104.1
2323.482	99.1
2327.351	98.1
2331.216	102.1
2335.078	118.1
2338.937	107.1
2342.792	97.1
2346.643	99.1
2350.492	107.1
2354.336	97.1
2358.178	91.1
2362.015	94.1
2365.85	99.1
2369.681	98.1
2373.508	102.1
2377.333	102.1
2381.153	98.1
2384.971	93.1
2388.785	95.1
2392.595	97.1
2396.402	99.1
2400.206	93.1
2404.007	94.1
2407.804	89.1
2411.597	93.1
2415.388	81.1
2419.174	100.1
2422.958	90.1
2426.738	92.1
2430.515	87.1
2434.289	98.1
2438.059	85.1
2441.825	84.1
2445.589	89.1
2449.349	84.1
2453.106	87.1
2456.859	80.1
2460.61	75.1
2464.356	79.1
2468.1	80.1
2471.84	71.1
2475.577	72.1
2479.311	75.1
2483.041	72.1
2486.768	67.1
2490.492	72.1
2494.213	72.1
2497.93	70.1
2501.644	72.1
2505.355	63.1
2509.062	69.1
2512.766	71.1
2516.467	67.1
2520.165	68.1
2523.859	73.1
2527.551	60.1
2531.239	66.1
2534.923	53.1
2538.605	59.1
2542.283	53.1
2545.958	58.1
2549.63	57.1
2553.299	56.1
2556.964	53.1
2560.626	56.1
2564.285	58.1
2567.941	48.1
2571.594	57.1
2575.243	55.1
2578.89	49.1
2582.533	49.1
2586.173	48.1
2589.809	52.1
2593.443	54.1
2597.073	49.1
2600.701	48.1
2604.325	48.1
2607.946	33.1
2611.564	43.1
2615.178	48.1
2618.79	46.1
2622.398	46.1
2626.004	39.1
2629.606	33.1
2633.205	40.1
2636.801	47.1
2640.394	43.1
2643.983	42.1
2647.57	44.1
2651.153	40.1
2654.734	41.1
2658.311	40.1
2661.885	40.1
2665.456	43.1
2669.025	38.1
2672.589	36.1
2676.151	41.1
2679.71	25.1
2683.266	29.1
2686.819	45.1
2690.368	28.1
2693.915	32.1
2697.458	27.1
2700.999	37.1
2704.536	36.1
2708.071	30.1
2711.602	31.1
2715.13	24.1
2718.656	27.1
2722.178	22.1
2725.697	21.1
2729.214	23.1
2732.727	28.1
2736.237	30.1
2739.744	19.1
2743.249	21.1
2746.75	17.1
2750.248	16.1
2753.743	18.1
2757.236	13.1
2760.725	23.1
2764.211	11.1
2767.695	14.1
2771.175	17.1
2774.652	16.1
2778.127	22.1
2781.598	11.1
2785.067	14.1
2788.532	11.1
2791.995	21.1
2795.455	16.1
2798.911	14.1
2802.365	15.1
2805.816	17.1
2809.264	20.1
2812.709	9.1
2816.151	13.1
2819.59	25.1
2823.026	12.1
2826.46	13.1
2829.89	13.1
2833.318	15.1
2836.742	19.1
2840.164	12.1
2843.583	21.1
2846.999	21.1
2850.412	15.1
2853.822	18.1
2857.229	21.1
2860.634	18.1
2864.035	14.1
2867.434	12.1
2870.83	24.1
2874.223	21.1
2877.613	25.1
2881	25.1
2884.385	21.1
2887.766	26.1
2891.145	22.1
2894.521	29.1
2897.894	23.1
2901.264	27.1
2904.631	23.1
2907.996	32.1
2911.358	28.1
2914.717	29.1
2918.073	26.1
2921.426	29.1
2924.777	34.1
2928.124	33.1
2931.469	36.1
2934.811	40.1
2938.15	35.1
2941.487	45.1
2944.821	33.1
2948.152	45.1
2951.48	39.1
2954.805	40.1
2958.128	32.1
2961.447	39.1
2964.765	37.1
2968.079	30.1
2971.39	37.1
2974.699	32.1
2978.005	42.1
2981.308	32.1
2984.609	36.1
2987.907	40.1
2991.202	38.1
2994.494	31.1
2997.784	28.1
3001.07	31.1
3004.355	38.1
3007.636	41.1
3010.915	41.1
3014.191	33.1
3017.464	36.1
3020.734	40.1
3024.002	45.1
3027.267	46.1
3030.53	46.1
3033.789	51.1
3037.046	47.1
3040.301	45.1
3043.552	50.1
3046.801	47.1
3050.048	52.1
3053.291	51.1
3056.532	59.1
3059.771	53.1
3063.006	64.1
3066.239	67.1
3069.469	67.1
3072.697	67.1
3075.922	76.1
3079.144	74.1
3082.364	74.1
3085.581	77.1
3088.795	89.1
3092.007	95.1
3095.216	88.1
3098.423	87.1
3101.627	79.1
3104.828	96.1
3108.026	113.1
3111.222	94.1
3114.416	100.1
3117.607	102.1
3120.795	111.1
3123.98	105.1
3127.163	120.1
3130.344	114.1
3133.521	113.1
3136.696	121.1
3139.869	121.1
3143.039	121.1
3146.206	123.1
3149.371	126.1
3152.533	141.1
3155.693	131.1
3158.85	128.1
3162.005	131.1
3165.157	132.1
3168.306	128.1
3171.453	134.1
3174.597	132.1
3177.739	132.1
3180.878	132.1
3184.014	133.1
3187.149	140.1
3190.28	133.1
3193.409	140.1
3196.536	136.1
3199.659	145.1
3202.781	136.1
3205.9	130.1
3209.016	131.1
3212.13	138.1
3215.241	136.1
3218.35	128.1
3221.456	133.1
3224.56	125.1
3227.661	127.1
3230.76	119.1
3233.856	128.1
3236.95	126.1
3240.041	118.1
3243.13	121.1
3246.216	115.1
3249.3	106.1
3252.382	116.1
3255.46	117.1
3258.537	110.1
3261.611	99.1
3264.682	100.1
3267.751	105.1
3270.818	92.1
3273.882	104.1
3276.943	98.1
3280.002	99.1
3283.059	95.1
3286.113	98.1
3289.165	90.1
3292.214	103.1
3295.261	102.1
3298.306	107.1
3301.348	103.1
3304.387	93.1
3307.425	92.1
3310.459	83.1
3313.492	87.1
3316.521	89.1
3319.549	103.1
3322.574	87.1
3325.597	85.1
3328.617	83.1
3331.635	91.1
3334.65	94.1
3337.663	85.1
3340.674	87.1
3343.682	86.1
3346.688	89.1
3349.691	96.1
3352.692	90.1
3355.691	91.1
3358.687	91.1
3361.681	89.1
3364.673	78.1
3367.662	88.1
3370.649	82.1
3373.633	74.1
3376.615	79.1
3379.595	80.1
3382.572	70.1
3385.547	73.1
3388.52	72.1
3391.49	64.1
3394.458	66.1
3397.424	73.1
3400.387	76.1
3403.348	64.1
3406.307	67.1
3409.263	68.1
3412.217	65.1
3415.168	64.1
3418.118	57.1
3421.065	56.1
3424.009	56.1
3426.951	51.1
3429.891	60.1
3432.829	49.1
3435.764	55.1
3438.697	53.1
3441.628	45.1
3444.557	44.1
3447.483	48.1
3450.407	38.1
3453.328	38.1
3456.247	34.1
3459.164	34.1
3462.079	23.1
3464.991	23.1
3467.902	22.1
3470.809	21.1
3473.715	21.1
3476.618	15.1
3479.519	15.1
3482.418	16.1
3485.315	15.1
3488.209	4.1
3491.101	9.1
3493.99	11.1
3496.878	7.1
3499.763	0.1
3502.646	7.1
3505.527	7.1
3508.405	0.1
3511.281	2.1
3514.155	-1.9
3517.027	-8.9
3519.897	-3.9
3522.764	-9.9
3525.629	-4.9
3528.492	-14.9
3531.352	-14.9
3534.211	-14.9
3537.067	-14.9
3539.921	-10.9
3542.773	-16.9
3545.622	-20.9
3548.469	-18.9
3551.315	-12.9
3554.157	-21.9
3556.998	-22.9
3559.837	-23.9
3562.673	-27.9
3565.507	-21.9
3568.339	-22.9
3571.169	-26.9
3573.996	-21.9
3576.822	-36.9
3579.645	-25.9
3582.466	-28.9
3585.285	-32.9
3588.101	-29.9
3590.916	-28.9
3593.728	-29.9
3596.538	-35.9
3599.346	-39.9
3602.152	-34.9
3604.956	-31.9
3607.757	-29.9
3610.556	-34.9
3613.354	-41.9
3616.149	-42.9
3618.942	-40.9
3621.732	-38.9
3624.521	-39.9
3627.307	-37.9
3630.092	-40.9
3632.874	-42.9
3635.654	-39.9
3638.432	-34.9
3641.208	-37.9
3643.982	-35.9
3646.753	-43.9
3649.523	-36.9
3652.29	-46.9
3655.055	-41.9
3657.818	-45.9
3660.579	-42.9
3663.338	-38.9
3666.095	-41.9
3668.849	-44.9
3671.602	-48.9
3674.352	-42.9
3677.101	-46.9
3679.847	-43.9
3682.591	-52.9
3685.333	-39.9
3688.073	-52.9
3690.811	-41.9
3693.547	-46.9
3696.281	-43.9
3699.013	-48.9
3701.742	-48.9
3704.47	-40.9
3707.195	-47.9
3709.919	-50.9
3712.64	-50.9
3715.359	-45.9
3718.076	-47.9
3720.792	-48.9
3723.505	-51.9
3726.216	-45.9
3728.925	-50.9
3731.632	-46.9
3734.336	-48.9
3737.039	-47.9
3739.74	-50.9
3742.439	-54.9
3745.136	-53.9
3747.83	-46.9
3750.523	-47.9
3753.213	-59.9
3755.902	-48.9
3758.589	-49.9
3761.273	-45.9
3763.956	-49.9
3766.636	-51.9
3769.315	-47.9
3771.991	-50.9
3774.665	-57.9
3777.338	-54.9
3780.008	-49.9
3782.677	-54.9
3785.343	-54.9
3788.007	-57.9
3790.67	-51.9
3793.33	-52.9
3795.989	-53.9
3798.645	-50.9
3801.299	-50.9
3803.952	-46.9
3806.602	-54.9
3809.251	-51.9
3811.897	-57.9
3814.542	-56.9
3817.184	-52.9
3819.825	-47.9
3822.463	-51.9
3825.1	-49.9
3827.735	-55.9
3830.367	-54.9
3832.998	-53.9
3835.627	-55.9
3838.253	-50.9
3840.878	-47.9
3843.501	-49.9
3846.122	-54.9
3848.741	-48.9
3851.358	-50.9
3853.973	-49.9
3856.586	-49.9
3859.197	-46.9
3861.806	-49.9
3864.414	-56.9
3867.019	-50.9
3869.622	-45.9
3872.224	-40.9
3874.823	-31.9
3877.421	-32.9
3880.016	-10.9
3882.61	1.1
3885.202	-0.9
3887.792	-5.9
3890.38	-22.9
3892.966	-40.9
3895.55	-43.9
3898.132	-48.9
3900.713	-49.9
3903.291	-54.9
3905.868	-47.9
3908.442	-51.9
3911.015	-54.9
3913.586	-58.9
3916.155	-52.9
3918.722	-55.9
3921.287	-57.9
3923.85	-51.9
3926.411	-55.9
3928.971	-62.9
3931.528	-51.9
3934.084	-48.9
3936.638	-45.9
3939.19	-54.9
3941.74	-47.9
3944.288	-50.9
3946.834	-51.9
3949.378	-54.9
3951.921	-50.9
3954.462	-53.9
3957	-46.9
3959.537	-45.9
3962.072	-47.9
3964.606	-51.9
3967.137	-49.9
3969.667	-54.9
3972.194	-52.9
3974.72	-45.9
3977.244	-49.9
3979.766	-52.9
3982.286	-54.9
3984.805	-57.9
3987.321	-47.9
3989.836	-44.9
3992.349	-50.9
3994.86	-52.9
3997.369	-48.9
3999.877	-57.9
4002.382	-51.9
4004.886	-50.9
4007.388	-55.9
4009.888	-52.9
4012.386	-56.9
4014.883	-52.9
4017.377	-50.9
4019.87	-52.9
4022.361	-55.9
4024.85	-49.9
4027.338	-53.9
4029.823	-52.9
4032.307	-53.9
4034.789	-48.9
4037.269	-53.9
4039.747	-55.9
4042.224	-51.9
4044.699	-57.9
4047.172	-53.9
4049.643	-52.9
4052.112	-50.9
4054.58	-50.9
4057.046	-48.9
4059.51	-52.9
4061.972	-54.9
4064.432	-52.9
4066.891	-50.9
4069.348	-49.9
4071.803	-45.9
4074.256	-50.9
4076.708	-50.9
4079.158	-51.9
4081.606	-49.9
4084.052	-51.9
4086.497	-45.9
4088.939	-52.9
4091.38	-58.9
4093.819	-54.9
4096.257	-55.9
4098.693	-56.9
4101.127	-50.9
4103.559	-58.9
4105.989	21.1
4108.418	21.1
4110.845	13.1
4113.27	15.1
4115.694	18.1
4118.115	20.1
4120.535	-48.9
4122.954	-50.9
4125.37	-49.9
4127.785	-47.9
4130.198	-54.9
4132.609	-56.9
4135.019	-53.9
4137.427	-56.9
4139.833	-55.9
4142.237	-52.9
