Data from 2018-3-7_conc=2_n=9_RamanShift_03.txt Node
Date: Wed Mar 07 11:05:22 IST 2018
User: aro
Spectrometer: QEPB0276
Trigger mode: 0
Integration Time (sec): 3.000000E1
Scans to average: 1
Electric dark correction enabled: true
Nonlinearity correction enabled: false
Boxcar width: 0
XAxis mode: Raman Shifts
Number of Pixels in Spectrum: 1044
>>>>>Begin Spectral Data<<<<<
160.701	10.6
166.742	23.6
172.777	51.6
178.805	143.6
184.826	367.6
190.841	766.6
196.849	1249.6
202.85	1646.6
208.845	1784.6
214.833	1789.6
220.815	1758.6
226.789	1758.6
232.758	1786.6
238.719	1786.6
244.674	1781.6
250.623	1755.6
256.565	1762.6
262.5	1717.6
268.429	1712.6
274.351	1713.6
280.267	1696.6
286.176	1691.6
292.079	1693.6
297.975	1718.6
303.865	1714.6
309.748	1703.6
315.625	1703.6
321.495	1702.6
327.359	1714.6
333.217	1719.6
339.068	1735.6
344.912	1741.6
350.751	1734.6
356.583	1721.6
362.408	1744.6
368.227	1748.6
374.04	1774.6
379.847	1761.6
385.647	1766.6
391.44	1764.6
397.228	1778.6
403.009	1799.6
408.784	1799.6
414.553	1834.6
420.315	1806.6
426.071	1815.6
431.821	1797.6
437.565	1815.6
443.302	1803.6
449.033	1791.6
454.758	1788.6
460.477	1796.6
466.189	1765.6
471.896	1752.6
477.596	1761.6
483.29	1732.6
488.978	1737.6
494.66	1723.6
500.335	1679.6
506.005	1623.6
511.668	1562.6
517.325	1483.6
522.977	1423.6
528.622	1375.6
534.261	1363.6
539.894	1345.6
545.521	1315.6
551.141	1306.6
556.756	1297.6
562.365	1290.6
567.968	1279.6
573.565	1268.6
579.155	1251.6
584.74	1260.6
590.319	1241.6
595.892	1255.6
601.459	1242.6
607.02	1233.6
612.575	1230.6
618.124	1224.6
623.667	1213.6
629.204	1200.6
634.735	1190.6
640.261	1151.6
645.781	1168.6
651.294	1164.6
656.802	1150.6
662.304	1144.6
667.8	1139.6
673.29	1154.6
678.775	1126.6
684.254	1133.6
689.726	1119.6
695.193	1124.6
700.655	1105.6
706.11	1107.6
711.56	1108.6
717.004	1098.6
722.442	1085.6
727.874	1067.6
733.301	1085.6
738.722	1069.6
744.137	1066.6
749.547	1076.6
754.951	1069.6
760.349	1050.6
765.741	1076.6
771.128	1081.6
776.509	1089.6
781.885	1101.6
787.254	1100.6
792.618	1098.6
797.977	1106.6
803.33	1084.6
808.677	1100.6
814.019	1089.6
819.355	1065.6
824.686	1060.6
830.011	1046.6
835.33	1048.6
840.644	1051.6
845.952	1045.6
851.255	1039.6
856.552	1048.6
861.844	1015.6
867.13	1006.6
872.41	1021.6
877.686	1002.6
882.955	1003.6
888.219	977.6
893.478	986.6
898.731	959.6
903.979	940.6
909.221	941.6
914.458	934.6
919.69	930.6
924.916	936.6
930.136	932.6
935.351	931.6
940.561	932.6
945.766	924.6
950.965	911.6
956.158	915.6
961.347	906.6
966.529	903.6
971.707	874.6
976.879	877.6
982.046	861.6
987.208	864.6
992.364	846.6
997.515	857.6
1002.66	868.6
1007.801	882.6
1012.936	887.6
1018.066	901.6
1023.19	894.6
1028.309	890.6
1033.423	883.6
1038.532	896.6
1043.636	886.6
1048.734	878.6
1053.827	858.6
1058.915	858.6
1063.998	854.6
1069.075	839.6
1074.147	847.6
1079.214	855.6
1084.276	842.6
1089.333	847.6
1094.385	847.6
1099.431	841.6
1104.472	845.6
1109.509	840.6
1114.54	834.6
1119.565	818.6
1124.586	795.6
1129.602	801.6
1134.613	794.6
1139.618	780.6
1144.619	776.6
1149.614	785.6
1154.604	794.6
1159.589	794.6
1164.57	786.6
1169.545	795.6
1174.515	797.6
1179.48	795.6
1184.44	790.6
1189.395	776.6
1194.345	773.6
1199.29	745.6
1204.23	767.6
1209.165	760.6
1214.095	759.6
1219.021	767.6
1223.941	777.6
1228.856	785.6
1233.766	776.6
1238.672	782.6
1243.572	778.6
1248.467	787.6
1253.358	762.6
1258.244	740.6
1263.124	747.6
1268	732.6
1272.871	719.6
1277.737	714.6
1282.599	707.6
1287.455	696.6
1292.306	701.6
1297.153	710.6
1301.995	705.6
1306.832	720.6
1311.664	724.6
1316.491	731.6
1321.314	717.6
1326.132	714.6
1330.945	705.6
1335.753	698.6
1340.556	657.6
1345.354	654.6
1350.148	654.6
1354.937	624.6
1359.722	620.6
1364.501	605.6
1369.276	603.6
1374.046	590.6
1378.811	578.6
1383.572	582.6
1388.327	586.6
1393.079	585.6
1397.825	593.6
1402.567	577.6
1407.304	597.6
1412.036	597.6
1416.764	595.6
1421.487	594.6
1426.205	587.6
1430.919	582.6
1435.628	597.6
1440.333	617.6
1445.032	601.6
1449.727	619.6
1454.418	614.6
1459.104	610.6
1463.785	597.6
1468.462	583.6
1473.134	564.6
1477.802	563.6
1482.465	537.6
1487.123	532.6
1491.777	517.6
1496.426	514.6
1501.071	509.6
1505.711	501.6
1510.347	507.6
1514.978	490.6
1519.604	491.6
1524.226	492.6
1528.844	502.6
1533.457	491.6
1538.065	493.6
1542.669	492.6
1547.269	495.6
1551.864	494.6
1556.454	495.6
1561.041	511.6
1565.622	515.6
1570.199	518.6
1574.772	517.6
1579.34	528.6
1583.904	523.6
1588.464	543.6
1593.019	531.6
1597.569	535.6
1602.115	544.6
1606.657	525.6
1611.195	523.6
1615.728	519.6
1620.256	520.6
1624.78	528.6
1629.3	534.6
1633.816	530.6
1638.327	533.6
1642.834	524.6
1647.336	523.6
1651.834	525.6
1656.328	526.6
1660.817	523.6
1665.302	515.6
1669.783	491.6
1674.259	487.6
1678.732	479.6
1683.199	464.6
1687.663	443.6
1692.122	426.6
1696.577	401.6
1701.028	401.6
1705.474	373.6
1709.917	364.6
1714.355	361.6
1718.788	344.6
1723.218	363.6
1727.643	343.6
1732.064	358.6
1736.481	343.6
1740.893	340.6
1745.301	338.6
1749.705	324.6
1754.105	322.6
1758.501	309.6
1762.893	318.6
1767.28	303.6
1771.663	306.6
1776.042	300.6
1780.417	290.6
1784.787	281.6
1789.154	276.6
1793.516	272.6
1797.874	263.6
1802.228	264.6
1806.578	268.6
1810.924	253.6
1815.266	255.6
1819.603	257.6
1823.937	268.6
1828.266	261.6
1832.591	268.6
1836.913	264.6
1841.23	269.6
1845.543	261.6
1849.852	267.6
1854.156	266.6
1858.457	266.6
1862.754	266.6
1867.047	263.6
1871.335	259.6
1875.62	268.6
1879.9	271.6
1884.177	255.6
1888.449	257.6
1892.718	254.6
1896.982	247.6
1901.243	243.6
1905.499	246.6
1909.752	229.6
1914	228.6
1918.245	231.6
1922.485	218.6
1926.722	212.6
1930.954	215.6
1935.183	224.6
1939.408	214.6
1943.628	204.6
1947.845	210.6
1952.058	208.6
1956.267	207.6
1960.472	212.6
1964.673	199.6
1968.87	207.6
1973.063	198.6
1977.252	209.6
1981.438	195.6
1985.619	199.6
1989.797	197.6
1993.971	201.6
1998.14	205.6
2002.306	197.6
2006.469	213.6
2010.627	207.6
2014.781	208.6
2018.932	202.6
2023.078	207.6
2027.221	208.6
2031.36	202.6
2035.495	193.6
2039.627	185.6
2043.754	191.6
2047.878	187.6
2051.998	191.6
2056.114	181.6
2060.226	173.6
2064.334	182.6
2068.439	178.6
2072.54	177.6
2076.637	181.6
2080.73	181.6
2084.82	174.6
2088.906	173.6
2092.988	171.6
2097.066	171.6
2101.14	170.6
2105.211	160.6
2109.278	159.6
2113.342	156.6
2117.401	169.6
2121.457	160.6
2125.509	158.6
2129.558	162.6
2133.602	156.6
2137.643	152.6
2141.681	149.6
2145.714	162.6
2149.744	159.6
2153.77	161.6
2157.793	148.6
2161.812	159.6
2165.827	152.6
2169.838	147.6
2173.846	147.6
2177.851	147.6
2181.851	148.6
2185.848	145.6
2189.841	149.6
2193.831	144.6
2197.817	142.6
2201.799	135.6
2205.778	142.6
2209.753	140.6
2213.725	140.6
2217.693	140.6
2221.657	134.6
2225.618	131.6
2229.575	131.6
2233.529	140.6
2237.479	138.6
2241.425	128.6
2245.368	137.6
2249.307	128.6
2253.243	121.6
2257.175	124.6
2261.104	117.6
2265.029	120.6
2268.95	118.6
2272.868	117.6
2276.783	117.6
2280.694	105.6
2284.601	102.6
2288.505	114.6
2292.405	119.6
2296.302	122.6
2300.195	113.6
2304.085	116.6
2307.971	107.6
2311.854	109.6
2315.734	106.6
2319.609	106.6
2323.482	106.6
2327.351	104.6
2331.216	105.6
2335.078	132.6
2338.937	121.6
2342.792	107.6
2346.643	107.6
2350.492	100.6
2354.336	107.6
2358.178	97.6
2362.015	106.6
2365.85	107.6
2369.681	107.6
2373.508	101.6
2377.333	101.6
2381.153	101.6
2384.971	103.6
2388.785	103.6
2392.595	97.6
2396.402	105.6
2400.206	103.6
2404.007	94.6
2407.804	100.6
2411.597	100.6
2415.388	97.6
2419.174	100.6
2422.958	99.6
2426.738	102.6
2430.515	98.6
2434.289	94.6
2438.059	97.6
2441.825	83.6
2445.589	89.6
2449.349	80.6
2453.106	86.6
2456.859	87.6
2460.61	82.6
2464.356	85.6
2468.1	87.6
2471.84	80.6
2475.577	83.6
2479.311	79.6
2483.041	81.6
2486.768	75.6
2490.492	74.6
2494.213	74.6
2497.93	74.6
2501.644	74.6
2505.355	67.6
2509.062	79.6
2512.766	70.6
2516.467	81.6
2520.165	76.6
2523.859	73.6
2527.551	66.6
2531.239	69.6
2534.923	61.6
2538.605	60.6
2542.283	62.6
2545.958	65.6
2549.63	62.6
2553.299	57.6
2556.964	56.6
2560.626	56.6
2564.285	55.6
2567.941	53.6
2571.594	49.6
2575.243	58.6
2578.89	55.6
2582.533	53.6
2586.173	51.6
2589.809	59.6
2593.443	50.6
2597.073	49.6
2600.701	54.6
2604.325	43.6
2607.946	41.6
2611.564	46.6
2615.178	54.6
2618.79	51.6
2622.398	48.6
2626.004	47.6
2629.606	49.6
2633.205	40.6
2636.801	41.6
2640.394	46.6
2643.983	40.6
2647.57	41.6
2651.153	39.6
2654.734	37.6
2658.311	40.6
2661.885	35.6
2665.456	48.6
2669.025	40.6
2672.589	38.6
2676.151	43.6
2679.71	31.6
2683.266	32.6
2686.819	41.6
2690.368	35.6
2693.915	36.6
2697.458	32.6
2700.999	30.6
2704.536	33.6
2708.071	34.6
2711.602	27.6
2715.13	24.6
2718.656	30.6
2722.178	31.6
2725.697	25.6
2729.214	31.6
2732.727	28.6
2736.237	31.6
2739.744	19.6
2743.249	23.6
2746.75	20.6
2750.248	14.6
2753.743	19.6
2757.236	17.6
2760.725	20.6
2764.211	12.6
2767.695	12.6
2771.175	17.6
2774.652	11.6
2778.127	18.6
2781.598	18.6
2785.067	19.6
2788.532	16.6
2791.995	23.6
2795.455	10.6
2798.911	11.6
2802.365	15.6
2805.816	19.6
2809.264	19.6
2812.709	19.6
2816.151	21.6
2819.59	24.6
2823.026	15.6
2826.46	21.6
2829.89	9.6
2833.318	10.6
2836.742	19.6
2840.164	17.6
2843.583	18.6
2846.999	21.6
2850.412	17.6
2853.822	18.6
2857.229	20.6
2860.634	20.6
2864.035	19.6
2867.434	26.6
2870.83	24.6
2874.223	17.6
2877.613	23.6
2881	21.6
2884.385	29.6
2887.766	29.6
2891.145	22.6
2894.521	33.6
2897.894	27.6
2901.264	26.6
2904.631	29.6
2907.996	28.6
2911.358	42.6
2914.717	31.6
2918.073	27.6
2921.426	31.6
2924.777	36.6
2928.124	33.6
2931.469	42.6
2934.811	42.6
2938.15	40.6
2941.487	53.6
2944.821	42.6
2948.152	44.6
2951.48	36.6
2954.805	48.6
2958.128	40.6
2961.447	41.6
2964.765	36.6
2968.079	38.6
2971.39	31.6
2974.699	37.6
2978.005	42.6
2981.308	32.6
2984.609	40.6
2987.907	43.6
2991.202	38.6
2994.494	39.6
2997.784	31.6
3001.07	40.6
3004.355	38.6
3007.636	45.6
3010.915	37.6
3014.191	43.6
3017.464	44.6
3020.734	45.6
3024.002	49.6
3027.267	43.6
3030.53	44.6
3033.789	49.6
3037.046	47.6
3040.301	49.6
3043.552	50.6
3046.801	58.6
3050.048	54.6
3053.291	57.6
3056.532	61.6
3059.771	66.6
3063.006	68.6
3066.239	75.6
3069.469	82.6
3072.697	80.6
3075.922	78.6
3079.144	83.6
3082.364	81.6
3085.581	82.6
3088.795	84.6
3092.007	84.6
3095.216	88.6
3098.423	91.6
3101.627	94.6
3104.828	102.6
3108.026	92.6
3111.222	95.6
3114.416	104.6
3117.607	109.6
3120.795	109.6
3123.98	109.6
3127.163	127.6
3130.344	118.6
3133.521	123.6
3136.696	125.6
3139.869	126.6
3143.039	127.6
3146.206	130.6
3149.371	128.6
3152.533	140.6
3155.693	132.6
3158.85	145.6
3162.005	143.6
3165.157	138.6
3168.306	137.6
3171.453	141.6
3174.597	134.6
3177.739	149.6
3180.878	140.6
3184.014	133.6
3187.149	138.6
3190.28	137.6
3193.409	144.6
3196.536	134.6
3199.659	141.6
3202.781	146.6
3205.9	134.6
3209.016	139.6
3212.13	138.6
3215.241	140.6
3218.35	132.6
3221.456	132.6
3224.56	129.6
3227.661	131.6
3230.76	134.6
3233.856	137.6
3236.95	118.6
3240.041	120.6
3243.13	120.6
3246.216	109.6
3249.3	118.6
3252.382	116.6
3255.46	110.6
3258.537	108.6
3261.611	108.6
3264.682	109.6
3267.751	113.6
3270.818	102.6
3273.882	107.6
3276.943	96.6
3280.002	105.6
3283.059	93.6
3286.113	99.6
3289.165	96.6
3292.214	98.6
3295.261	100.6
3298.306	100.6
3301.348	98.6
3304.387	98.6
3307.425	93.6
3310.459	92.6
3313.492	96.6
3316.521	89.6
3319.549	97.6
3322.574	88.6
3325.597	83.6
3328.617	86.6
3331.635	91.6
3334.65	93.6
3337.663	88.6
3340.674	94.6
3343.682	94.6
3346.688	93.6
3349.691	95.6
3352.692	95.6
3355.691	94.6
3358.687	87.6
3361.681	93.6
3364.673	92.6
3367.662	87.6
3370.649	90.6
3373.633	82.6
3376.615	82.6
3379.595	79.6
3382.572	72.6
3385.547	79.6
3388.52	74.6
3391.49	69.6
3394.458	68.6
3397.424	78.6
3400.387	74.6
3403.348	63.6
3406.307	58.6
3409.263	62.6
3412.217	65.6
3415.168	71.6
3418.118	63.6
3421.065	57.6
3424.009	59.6
3426.951	53.6
3429.891	54.6
3432.829	55.6
3435.764	50.6
3438.697	57.6
3441.628	44.6
3444.557	40.6
3447.483	43.6
3450.407	25.6
3453.328	38.6
3456.247	38.6
3459.164	37.6
3462.079	27.6
3464.991	24.6
3467.902	22.6
3470.809	20.6
3473.715	27.6
3476.618	17.6
3479.519	17.6
3482.418	13.6
3485.315	13.6
3488.209	4.6
3491.101	6.6
3493.99	10.6
3496.878	5.6
3499.763	4.6
3502.646	-1.4
3505.527	3.6
3508.405	0.6
3511.281	-1.4
3514.155	-2.4
3517.027	-10.4
3519.897	-2.4
3522.764	-6.4
3525.629	-7.4
3528.492	-15.4
3531.352	-24.4
3534.211	-18.4
3537.067	-15.4
3539.921	-17.4
3542.773	-23.4
3545.622	-15.4
3548.469	-18.4
3551.315	-14.4
3554.157	-19.4
3556.998	-20.4
3559.837	-29.4
3562.673	-18.4
3565.507	-22.4
3568.339	-26.4
3571.169	-28.4
3573.996	-23.4
3576.822	-39.4
3579.645	-34.4
3582.466	-34.4
3585.285	-30.4
3588.101	-37.4
3590.916	-28.4
3593.728	-35.4
3596.538	-33.4
3599.346	-35.4
3602.152	-34.4
3604.956	-34.4
3607.757	-31.4
3610.556	-31.4
3613.354	-44.4
3616.149	-45.4
3618.942	-40.4
3621.732	-41.4
3624.521	-39.4
3627.307	-37.4
3630.092	-42.4
3632.874	-39.4
3635.654	-40.4
3638.432	-37.4
3641.208	-40.4
3643.982	-34.4
3646.753	-44.4
3649.523	-47.4
3652.29	-48.4
3655.055	-46.4
3657.818	-50.4
3660.579	-50.4
3663.338	-44.4
3666.095	-46.4
3668.849	-46.4
3671.602	-51.4
3674.352	-40.4
3677.101	-46.4
3679.847	-42.4
3682.591	-48.4
3685.333	-48.4
3688.073	-53.4
3690.811	-46.4
3693.547	-51.4
3696.281	-47.4
3699.013	-51.4
3701.742	-46.4
3704.47	-46.4
3707.195	-47.4
3709.919	-51.4
3712.64	-44.4
3715.359	-51.4
3718.076	-54.4
3720.792	-53.4
3723.505	-50.4
3726.216	-46.4
3728.925	-51.4
3731.632	-52.4
3734.336	-52.4
3737.039	-51.4
3739.74	-54.4
3742.439	-50.4
3745.136	-51.4
3747.83	-51.4
3750.523	-53.4
3753.213	-53.4
3755.902	-46.4
3758.589	-51.4
3761.273	-51.4
3763.956	-52.4
3766.636	-53.4
3769.315	-49.4
3771.991	-49.4
3774.665	-53.4
3777.338	-49.4
3780.008	-55.4
3782.677	-53.4
3785.343	-52.4
3788.007	-53.4
3790.67	-53.4
3793.33	-53.4
3795.989	-51.4
3798.645	-54.4
3801.299	-51.4
3803.952	-54.4
3806.602	-60.4
3809.251	-57.4
3811.897	-62.4
3814.542	-58.4
3817.184	-55.4
3819.825	-53.4
3822.463	-50.4
3825.1	-50.4
3827.735	-58.4
3830.367	-54.4
3832.998	-52.4
3835.627	-57.4
3838.253	-53.4
3840.878	-49.4
3843.501	-50.4
3846.122	-57.4
3848.741	-56.4
3851.358	-51.4
3853.973	-49.4
3856.586	-51.4
3859.197	-47.4
3861.806	-52.4
3864.414	-54.4
3867.019	-55.4
3869.622	-44.4
3872.224	-41.4
3874.823	-28.4
3877.421	-24.4
3880.016	-14.4
3882.61	12.6
3885.202	10.6
3887.792	8.6
3890.38	-22.4
3892.966	-39.4
3895.55	-45.4
3898.132	-48.4
3900.713	-53.4
3903.291	-55.4
3905.868	-52.4
3908.442	-53.4
3911.015	-59.4
3913.586	-59.4
3916.155	-54.4
3918.722	-55.4
3921.287	-55.4
3923.85	-50.4
3926.411	-54.4
3928.971	-58.4
3931.528	-59.4
3934.084	-50.4
3936.638	-51.4
3939.19	-65.4
3941.74	-52.4
3944.288	-56.4
3946.834	-56.4
3949.378	-57.4
3951.921	-54.4
3954.462	-53.4
3957	-46.4
3959.537	-43.4
3962.072	-53.4
3964.606	-56.4
3967.137	-54.4
3969.667	-52.4
3972.194	-50.4
3974.72	-48.4
3977.244	-54.4
3979.766	-52.4
3982.286	-55.4
3984.805	-59.4
3987.321	-54.4
3989.836	-50.4
3992.349	-54.4
3994.86	-51.4
3997.369	-50.4
3999.877	-57.4
4002.382	-53.4
4004.886	-54.4
4007.388	-59.4
4009.888	-57.4
4012.386	-57.4
4014.883	-56.4
4017.377	-53.4
4019.87	-54.4
4022.361	-57.4
4024.85	-48.4
4027.338	-53.4
4029.823	-57.4
4032.307	-53.4
4034.789	-54.4
4037.269	-57.4
4039.747	-51.4
4042.224	-56.4
4044.699	-58.4
4047.172	-58.4
4049.643	-57.4
4052.112	-54.4
4054.58	-57.4
4057.046	-49.4
4059.51	-54.4
4061.972	-55.4
4064.432	-51.4
4066.891	-51.4
4069.348	-52.4
4071.803	-51.4
4074.256	-55.4
4076.708	-56.4
4079.158	-64.4
4081.606	-56.4
4084.052	-58.4
4086.497	-52.4
4088.939	-51.4
4091.38	-53.4
4093.819	-55.4
4096.257	-58.4
4098.693	-58.4
4101.127	-53.4
4103.559	-63.4
4105.989	20.6
4108.418	20.6
4110.845	16.6
4113.27	19.6
4115.694	15.6
4118.115	13.6
4120.535	-51.4
4122.954	-46.4
4125.37	-55.4
4127.785	-52.4
4130.198	-54.4
4132.609	-61.4
4135.019	-60.4
4137.427	-59.4
4139.833	-52.4
4142.237	-57.4
