Data from 2018-3-7_conc=0_n=1_RamanShift_03.txt Node
Date: Wed Mar 07 10:04:53 IST 2018
User: aro
Spectrometer: QEPB0276
Trigger mode: 0
Integration Time (sec): 3.000000E1
Scans to average: 1
Electric dark correction enabled: true
Nonlinearity correction enabled: false
Boxcar width: 0
XAxis mode: Raman Shifts
Number of Pixels in Spectrum: 1044
>>>>>Begin Spectral Data<<<<<
160.701	14.4
166.742	17.4
172.777	62.4
178.805	200.4
184.826	512.4
190.841	1108.4
196.849	1840.4
202.85	2415.4
208.845	2658.4
214.833	2671.4
220.815	2646.4
226.789	2658.4
232.758	2671.4
238.719	2680.4
244.674	2689.4
250.623	2670.4
256.565	2660.4
262.5	2615.4
268.429	2614.4
274.351	2588.4
280.267	2590.4
286.176	2572.4
292.079	2573.4
297.975	2624.4
303.865	2593.4
309.748	2580.4
315.625	2611.4
321.495	2564.4
327.359	2605.4
333.217	2608.4
339.068	2621.4
344.912	2627.4
350.751	2628.4
356.583	2637.4
362.408	2636.4
368.227	2656.4
374.04	2655.4
379.847	2684.4
385.647	2699.4
391.44	2704.4
397.228	2728.4
403.009	2744.4
408.784	2745.4
414.553	2775.4
420.315	2792.4
426.071	2828.4
431.821	2812.4
437.565	2832.4
443.302	2820.4
449.033	2836.4
454.758	2805.4
460.477	2758.4
466.189	2732.4
471.896	2717.4
477.596	2684.4
483.29	2662.4
488.978	2654.4
494.66	2646.4
500.335	2584.4
506.005	2500.4
511.668	2391.4
517.325	2279.4
522.977	2173.4
528.622	2128.4
534.261	2085.4
539.894	2040.4
545.521	2015.4
551.141	2011.4
556.756	2006.4
562.365	1962.4
567.968	1944.4
573.565	1926.4
579.155	1931.4
584.74	1916.4
590.319	1904.4
595.892	1918.4
601.459	1914.4
607.02	1908.4
612.575	1883.4
618.124	1867.4
623.667	1838.4
629.204	1816.4
634.735	1807.4
640.261	1793.4
645.781	1769.4
651.294	1773.4
656.802	1739.4
662.304	1755.4
667.8	1739.4
673.29	1740.4
678.775	1728.4
684.254	1727.4
689.726	1706.4
695.193	1697.4
700.655	1702.4
706.11	1680.4
711.56	1684.4
717.004	1668.4
722.442	1655.4
727.874	1638.4
733.301	1662.4
738.722	1641.4
744.137	1648.4
749.547	1647.4
754.951	1635.4
760.349	1636.4
765.741	1646.4
771.128	1661.4
776.509	1672.4
781.885	1696.4
787.254	1693.4
792.618	1714.4
797.977	1707.4
803.33	1715.4
808.677	1700.4
814.019	1681.4
819.355	1656.4
824.686	1641.4
830.011	1633.4
835.33	1638.4
840.644	1636.4
845.952	1630.4
851.255	1625.4
856.552	1633.4
861.844	1640.4
867.13	1662.4
872.41	1775.4
877.686	1902.4
882.955	2016.4
888.219	2047.4
893.478	1882.4
898.731	1700.4
903.979	1542.4
909.221	1478.4
914.458	1468.4
919.69	1472.4
924.916	1460.4
930.136	1446.4
935.351	1450.4
940.561	1433.4
945.766	1451.4
950.965	1439.4
956.158	1428.4
961.347	1401.4
966.529	1407.4
971.707	1377.4
976.879	1344.4
982.046	1336.4
987.208	1316.4
992.364	1336.4
997.515	1351.4
1002.66	1363.4
1007.801	1388.4
1012.936	1400.4
1018.066	1433.4
1023.19	1411.4
1028.309	1423.4
1033.423	1446.4
1038.532	1473.4
1043.636	1485.4
1048.734	1518.4
1053.827	1537.4
1058.915	1506.4
1063.998	1436.4
1069.075	1410.4
1074.147	1406.4
1079.214	1419.4
1084.276	1466.4
1089.333	1504.4
1094.385	1491.4
1099.431	1484.4
1104.472	1435.4
1109.509	1365.4
1114.54	1341.4
1119.565	1312.4
1124.586	1300.4
1129.602	1277.4
1134.613	1259.4
1139.618	1245.4
1144.619	1228.4
1149.614	1243.4
1154.604	1244.4
1159.589	1237.4
1164.57	1232.4
1169.545	1219.4
1174.515	1235.4
1179.48	1208.4
1184.44	1213.4
1189.395	1202.4
1194.345	1192.4
1199.29	1169.4
1204.23	1186.4
1209.165	1188.4
1214.095	1191.4
1219.021	1190.4
1223.941	1197.4
1228.856	1195.4
1233.766	1220.4
1238.672	1219.4
1243.572	1210.4
1248.467	1202.4
1253.358	1206.4
1258.244	1188.4
1263.124	1155.4
1268	1149.4
1272.871	1159.4
1277.737	1160.4
1282.599	1161.4
1287.455	1176.4
1292.306	1159.4
1297.153	1139.4
1301.995	1140.4
1306.832	1126.4
1311.664	1130.4
1316.491	1129.4
1321.314	1118.4
1326.132	1102.4
1330.945	1085.4
1335.753	1083.4
1340.556	1046.4
1345.354	1015.4
1350.148	1003.4
1354.937	982.4
1359.722	950.4
1364.501	931.4
1369.276	928.4
1374.046	906.4
1378.811	909.4
1383.572	909.4
1388.327	909.4
1393.079	915.4
1397.825	936.4
1402.567	944.4
1407.304	954.4
1412.036	955.4
1416.764	977.4
1421.487	965.4
1426.205	971.4
1430.919	966.4
1435.628	996.4
1440.333	1030.4
1445.032	1034.4
1449.727	1076.4
1454.418	1148.4
1459.104	1186.4
1463.785	1147.4
1468.462	1075.4
1473.134	1011.4
1477.802	923.4
1482.465	897.4
1487.123	856.4
1491.777	858.4
1496.426	844.4
1501.071	803.4
1505.711	772.4
1510.347	768.4
1514.978	752.4
1519.604	735.4
1524.226	728.4
1528.844	742.4
1533.457	728.4
1538.065	732.4
1542.669	722.4
1547.269	727.4
1551.864	732.4
1556.454	755.4
1561.041	771.4
1565.622	773.4
1570.199	768.4
1574.772	766.4
1579.34	786.4
1583.904	780.4
1588.464	813.4
1593.019	806.4
1597.569	788.4
1602.115	799.4
1606.657	798.4
1611.195	777.4
1615.728	777.4
1620.256	775.4
1624.78	771.4
1629.3	782.4
1633.816	773.4
1638.327	786.4
1642.834	770.4
1647.336	757.4
1651.834	766.4
1656.328	762.4
1660.817	762.4
1665.302	721.4
1669.783	727.4
1674.259	705.4
1678.732	679.4
1683.199	634.4
1687.663	621.4
1692.122	599.4
1696.577	562.4
1701.028	542.4
1705.474	502.4
1709.917	492.4
1714.355	488.4
1718.788	485.4
1723.218	499.4
1727.643	491.4
1732.064	500.4
1736.481	502.4
1740.893	473.4
1745.301	470.4
1749.705	467.4
1754.105	452.4
1758.501	441.4
1762.893	437.4
1767.28	422.4
1771.663	420.4
1776.042	411.4
1780.417	397.4
1784.787	401.4
1789.154	375.4
1793.516	373.4
1797.874	356.4
1802.228	366.4
1806.578	343.4
1810.924	347.4
1815.266	351.4
1819.603	355.4
1823.937	372.4
1828.266	359.4
1832.591	372.4
1836.913	366.4
1841.23	381.4
1845.543	366.4
1849.852	381.4
1854.156	383.4
1858.457	380.4
1862.754	377.4
1867.047	382.4
1871.335	371.4
1875.62	381.4
1879.9	367.4
1884.177	350.4
1888.449	347.4
1892.718	351.4
1896.982	345.4
1901.243	321.4
1905.499	322.4
1909.752	305.4
1914	305.4
1918.245	291.4
1922.485	290.4
1926.722	270.4
1930.954	276.4
1935.183	276.4
1939.408	267.4
1943.628	274.4
1947.845	264.4
1952.058	264.4
1956.267	268.4
1960.472	265.4
1964.673	264.4
1968.87	256.4
1973.063	263.4
1977.252	276.4
1981.438	264.4
1985.619	268.4
1989.797	265.4
1993.971	277.4
1998.14	280.4
2002.306	297.4
2006.469	282.4
2010.627	284.4
2014.781	287.4
2018.932	277.4
2023.078	286.4
2027.221	290.4
2031.36	273.4
2035.495	270.4
2039.627	253.4
2043.754	256.4
2047.878	262.4
2051.998	252.4
2056.114	257.4
2060.226	243.4
2064.334	239.4
2068.439	236.4
2072.54	233.4
2076.637	236.4
2080.73	232.4
2084.82	230.4
2088.906	228.4
2092.988	216.4
2097.066	218.4
2101.14	225.4
2105.211	214.4
2109.278	208.4
2113.342	205.4
2117.401	202.4
2121.457	199.4
2125.509	204.4
2129.558	212.4
2133.602	212.4
2137.643	218.4
2141.681	213.4
2145.714	211.4
2149.744	213.4
2153.77	224.4
2157.793	217.4
2161.812	223.4
2165.827	223.4
2169.838	206.4
2173.846	222.4
2177.851	202.4
2181.851	210.4
2185.848	211.4
2189.841	208.4
2193.831	199.4
2197.817	204.4
2201.799	202.4
2205.778	199.4
2209.753	203.4
2213.725	202.4
2217.693	202.4
2221.657	211.4
2225.618	197.4
2229.575	196.4
2233.529	194.4
2237.479	209.4
2241.425	193.4
2245.368	198.4
2249.307	195.4
2253.243	185.4
2257.175	189.4
2261.104	181.4
2265.029	190.4
2268.95	186.4
2272.868	178.4
2276.783	168.4
2280.694	169.4
2284.601	174.4
2288.505	176.4
2292.405	188.4
2296.302	174.4
2300.195	168.4
2304.085	168.4
2307.971	163.4
2311.854	163.4
2315.734	160.4
2319.609	167.4
2323.482	156.4
2327.351	165.4
2331.216	178.4
2335.078	202.4
2338.937	182.4
2342.792	166.4
2346.643	168.4
2350.492	168.4
2354.336	164.4
2358.178	163.4
2362.015	165.4
2365.85	165.4
2369.681	168.4
2373.508	178.4
2377.333	174.4
2381.153	167.4
2384.971	167.4
2388.785	165.4
2392.595	167.4
2396.402	174.4
2400.206	169.4
2404.007	172.4
2407.804	166.4
2411.597	152.4
2415.388	156.4
2419.174	168.4
2422.958	163.4
2426.738	161.4
2430.515	158.4
2434.289	162.4
2438.059	145.4
2441.825	154.4
2445.589	154.4
2449.349	151.4
2453.106	155.4
2456.859	147.4
2460.61	145.4
2464.356	142.4
2468.1	142.4
2471.84	140.4
2475.577	139.4
2479.311	137.4
2483.041	136.4
2486.768	126.4
2490.492	135.4
2494.213	131.4
2497.93	130.4
2501.644	131.4
2505.355	123.4
2509.062	116.4
2512.766	117.4
2516.467	119.4
2520.165	114.4
2523.859	125.4
2527.551	107.4
2531.239	102.4
2534.923	109.4
2538.605	99.4
2542.283	101.4
2545.958	100.4
2549.63	97.4
2553.299	105.4
2556.964	96.4
2560.626	96.4
2564.285	97.4
2567.941	91.4
2571.594	91.4
2575.243	93.4
2578.89	89.4
2582.533	84.4
2586.173	84.4
2589.809	95.4
2593.443	80.4
2597.073	87.4
2600.701	91.4
2604.325	82.4
2607.946	76.4
2611.564	85.4
2615.178	81.4
2618.79	83.4
2622.398	77.4
2626.004	74.4
2629.606	80.4
2633.205	83.4
2636.801	84.4
2640.394	78.4
2643.983	80.4
2647.57	73.4
2651.153	70.4
2654.734	75.4
2658.311	76.4
2661.885	75.4
2665.456	79.4
2669.025	75.4
2672.589	72.4
2676.151	75.4
2679.71	68.4
2683.266	68.4
2686.819	77.4
2690.368	71.4
2693.915	70.4
2697.458	64.4
2700.999	71.4
2704.536	75.4
2708.071	69.4
2711.602	72.4
2715.13	59.4
2718.656	65.4
2722.178	65.4
2725.697	67.4
2729.214	69.4
2732.727	73.4
2736.237	68.4
2739.744	56.4
2743.249	61.4
2746.75	57.4
2750.248	46.4
2753.743	53.4
2757.236	48.4
2760.725	48.4
2764.211	43.4
2767.695	45.4
2771.175	40.4
2774.652	42.4
2778.127	43.4
2781.598	36.4
2785.067	43.4
2788.532	38.4
2791.995	48.4
2795.455	41.4
2798.911	45.4
2802.365	48.4
2805.816	49.4
2809.264	44.4
2812.709	45.4
2816.151	50.4
2819.59	56.4
2823.026	61.4
2826.46	63.4
2829.89	64.4
2833.318	60.4
2836.742	72.4
2840.164	68.4
2843.583	77.4
2846.999	77.4
2850.412	83.4
2853.822	86.4
2857.229	95.4
2860.634	92.4
2864.035	93.4
2867.434	107.4
2870.83	118.4
2874.223	131.4
2877.613	139.4
2881	159.4
2884.385	177.4
2887.766	191.4
2891.145	180.4
2894.521	189.4
2897.894	179.4
2901.264	182.4
2904.631	174.4
2907.996	165.4
2911.358	178.4
2914.717	173.4
2918.073	179.4
2921.426	186.4
2924.777	194.4
2928.124	211.4
2931.469	241.4
2934.811	260.4
2938.15	275.4
2941.487	281.4
2944.821	260.4
2948.152	241.4
2951.48	220.4
2954.805	209.4
2958.128	182.4
2961.447	176.4
2964.765	164.4
2968.079	154.4
2971.39	154.4
2974.699	153.4
2978.005	161.4
2981.308	146.4
2984.609	153.4
2987.907	153.4
2991.202	139.4
2994.494	134.4
2997.784	112.4
3001.07	113.4
3004.355	101.4
3007.636	105.4
3010.915	93.4
3014.191	92.4
3017.464	94.4
3020.734	97.4
3024.002	94.4
3027.267	88.4
3030.53	96.4
3033.789	91.4
3037.046	92.4
3040.301	91.4
3043.552	91.4
3046.801	96.4
3050.048	98.4
3053.291	96.4
3056.532	107.4
3059.771	111.4
3063.006	108.4
3066.239	124.4
3069.469	119.4
3072.697	122.4
3075.922	127.4
3079.144	129.4
3082.364	132.4
3085.581	129.4
3088.795	140.4
3092.007	138.4
3095.216	142.4
3098.423	137.4
3101.627	142.4
3104.828	153.4
3108.026	155.4
3111.222	149.4
3114.416	160.4
3117.607	152.4
3120.795	157.4
3123.98	170.4
3127.163	174.4
3130.344	182.4
3133.521	181.4
3136.696	179.4
3139.869	188.4
3143.039	186.4
3146.206	195.4
3149.371	191.4
3152.533	199.4
3155.693	198.4
3158.85	199.4
3162.005	210.4
3165.157	194.4
3168.306	197.4
3171.453	200.4
3174.597	203.4
3177.739	215.4
3180.878	212.4
3184.014	203.4
3187.149	204.4
3190.28	201.4
3193.409	203.4
3196.536	201.4
3199.659	207.4
3202.781	203.4
3205.9	195.4
3209.016	198.4
3212.13	205.4
3215.241	199.4
3218.35	194.4
3221.456	193.4
3224.56	186.4
3227.661	177.4
3230.76	174.4
3233.856	168.4
3236.95	162.4
3240.041	170.4
3243.13	168.4
3246.216	156.4
3249.3	158.4
3252.382	151.4
3255.46	147.4
3258.537	150.4
3261.611	142.4
3264.682	144.4
3267.751	146.4
3270.818	136.4
3273.882	138.4
3276.943	148.4
3280.002	139.4
3283.059	135.4
3286.113	140.4
3289.165	134.4
3292.214	133.4
3295.261	138.4
3298.306	143.4
3301.348	138.4
3304.387	129.4
3307.425	142.4
3310.459	131.4
3313.492	126.4
3316.521	129.4
3319.549	136.4
3322.574	126.4
3325.597	134.4
3328.617	127.4
3331.635	137.4
3334.65	133.4
3337.663	126.4
3340.674	138.4
3343.682	129.4
3346.688	121.4
3349.691	134.4
3352.692	133.4
3355.691	127.4
3358.687	129.4
3361.681	127.4
3364.673	122.4
3367.662	123.4
3370.649	130.4
3373.633	113.4
3376.615	109.4
3379.595	114.4
3382.572	105.4
3385.547	113.4
3388.52	107.4
3391.49	98.4
3394.458	97.4
3397.424	100.4
3400.387	98.4
3403.348	92.4
3406.307	88.4
3409.263	94.4
3412.217	95.4
3415.168	90.4
3418.118	83.4
3421.065	77.4
3424.009	80.4
3426.951	77.4
3429.891	74.4
3432.829	73.4
3435.764	73.4
3438.697	72.4
3441.628	57.4
3444.557	60.4
3447.483	61.4
3450.407	53.4
3453.328	52.4
3456.247	50.4
3459.164	43.4
3462.079	40.4
3464.991	38.4
3467.902	37.4
3470.809	31.4
3473.715	31.4
3476.618	24.4
3479.519	19.4
3482.418	19.4
3485.315	19.4
3488.209	6.4
3491.101	9.4
3493.99	18.4
3496.878	4.4
3499.763	-0.6
3502.646	6.4
3505.527	-1.6
3508.405	-1.6
3511.281	-3.6
3514.155	-8.6
3517.027	-9.6
3519.897	-9.6
3522.764	-18.6
3525.629	-14.6
3528.492	-20.6
3531.352	-21.6
3534.211	-22.6
3537.067	-27.6
3539.921	-29.6
3542.773	-32.6
3545.622	-25.6
3548.469	-24.6
3551.315	-30.6
3554.157	-28.6
3556.998	-32.6
3559.837	-39.6
3562.673	-33.6
3565.507	-34.6
3568.339	-32.6
3571.169	-40.6
3573.996	-37.6
3576.822	-45.6
3579.645	-45.6
3582.466	-39.6
3585.285	-37.6
3588.101	-43.6
3590.916	-39.6
3593.728	-49.6
3596.538	-54.6
3599.346	-47.6
3602.152	-47.6
3604.956	-44.6
3607.757	-40.6
3610.556	-46.6
3613.354	-51.6
3616.149	-55.6
3618.942	-50.6
3621.732	-52.6
3624.521	-48.6
3627.307	-52.6
3630.092	-58.6
3632.874	-55.6
3635.654	-57.6
3638.432	-52.6
3641.208	-52.6
3643.982	-46.6
3646.753	-55.6
3649.523	-51.6
3652.29	-55.6
3655.055	-55.6
3657.818	-62.6
3660.579	-56.6
3663.338	-55.6
3666.095	-59.6
3668.849	-58.6
3671.602	-59.6
3674.352	-60.6
3677.101	-60.6
3679.847	-56.6
3682.591	-63.6
3685.333	-58.6
3688.073	-61.6
3690.811	-62.6
3693.547	-63.6
3696.281	-63.6
3699.013	-62.6
3701.742	-58.6
3704.47	-60.6
3707.195	-65.6
3709.919	-63.6
3712.64	-64.6
3715.359	-63.6
3718.076	-69.6
3720.792	-62.6
3723.505	-64.6
3726.216	-59.6
3728.925	-67.6
3731.632	-63.6
3734.336	-67.6
3737.039	-61.6
3739.74	-72.6
3742.439	-71.6
3745.136	-66.6
3747.83	-68.6
3750.523	-70.6
3753.213	-81.6
3755.902	-67.6
3758.589	-66.6
3761.273	-66.6
3763.956	-70.6
3766.636	-66.6
3769.315	-66.6
3771.991	-69.6
3774.665	-73.6
3777.338	-63.6
3780.008	-66.6
3782.677	-69.6
3785.343	-67.6
3788.007	-72.6
3790.67	-74.6
3793.33	-67.6
3795.989	-67.6
3798.645	-66.6
3801.299	-67.6
3803.952	-67.6
3806.602	-77.6
3809.251	-75.6
3811.897	-64.6
3814.542	-71.6
3817.184	-68.6
3819.825	-66.6
3822.463	-71.6
3825.1	-66.6
3827.735	-78.6
3830.367	-70.6
3832.998	-70.6
3835.627	-73.6
3838.253	-65.6
3840.878	-66.6
3843.501	-64.6
3846.122	-73.6
3848.741	-71.6
3851.358	-72.6
3853.973	-69.6
3856.586	-68.6
3859.197	-71.6
3861.806	-72.6
3864.414	-75.6
3867.019	-69.6
3869.622	-62.6
3872.224	-63.6
3874.823	-58.6
3877.421	-48.6
3880.016	-51.6
3882.61	-35.6
3885.202	-31.6
3887.792	-31.6
3890.38	-46.6
3892.966	-57.6
3895.55	-64.6
3898.132	-70.6
3900.713	-73.6
3903.291	-76.6
3905.868	-67.6
3908.442	-68.6
3911.015	-63.6
3913.586	-73.6
3916.155	-68.6
3918.722	-75.6
3921.287	-75.6
3923.85	-66.6
3926.411	-72.6
3928.971	-75.6
3931.528	-73.6
3934.084	-71.6
3936.638	-70.6
3939.19	-77.6
3941.74	-66.6
3944.288	-66.6
3946.834	-70.6
3949.378	-69.6
3951.921	-73.6
3954.462	-75.6
3957	-64.6
3959.537	-59.6
3962.072	-66.6
3964.606	-68.6
3967.137	-71.6
3969.667	-74.6
3972.194	-74.6
3974.72	-66.6
3977.244	-68.6
3979.766	-69.6
3982.286	-74.6
3984.805	-75.6
3987.321	-73.6
3989.836	-67.6
3992.349	-69.6
3994.86	-69.6
3997.369	-74.6
3999.877	-68.6
4002.382	-68.6
4004.886	-66.6
4007.388	-70.6
4009.888	-70.6
4012.386	-69.6
4014.883	-68.6
4017.377	-66.6
4019.87	-75.6
4022.361	-70.6
4024.85	-70.6
4027.338	-71.6
4029.823	-72.6
4032.307	-70.6
4034.789	-69.6
4037.269	-71.6
4039.747	-70.6
4042.224	-73.6
4044.699	-73.6
4047.172	-72.6
4049.643	-72.6
4052.112	-69.6
4054.58	-74.6
4057.046	-68.6
4059.51	-74.6
4061.972	-75.6
4064.432	-69.6
4066.891	-67.6
4069.348	-68.6
4071.803	-64.6
4074.256	-68.6
4076.708	-66.6
4079.158	-70.6
4081.606	-67.6
4084.052	-67.6
4086.497	-66.6
4088.939	-70.6
4091.38	-73.6
4093.819	-78.6
4096.257	-72.6
4098.693	-75.6
4101.127	-68.6
4103.559	-74.6
4105.989	11.4
4108.418	6.4
4110.845	-0.6
4113.27	6.4
4115.694	11.4
4118.115	9.4
4120.535	-71.6
4122.954	-65.6
4125.37	-67.6
4127.785	-65.6
4130.198	-63.6
4132.609	-70.6
4135.019	-74.6
4137.427	-75.6
4139.833	-74.6
4142.237	-69.6
