Data from 2018-3-7_conc=5_n=5_RamanShift_01.txt Node
Date: Wed Mar 07 12:37:22 IST 2018
User: aro
Spectrometer: QEPB0276
Trigger mode: 0
Integration Time (sec): 3.000000E1
Scans to average: 1
Electric dark correction enabled: true
Nonlinearity correction enabled: false
Boxcar width: 0
XAxis mode: Raman Shifts
Number of Pixels in Spectrum: 1044
>>>>>Begin Spectral Data<<<<<
160.701	6.2
166.742	21.2
172.777	62.2
178.805	177.2
184.826	467.2
190.841	1016.2
196.849	1712.2
202.85	2256.2
208.845	2455.2
214.833	2456.2
220.815	2420.2
226.789	2424.2
232.758	2408.2
238.719	2389.2
244.674	2393.2
250.623	2358.2
256.565	2317.2
262.5	2301.2
268.429	2274.2
274.351	2249.2
280.267	2228.2
286.176	2217.2
292.079	2203.2
297.975	2206.2
303.865	2182.2
309.748	2169.2
315.625	2163.2
321.495	2154.2
327.359	2175.2
333.217	2184.2
339.068	2162.2
344.912	2197.2
350.751	2190.2
356.583	2189.2
362.408	2180.2
368.227	2186.2
374.04	2197.2
379.847	2217.2
385.647	2212.2
391.44	2199.2
397.228	2205.2
403.009	2219.2
408.784	2226.2
414.553	2250.2
420.315	2247.2
426.071	2248.2
431.821	2261.2
437.565	2255.2
443.302	2249.2
449.033	2241.2
454.758	2226.2
460.477	2217.2
466.189	2217.2
471.896	2184.2
477.596	2196.2
483.29	2157.2
488.978	2158.2
494.66	2151.2
500.335	2127.2
506.005	2074.2
511.668	2018.2
517.325	1986.2
522.977	1917.2
528.622	1898.2
534.261	1856.2
539.894	1852.2
545.521	1825.2
551.141	1806.2
556.756	1783.2
562.365	1799.2
567.968	1773.2
573.565	1769.2
579.155	1757.2
584.74	1745.2
590.319	1745.2
595.892	1753.2
601.459	1730.2
607.02	1736.2
612.575	1699.2
618.124	1716.2
623.667	1697.2
629.204	1680.2
634.735	1662.2
640.261	1638.2
645.781	1637.2
651.294	1658.2
656.802	1650.2
662.304	1630.2
667.8	1629.2
673.29	1629.2
678.775	1623.2
684.254	1632.2
689.726	1603.2
695.193	1601.2
700.655	1585.2
706.11	1568.2
711.56	1574.2
717.004	1559.2
722.442	1528.2
727.874	1540.2
733.301	1530.2
738.722	1538.2
744.137	1530.2
749.547	1526.2
754.951	1518.2
760.349	1526.2
765.741	1517.2
771.128	1525.2
776.509	1540.2
781.885	1558.2
787.254	1539.2
792.618	1556.2
797.977	1531.2
803.33	1535.2
808.677	1544.2
814.019	1514.2
819.355	1487.2
824.686	1491.2
830.011	1485.2
835.33	1476.2
840.644	1486.2
845.952	1472.2
851.255	1476.2
856.552	1478.2
861.844	1469.2
867.13	1455.2
872.41	1447.2
877.686	1422.2
882.955	1434.2
888.219	1409.2
893.478	1403.2
898.731	1391.2
903.979	1356.2
909.221	1364.2
914.458	1353.2
919.69	1356.2
924.916	1337.2
930.136	1360.2
935.351	1355.2
940.561	1360.2
945.766	1350.2
950.965	1359.2
956.158	1337.2
961.347	1314.2
966.529	1307.2
971.707	1285.2
976.879	1274.2
982.046	1268.2
987.208	1266.2
992.364	1262.2
997.515	1267.2
1002.66	1265.2
1007.801	1293.2
1012.936	1288.2
1018.066	1292.2
1023.19	1288.2
1028.309	1286.2
1033.423	1290.2
1038.532	1298.2
1043.636	1252.2
1048.734	1243.2
1053.827	1236.2
1058.915	1231.2
1063.998	1210.2
1069.075	1194.2
1074.147	1203.2
1079.214	1212.2
1084.276	1226.2
1089.333	1225.2
1094.385	1229.2
1099.431	1221.2
1104.472	1228.2
1109.509	1206.2
1114.54	1224.2
1119.565	1184.2
1124.586	1163.2
1129.602	1152.2
1134.613	1159.2
1139.618	1137.2
1144.619	1123.2
1149.614	1164.2
1154.604	1132.2
1159.589	1152.2
1164.57	1160.2
1169.545	1144.2
1174.515	1159.2
1179.48	1155.2
1184.44	1134.2
1189.395	1131.2
1194.345	1111.2
1199.29	1109.2
1204.23	1114.2
1209.165	1113.2
1214.095	1119.2
1219.021	1135.2
1223.941	1138.2
1228.856	1138.2
1233.766	1145.2
1238.672	1149.2
1243.572	1146.2
1248.467	1151.2
1253.358	1121.2
1258.244	1103.2
1263.124	1076.2
1268	1050.2
1272.871	1043.2
1277.737	1052.2
1282.599	1052.2
1287.455	1040.2
1292.306	1049.2
1297.153	1059.2
1301.995	1053.2
1306.832	1082.2
1311.664	1069.2
1316.491	1079.2
1321.314	1070.2
1326.132	1056.2
1330.945	1041.2
1335.753	1032.2
1340.556	1003.2
1345.354	990.2
1350.148	969.2
1354.937	950.2
1359.722	919.2
1364.501	903.2
1369.276	887.2
1374.046	866.2
1378.811	855.2
1383.572	851.2
1388.327	859.2
1393.079	848.2
1397.825	863.2
1402.567	854.2
1407.304	873.2
1412.036	891.2
1416.764	876.2
1421.487	874.2
1426.205	871.2
1430.919	865.2
1435.628	888.2
1440.333	898.2
1445.032	898.2
1449.727	916.2
1454.418	918.2
1459.104	888.2
1463.785	883.2
1468.462	873.2
1473.134	856.2
1477.802	819.2
1482.465	792.2
1487.123	793.2
1491.777	781.2
1496.426	754.2
1501.071	757.2
1505.711	740.2
1510.347	743.2
1514.978	727.2
1519.604	717.2
1524.226	725.2
1528.844	708.2
1533.457	704.2
1538.065	710.2
1542.669	708.2
1547.269	712.2
1551.864	719.2
1556.454	725.2
1561.041	736.2
1565.622	754.2
1570.199	749.2
1574.772	757.2
1579.34	769.2
1583.904	771.2
1588.464	792.2
1593.019	791.2
1597.569	780.2
1602.115	795.2
1606.657	793.2
1611.195	792.2
1615.728	791.2
1620.256	783.2
1624.78	794.2
1629.3	788.2
1633.816	796.2
1638.327	797.2
1642.834	793.2
1647.336	800.2
1651.834	791.2
1656.328	790.2
1660.817	781.2
1665.302	770.2
1669.783	755.2
1674.259	737.2
1678.732	715.2
1683.199	691.2
1687.663	668.2
1692.122	634.2
1696.577	603.2
1701.028	563.2
1705.474	530.2
1709.917	527.2
1714.355	517.2
1718.788	507.2
1723.218	514.2
1727.643	514.2
1732.064	517.2
1736.481	521.2
1740.893	496.2
1745.301	501.2
1749.705	485.2
1754.105	469.2
1758.501	464.2
1762.893	458.2
1767.28	447.2
1771.663	437.2
1776.042	425.2
1780.417	421.2
1784.787	414.2
1789.154	408.2
1793.516	384.2
1797.874	389.2
1802.228	386.2
1806.578	369.2
1810.924	365.2
1815.266	380.2
1819.603	373.2
1823.937	378.2
1828.266	377.2
1832.591	388.2
1836.913	388.2
1841.23	391.2
1845.543	384.2
1849.852	395.2
1854.156	389.2
1858.457	383.2
1862.754	399.2
1867.047	384.2
1871.335	381.2
1875.62	391.2
1879.9	389.2
1884.177	370.2
1888.449	381.2
1892.718	375.2
1896.982	364.2
1901.243	363.2
1905.499	343.2
1909.752	335.2
1914	343.2
1918.245	333.2
1922.485	317.2
1926.722	316.2
1930.954	315.2
1935.183	307.2
1939.408	310.2
1943.628	299.2
1947.845	297.2
1952.058	298.2
1956.267	289.2
1960.472	292.2
1964.673	278.2
1968.87	290.2
1973.063	285.2
1977.252	289.2
1981.438	292.2
1985.619	291.2
1989.797	295.2
1993.971	295.2
1998.14	298.2
2002.306	303.2
2006.469	303.2
2010.627	299.2
2014.781	298.2
2018.932	288.2
2023.078	298.2
2027.221	296.2
2031.36	295.2
2035.495	289.2
2039.627	284.2
2043.754	284.2
2047.878	279.2
2051.998	277.2
2056.114	273.2
2060.226	266.2
2064.334	272.2
2068.439	260.2
2072.54	261.2
2076.637	272.2
2080.73	268.2
2084.82	266.2
2088.906	258.2
2092.988	253.2
2097.066	248.2
2101.14	248.2
2105.211	243.2
2109.278	240.2
2113.342	228.2
2117.401	232.2
2121.457	232.2
2125.509	221.2
2129.558	222.2
2133.602	227.2
2137.643	226.2
2141.681	226.2
2145.714	233.2
2149.744	231.2
2153.77	235.2
2157.793	234.2
2161.812	237.2
2165.827	229.2
2169.838	228.2
2173.846	228.2
2177.851	225.2
2181.851	225.2
2185.848	223.2
2189.841	214.2
2193.831	215.2
2197.817	214.2
2201.799	220.2
2205.778	212.2
2209.753	213.2
2213.725	212.2
2217.693	210.2
2221.657	206.2
2225.618	214.2
2229.575	206.2
2233.529	206.2
2237.479	206.2
2241.425	202.2
2245.368	201.2
2249.307	200.2
2253.243	201.2
2257.175	196.2
2261.104	186.2
2265.029	184.2
2268.95	192.2
2272.868	189.2
2276.783	177.2
2280.694	174.2
2284.601	170.2
2288.505	176.2
2292.405	176.2
2296.302	180.2
2300.195	165.2
2304.085	171.2
2307.971	169.2
2311.854	157.2
2315.734	154.2
2319.609	168.2
2323.482	163.2
2327.351	160.2
2331.216	172.2
2335.078	180.2
2338.937	175.2
2342.792	159.2
2346.643	161.2
2350.492	167.2
2354.336	164.2
2358.178	152.2
2362.015	168.2
2365.85	164.2
2369.681	168.2
2373.508	172.2
2377.333	163.2
2381.153	162.2
2384.971	161.2
2388.785	160.2
2392.595	173.2
2396.402	159.2
2400.206	172.2
2404.007	163.2
2407.804	164.2
2411.597	165.2
2415.388	158.2
2419.174	168.2
2422.958	161.2
2426.738	159.2
2430.515	157.2
2434.289	151.2
2438.059	151.2
2441.825	152.2
2445.589	149.2
2449.349	142.2
2453.106	142.2
2456.859	139.2
2460.61	142.2
2464.356	140.2
2468.1	138.2
2471.84	138.2
2475.577	140.2
2479.311	127.2
2483.041	135.2
2486.768	126.2
2490.492	134.2
2494.213	123.2
2497.93	132.2
2501.644	132.2
2505.355	126.2
2509.062	124.2
2512.766	127.2
2516.467	119.2
2520.165	123.2
2523.859	115.2
2527.551	113.2
2531.239	111.2
2534.923	112.2
2538.605	105.2
2542.283	100.2
2545.958	106.2
2549.63	107.2
2553.299	108.2
2556.964	101.2
2560.626	98.2
2564.285	101.2
2567.941	98.2
2571.594	88.2
2575.243	103.2
2578.89	94.2
2582.533	96.2
2586.173	96.2
2589.809	97.2
2593.443	95.2
2597.073	86.2
2600.701	92.2
2604.325	78.2
2607.946	82.2
2611.564	87.2
2615.178	92.2
2618.79	89.2
2622.398	81.2
2626.004	80.2
2629.606	80.2
2633.205	76.2
2636.801	79.2
2640.394	82.2
2643.983	78.2
2647.57	78.2
2651.153	71.2
2654.734	80.2
2658.311	77.2
2661.885	86.2
2665.456	78.2
2669.025	71.2
2672.589	77.2
2676.151	75.2
2679.71	64.2
2683.266	72.2
2686.819	76.2
2690.368	67.2
2693.915	70.2
2697.458	62.2
2700.999	68.2
2704.536	66.2
2708.071	67.2
2711.602	59.2
2715.13	51.2
2718.656	53.2
2722.178	59.2
2725.697	57.2
2729.214	53.2
2732.727	58.2
2736.237	57.2
2739.744	49.2
2743.249	51.2
2746.75	47.2
2750.248	46.2
2753.743	44.2
2757.236	38.2
2760.725	39.2
2764.211	30.2
2767.695	33.2
2771.175	31.2
2774.652	31.2
2778.127	43.2
2781.598	36.2
2785.067	31.2
2788.532	32.2
2791.995	35.2
2795.455	34.2
2798.911	35.2
2802.365	41.2
2805.816	40.2
2809.264	43.2
2812.709	41.2
2816.151	40.2
2819.59	54.2
2823.026	43.2
2826.46	44.2
2829.89	40.2
2833.318	39.2
2836.742	45.2
2840.164	43.2
2843.583	37.2
2846.999	42.2
2850.412	38.2
2853.822	41.2
2857.229	45.2
2860.634	45.2
2864.035	41.2
2867.434	47.2
2870.83	52.2
2874.223	49.2
2877.613	53.2
2881	58.2
2884.385	56.2
2887.766	63.2
2891.145	55.2
2894.521	56.2
2897.894	60.2
2901.264	61.2
2904.631	56.2
2907.996	59.2
2911.358	63.2
2914.717	59.2
2918.073	60.2
2921.426	66.2
2924.777	66.2
2928.124	64.2
2931.469	78.2
2934.811	84.2
2938.15	78.2
2941.487	91.2
2944.821	77.2
2948.152	83.2
2951.48	83.2
2954.805	87.2
2958.128	75.2
2961.447	77.2
2964.765	71.2
2968.079	74.2
2971.39	72.2
2974.699	76.2
2978.005	78.2
2981.308	70.2
2984.609	64.2
2987.907	78.2
2991.202	76.2
2994.494	73.2
2997.784	66.2
3001.07	69.2
3004.355	73.2
3007.636	72.2
3010.915	76.2
3014.191	147.2
3017.464	166.2
3020.734	87.2
3024.002	85.2
3027.267	86.2
3030.53	91.2
3033.789	89.2
3037.046	93.2
3040.301	95.2
3043.552	104.2
3046.801	111.2
3050.048	108.2
3053.291	112.2
3056.532	111.2
3059.771	124.2
3063.006	126.2
3066.239	130.2
3069.469	141.2
3072.697	140.2
3075.922	143.2
3079.144	137.2
3082.364	153.2
3085.581	149.2
3088.795	163.2
3092.007	163.2
3095.216	166.2
3098.423	162.2
3101.627	164.2
3104.828	180.2
3108.026	175.2
3111.222	179.2
3114.416	188.2
3117.607	195.2
3120.795	193.2
3123.98	201.2
3127.163	209.2
3130.344	205.2
3133.521	210.2
3136.696	211.2
3139.869	215.2
3143.039	223.2
3146.206	233.2
3149.371	231.2
3152.533	237.2
3155.693	239.2
3158.85	242.2
3162.005	234.2
3165.157	243.2
3168.306	240.2
3171.453	246.2
3174.597	246.2
3177.739	240.2
3180.878	249.2
3184.014	246.2
3187.149	244.2
3190.28	254.2
3193.409	251.2
3196.536	247.2
3199.659	258.2
3202.781	253.2
3205.9	244.2
3209.016	245.2
3212.13	247.2
3215.241	244.2
3218.35	246.2
3221.456	237.2
3224.56	231.2
3227.661	234.2
3230.76	230.2
3233.856	226.2
3236.95	225.2
3240.041	213.2
3243.13	215.2
3246.216	212.2
3249.3	200.2
3252.382	209.2
3255.46	206.2
3258.537	204.2
3261.611	196.2
3264.682	193.2
3267.751	191.2
3270.818	189.2
3273.882	190.2
3276.943	180.2
3280.002	183.2
3283.059	178.2
3286.113	180.2
3289.165	185.2
3292.214	180.2
3295.261	180.2
3298.306	182.2
3301.348	178.2
3304.387	178.2
3307.425	174.2
3310.459	174.2
3313.492	171.2
3316.521	164.2
3319.549	178.2
3322.574	170.2
3325.597	170.2
3328.617	172.2
3331.635	180.2
3334.65	173.2
3337.663	160.2
3340.674	164.2
3343.682	176.2
3346.688	162.2
3349.691	174.2
3352.692	168.2
3355.691	173.2
3358.687	170.2
3361.681	171.2
3364.673	166.2
3367.662	163.2
3370.649	160.2
3373.633	161.2
3376.615	155.2
3379.595	145.2
3382.572	149.2
3385.547	146.2
3388.52	149.2
3391.49	140.2
3394.458	131.2
3397.424	142.2
3400.387	140.2
3403.348	124.2
3406.307	128.2
3409.263	135.2
3412.217	127.2
3415.168	131.2
3418.118	132.2
3421.065	120.2
3424.009	114.2
3426.951	110.2
3429.891	121.2
3432.829	102.2
3435.764	113.2
3438.697	103.2
3441.628	89.2
3444.557	95.2
3447.483	93.2
3450.407	80.2
3453.328	86.2
3456.247	80.2
3459.164	75.2
3462.079	66.2
3464.991	70.2
3467.902	63.2
3470.809	69.2
3473.715	55.2
3476.618	57.2
3479.519	42.2
3482.418	47.2
3485.315	48.2
3488.209	37.2
3491.101	38.2
3493.99	41.2
3496.878	32.2
3499.763	29.2
3502.646	26.2
3505.527	30.2
3508.405	23.2
3511.281	16.2
3514.155	15.2
3517.027	12.2
3519.897	15.2
3522.764	9.2
3525.629	10.2
3528.492	0.2
3531.352	-2.8
3534.211	-6.8
3537.067	-3.8
3539.921	0.2
3542.773	-11.8
3545.622	-8.8
3548.469	-9.8
3551.315	-10.8
3554.157	-15.8
3556.998	-9.8
3559.837	-21.8
3562.673	-17.8
3565.507	-24.8
3568.339	-10.8
3571.169	-23.8
3573.996	-20.8
3576.822	-29.8
3579.645	-31.8
3582.466	-27.8
3585.285	-26.8
3588.101	-29.8
3590.916	-27.8
3593.728	-28.8
3596.538	-37.8
3599.346	-31.8
3602.152	-31.8
3604.956	-29.8
3607.757	-34.8
3610.556	-31.8
3613.354	-44.8
3616.149	-43.8
3618.942	-37.8
3621.732	-42.8
3624.521	-37.8
3627.307	-39.8
3630.092	-43.8
3632.874	-45.8
3635.654	-40.8
3638.432	-43.8
3641.208	-43.8
3643.982	-39.8
3646.753	-47.8
3649.523	-45.8
3652.29	-47.8
3655.055	-44.8
3657.818	-50.8
3660.579	-47.8
3663.338	-45.8
3666.095	-48.8
3668.849	-50.8
3671.602	-52.8
3674.352	-44.8
3677.101	-53.8
3679.847	-45.8
3682.591	-57.8
3685.333	-53.8
3688.073	-60.8
3690.811	-50.8
3693.547	-55.8
3696.281	-50.8
3699.013	-54.8
3701.742	-55.8
3704.47	-51.8
3707.195	-51.8
3709.919	-56.8
3712.64	-52.8
3715.359	-56.8
3718.076	-59.8
3720.792	-55.8
3723.505	-56.8
3726.216	-51.8
3728.925	-62.8
3731.632	-57.8
3734.336	-60.8
3737.039	-57.8
3739.74	-63.8
3742.439	-64.8
3745.136	-61.8
3747.83	-63.8
3750.523	-61.8
3753.213	-59.8
3755.902	-60.8
3758.589	-59.8
3761.273	-61.8
3763.956	-62.8
3766.636	-50.8
3769.315	-52.8
3771.991	-60.8
3774.665	-65.8
3777.338	-61.8
3780.008	-59.8
3782.677	-66.8
3785.343	-58.8
3788.007	-64.8
3790.67	-63.8
3793.33	-60.8
3795.989	-62.8
3798.645	-66.8
3801.299	-60.8
3803.952	-64.8
3806.602	-64.8
3809.251	-65.8
3811.897	-67.8
3814.542	-68.8
3817.184	-64.8
3819.825	-56.8
3822.463	-54.8
3825.1	-60.8
3827.735	-65.8
3830.367	-60.8
3832.998	-59.8
3835.627	-63.8
3838.253	-59.8
3840.878	-57.8
3843.501	-55.8
3846.122	-67.8
3848.741	-62.8
3851.358	-59.8
3853.973	-57.8
3856.586	-58.8
3859.197	-60.8
3861.806	-65.8
3864.414	-63.8
3867.019	-68.8
3869.622	-60.8
3872.224	-51.8
3874.823	-47.8
3877.421	-36.8
3880.016	-23.8
3882.61	-2.8
3885.202	-0.8
3887.792	-9.8
3890.38	-31.8
3892.966	-47.8
3895.55	-56.8
3898.132	-56.8
3900.713	-62.8
3903.291	-65.8
3905.868	-57.8
3908.442	-63.8
3911.015	-65.8
3913.586	-69.8
3916.155	-65.8
3918.722	-65.8
3921.287	-70.8
3923.85	-65.8
3926.411	-63.8
3928.971	-72.8
3931.528	-66.8
3934.084	-61.8
3936.638	-58.8
3939.19	-65.8
3941.74	-58.8
3944.288	-67.8
3946.834	-62.8
3949.378	-62.8
3951.921	-69.8
3954.462	-63.8
3957	-56.8
3959.537	-56.8
3962.072	-60.8
3964.606	-63.8
3967.137	-60.8
3969.667	-67.8
3972.194	-62.8
3974.72	-60.8
3977.244	-59.8
3979.766	-65.8
3982.286	-59.8
3984.805	-71.8
3987.321	-60.8
3989.836	-57.8
3992.349	-62.8
3994.86	-61.8
3997.369	-62.8
3999.877	-64.8
4002.382	-62.8
4004.886	-62.8
4007.388	-60.8
4009.888	-58.8
4012.386	-63.8
4014.883	-60.8
4017.377	-59.8
4019.87	-59.8
4022.361	-68.8
4024.85	-62.8
4027.338	-63.8
4029.823	-63.8
4032.307	-64.8
4034.789	-60.8
4037.269	-67.8
4039.747	-67.8
4042.224	-64.8
4044.699	-67.8
4047.172	-69.8
4049.643	-64.8
4052.112	-68.8
4054.58	-61.8
4057.046	-60.8
4059.51	-66.8
4061.972	-65.8
4064.432	-61.8
4066.891	-59.8
4069.348	-56.8
4071.803	-57.8
4074.256	-62.8
4076.708	-65.8
4079.158	-61.8
4081.606	-64.8
4084.052	-63.8
4086.497	-56.8
4088.939	-59.8
4091.38	-69.8
4093.819	-69.8
4096.257	-65.8
4098.693	-67.8
4101.127	-60.8
4103.559	-68.8
4105.989	1.2
4108.418	-2.8
4110.845	-6.8
4113.27	-2.8
4115.694	4.2
4118.115	6.2
4120.535	-62.8
4122.954	-60.8
4125.37	-62.8
4127.785	-60.8
4130.198	-59.8
4132.609	-65.8
4135.019	-65.8
4137.427	-67.8
4139.833	-65.8
4142.237	-67.8
