Data from 2018-3-7_conc=2_n=3_RamanShift_01.txt Node
Date: Wed Mar 07 10:45:22 IST 2018
User: aro
Spectrometer: QEPB0276
Trigger mode: 0
Integration Time (sec): 3.000000E1
Scans to average: 1
Electric dark correction enabled: true
Nonlinearity correction enabled: false
Boxcar width: 0
XAxis mode: Raman Shifts
Number of Pixels in Spectrum: 1044
>>>>>Begin Spectral Data<<<<<
160.701	16.6
166.742	22.6
172.777	54.6
178.805	162.6
184.826	418.6
190.841	883.6
196.849	1466.6
202.85	1895.6
208.845	2074.6
214.833	2077.6
220.815	2061.6
226.789	2058.6
232.758	2067.6
238.719	2086.6
244.674	2082.6
250.623	2071.6
256.565	2047.6
262.5	2020.6
268.429	2009.6
274.351	2013.6
280.267	1973.6
286.176	2001.6
292.079	1991.6
297.975	1989.6
303.865	1990.6
309.748	1991.6
315.625	1981.6
321.495	1976.6
327.359	1997.6
333.217	2021.6
339.068	2007.6
344.912	2008.6
350.751	2020.6
356.583	2027.6
362.408	2030.6
368.227	2019.6
374.04	2055.6
379.847	2072.6
385.647	2073.6
391.44	2082.6
397.228	2096.6
403.009	2096.6
408.784	2098.6
414.553	2112.6
420.315	2119.6
426.071	2127.6
431.821	2107.6
437.565	2130.6
443.302	2118.6
449.033	2130.6
454.758	2100.6
460.477	2097.6
466.189	2066.6
471.896	2053.6
477.596	2035.6
483.29	2024.6
488.978	2029.6
494.66	2018.6
500.335	1972.6
506.005	1909.6
511.668	1814.6
517.325	1756.6
522.977	1680.6
528.622	1622.6
534.261	1580.6
539.894	1548.6
545.521	1539.6
551.141	1516.6
556.756	1500.6
562.365	1494.6
567.968	1479.6
573.565	1465.6
579.155	1464.6
584.74	1457.6
590.319	1456.6
595.892	1436.6
601.459	1437.6
607.02	1435.6
612.575	1412.6
618.124	1421.6
623.667	1386.6
629.204	1369.6
634.735	1370.6
640.261	1358.6
645.781	1341.6
651.294	1337.6
656.802	1322.6
662.304	1314.6
667.8	1320.6
673.29	1310.6
678.775	1321.6
684.254	1306.6
689.726	1304.6
695.193	1295.6
700.655	1283.6
706.11	1277.6
711.56	1272.6
717.004	1256.6
722.442	1249.6
727.874	1253.6
733.301	1246.6
738.722	1223.6
744.137	1226.6
749.547	1230.6
754.951	1230.6
760.349	1232.6
765.741	1245.6
771.128	1235.6
776.509	1258.6
781.885	1274.6
787.254	1291.6
792.618	1286.6
797.977	1286.6
803.33	1270.6
808.677	1269.6
814.019	1267.6
819.355	1249.6
824.686	1230.6
830.011	1219.6
835.33	1211.6
840.644	1206.6
845.952	1201.6
851.255	1197.6
856.552	1200.6
861.844	1174.6
867.13	1168.6
872.41	1170.6
877.686	1157.6
882.955	1161.6
888.219	1155.6
893.478	1129.6
898.731	1099.6
903.979	1085.6
909.221	1085.6
914.458	1069.6
919.69	1073.6
924.916	1063.6
930.136	1075.6
935.351	1076.6
940.561	1078.6
945.766	1059.6
950.965	1078.6
956.158	1067.6
961.347	1045.6
966.529	1027.6
971.707	1006.6
976.879	993.6
982.046	1005.6
987.208	997.6
992.364	976.6
997.515	999.6
1002.66	1001.6
1007.801	1007.6
1012.936	1022.6
1018.066	1032.6
1023.19	1036.6
1028.309	1017.6
1033.423	1020.6
1038.532	1024.6
1043.636	1026.6
1048.734	1010.6
1053.827	1009.6
1058.915	988.6
1063.998	988.6
1069.075	981.6
1074.147	971.6
1079.214	979.6
1084.276	972.6
1089.333	986.6
1094.385	996.6
1099.431	987.6
1104.472	989.6
1109.509	969.6
1114.54	949.6
1119.565	945.6
1124.586	936.6
1129.602	911.6
1134.613	919.6
1139.618	886.6
1144.619	902.6
1149.614	913.6
1154.604	902.6
1159.589	912.6
1164.57	924.6
1169.545	903.6
1174.515	912.6
1179.48	903.6
1184.44	901.6
1189.395	891.6
1194.345	883.6
1199.29	867.6
1204.23	869.6
1209.165	867.6
1214.095	899.6
1219.021	892.6
1223.941	890.6
1228.856	894.6
1233.766	913.6
1238.672	903.6
1243.572	897.6
1248.467	897.6
1253.358	890.6
1258.244	863.6
1263.124	843.6
1268	830.6
1272.871	835.6
1277.737	807.6
1282.599	813.6
1287.455	815.6
1292.306	803.6
1297.153	822.6
1301.995	818.6
1306.832	826.6
1311.664	834.6
1316.491	848.6
1321.314	818.6
1326.132	818.6
1330.945	800.6
1335.753	791.6
1340.556	773.6
1345.354	758.6
1350.148	742.6
1354.937	722.6
1359.722	718.6
1364.501	691.6
1369.276	696.6
1374.046	672.6
1378.811	664.6
1383.572	661.6
1388.327	660.6
1393.079	667.6
1397.825	671.6
1402.567	681.6
1407.304	669.6
1412.036	677.6
1416.764	679.6
1421.487	700.6
1426.205	693.6
1430.919	690.6
1435.628	691.6
1440.333	695.6
1445.032	688.6
1449.727	713.6
1454.418	707.6
1459.104	709.6
1463.785	689.6
1468.462	668.6
1473.134	652.6
1477.802	637.6
1482.465	618.6
1487.123	610.6
1491.777	592.6
1496.426	578.6
1501.071	580.6
1505.711	573.6
1510.347	559.6
1514.978	553.6
1519.604	565.6
1524.226	555.6
1528.844	557.6
1533.457	558.6
1538.065	546.6
1542.669	554.6
1547.269	552.6
1551.864	561.6
1556.454	571.6
1561.041	596.6
1565.622	595.6
1570.199	593.6
1574.772	591.6
1579.34	600.6
1583.904	608.6
1588.464	607.6
1593.019	619.6
1597.569	600.6
1602.115	614.6
1606.657	624.6
1611.195	601.6
1615.728	614.6
1620.256	596.6
1624.78	611.6
1629.3	617.6
1633.816	593.6
1638.327	611.6
1642.834	605.6
1647.336	593.6
1651.834	601.6
1656.328	589.6
1660.817	586.6
1665.302	579.6
1669.783	571.6
1674.259	548.6
1678.732	544.6
1683.199	522.6
1687.663	507.6
1692.122	487.6
1696.577	458.6
1701.028	441.6
1705.474	408.6
1709.917	405.6
1714.355	400.6
1718.788	397.6
1723.218	400.6
1727.643	394.6
1732.064	401.6
1736.481	401.6
1740.893	394.6
1745.301	389.6
1749.705	368.6
1754.105	360.6
1758.501	343.6
1762.893	349.6
1767.28	341.6
1771.663	332.6
1776.042	331.6
1780.417	323.6
1784.787	315.6
1789.154	313.6
1793.516	300.6
1797.874	295.6
1802.228	287.6
1806.578	291.6
1810.924	286.6
1815.266	284.6
1819.603	294.6
1823.937	297.6
1828.266	291.6
1832.591	299.6
1836.913	292.6
1841.23	306.6
1845.543	301.6
1849.852	307.6
1854.156	301.6
1858.457	296.6
1862.754	301.6
1867.047	297.6
1871.335	297.6
1875.62	296.6
1879.9	303.6
1884.177	286.6
1888.449	289.6
1892.718	282.6
1896.982	270.6
1901.243	262.6
1905.499	257.6
1909.752	262.6
1914	249.6
1918.245	244.6
1922.485	239.6
1926.722	233.6
1930.954	242.6
1935.183	229.6
1939.408	231.6
1943.628	235.6
1947.845	227.6
1952.058	223.6
1956.267	221.6
1960.472	231.6
1964.673	214.6
1968.87	221.6
1973.063	214.6
1977.252	226.6
1981.438	221.6
1985.619	218.6
1989.797	224.6
1993.971	227.6
1998.14	229.6
2002.306	229.6
2006.469	235.6
2010.627	227.6
2014.781	227.6
2018.932	223.6
2023.078	227.6
2027.221	225.6
2031.36	222.6
2035.495	218.6
2039.627	212.6
2043.754	210.6
2047.878	208.6
2051.998	211.6
2056.114	204.6
2060.226	199.6
2064.334	195.6
2068.439	198.6
2072.54	199.6
2076.637	200.6
2080.73	193.6
2084.82	200.6
2088.906	186.6
2092.988	188.6
2097.066	192.6
2101.14	191.6
2105.211	179.6
2109.278	177.6
2113.342	168.6
2117.401	172.6
2121.457	173.6
2125.509	171.6
2129.558	181.6
2133.602	171.6
2137.643	176.6
2141.681	174.6
2145.714	180.6
2149.744	172.6
2153.77	170.6
2157.793	171.6
2161.812	188.6
2165.827	178.6
2169.838	169.6
2173.846	167.6
2177.851	171.6
2181.851	167.6
2185.848	161.6
2189.841	156.6
2193.831	156.6
2197.817	159.6
2201.799	152.6
2205.778	156.6
2209.753	160.6
2213.725	162.6
2217.693	167.6
2221.657	156.6
2225.618	156.6
2229.575	156.6
2233.529	155.6
2237.479	149.6
2241.425	147.6
2245.368	150.6
2249.307	147.6
2253.243	141.6
2257.175	150.6
2261.104	132.6
2265.029	143.6
2268.95	139.6
2272.868	135.6
2276.783	131.6
2280.694	126.6
2284.601	126.6
2288.505	126.6
2292.405	126.6
2296.302	129.6
2300.195	123.6
2304.085	128.6
2307.971	121.6
2311.854	118.6
2315.734	116.6
2319.609	124.6
2323.482	114.6
2327.351	123.6
2331.216	130.6
2335.078	143.6
2338.937	131.6
2342.792	122.6
2346.643	122.6
2350.492	119.6
2354.336	115.6
2358.178	110.6
2362.015	117.6
2365.85	111.6
2369.681	125.6
2373.508	117.6
2377.333	120.6
2381.153	111.6
2384.971	120.6
2388.785	118.6
2392.595	119.6
2396.402	115.6
2400.206	114.6
2404.007	113.6
2407.804	123.6
2411.597	111.6
2415.388	111.6
2419.174	112.6
2422.958	104.6
2426.738	109.6
2430.515	106.6
2434.289	107.6
2438.059	107.6
2441.825	109.6
2445.589	102.6
2449.349	109.6
2453.106	106.6
2456.859	87.6
2460.61	97.6
2464.356	93.6
2468.1	105.6
2471.84	89.6
2475.577	90.6
2479.311	94.6
2483.041	96.6
2486.768	86.6
2490.492	94.6
2494.213	87.6
2497.93	87.6
2501.644	87.6
2505.355	75.6
2509.062	86.6
2512.766	84.6
2516.467	77.6
2520.165	83.6
2523.859	85.6
2527.551	76.6
2531.239	79.6
2534.923	73.6
2538.605	68.6
2542.283	67.6
2545.958	73.6
2549.63	73.6
2553.299	69.6
2556.964	58.6
2560.626	69.6
2564.285	69.6
2567.941	62.6
2571.594	65.6
2575.243	63.6
2578.89	61.6
2582.533	54.6
2586.173	56.6
2589.809	64.6
2593.443	64.6
2597.073	64.6
2600.701	61.6
2604.325	53.6
2607.946	42.6
2611.564	58.6
2615.178	46.6
2618.79	52.6
2622.398	55.6
2626.004	52.6
2629.606	48.6
2633.205	52.6
2636.801	57.6
2640.394	54.6
2643.983	51.6
2647.57	48.6
2651.153	46.6
2654.734	49.6
2658.311	44.6
2661.885	48.6
2665.456	40.6
2669.025	50.6
2672.589	44.6
2676.151	42.6
2679.71	47.6
2683.266	45.6
2686.819	49.6
2690.368	44.6
2693.915	42.6
2697.458	34.6
2700.999	41.6
2704.536	38.6
2708.071	46.6
2711.602	26.6
2715.13	30.6
2718.656	34.6
2722.178	35.6
2725.697	32.6
2729.214	28.6
2732.727	31.6
2736.237	32.6
2739.744	26.6
2743.249	17.6
2746.75	21.6
2750.248	24.6
2753.743	21.6
2757.236	20.6
2760.725	23.6
2764.211	22.6
2767.695	22.6
2771.175	16.6
2774.652	18.6
2778.127	19.6
2781.598	13.6
2785.067	21.6
2788.532	17.6
2791.995	21.6
2795.455	18.6
2798.911	17.6
2802.365	21.6
2805.816	22.6
2809.264	13.6
2812.709	18.6
2816.151	20.6
2819.59	25.6
2823.026	14.6
2826.46	24.6
2829.89	21.6
2833.318	19.6
2836.742	26.6
2840.164	15.6
2843.583	20.6
2846.999	24.6
2850.412	26.6
2853.822	26.6
2857.229	22.6
2860.634	24.6
2864.035	24.6
2867.434	24.6
2870.83	29.6
2874.223	32.6
2877.613	29.6
2881	38.6
2884.385	38.6
2887.766	42.6
2891.145	38.6
2894.521	37.6
2897.894	34.6
2901.264	33.6
2904.631	22.6
2907.996	38.6
2911.358	47.6
2914.717	35.6
2918.073	37.6
2921.426	39.6
2924.777	48.6
2928.124	50.6
2931.469	51.6
2934.811	55.6
2938.15	60.6
2941.487	61.6
2944.821	56.6
2948.152	61.6
2951.48	46.6
2954.805	50.6
2958.128	48.6
2961.447	47.6
2964.765	47.6
2968.079	47.6
2971.39	50.6
2974.699	44.6
2978.005	45.6
2981.308	43.6
2984.609	41.6
2987.907	45.6
2991.202	51.6
2994.494	43.6
2997.784	44.6
3001.07	42.6
3004.355	45.6
3007.636	54.6
3010.915	50.6
3014.191	46.6
3017.464	47.6
3020.734	55.6
3024.002	54.6
3027.267	54.6
3030.53	59.6
3033.789	55.6
3037.046	50.6
3040.301	62.6
3043.552	64.6
3046.801	64.6
3050.048	72.6
3053.291	68.6
3056.532	79.6
3059.771	77.6
3063.006	71.6
3066.239	85.6
3069.469	91.6
3072.697	89.6
3075.922	99.6
3079.144	95.6
3082.364	92.6
3085.581	101.6
3088.795	111.6
3092.007	105.6
3095.216	111.6
3098.423	107.6
3101.627	104.6
3104.828	118.6
3108.026	115.6
3111.222	116.6
3114.416	124.6
3117.607	128.6
3120.795	134.6
3123.98	123.6
3127.163	146.6
3130.344	142.6
3133.521	139.6
3136.696	144.6
3139.869	152.6
3143.039	148.6
3146.206	155.6
3149.371	150.6
3152.533	158.6
3155.693	169.6
3158.85	164.6
3162.005	171.6
3165.157	167.6
3168.306	157.6
3171.453	154.6
3174.597	160.6
3177.739	164.6
3180.878	174.6
3184.014	155.6
3187.149	167.6
3190.28	165.6
3193.409	168.6
3196.536	166.6
3199.659	168.6
3202.781	166.6
3205.9	157.6
3209.016	161.6
3212.13	167.6
3215.241	157.6
3218.35	156.6
3221.456	157.6
3224.56	154.6
3227.661	159.6
3230.76	146.6
3233.856	150.6
3236.95	141.6
3240.041	141.6
3243.13	143.6
3246.216	127.6
3249.3	130.6
3252.382	132.6
3255.46	132.6
3258.537	125.6
3261.611	119.6
3264.682	127.6
3267.751	128.6
3270.818	116.6
3273.882	121.6
3276.943	123.6
3280.002	120.6
3283.059	126.6
3286.113	107.6
3289.165	105.6
3292.214	111.6
3295.261	115.6
3298.306	121.6
3301.348	119.6
3304.387	112.6
3307.425	110.6
3310.459	106.6
3313.492	104.6
3316.521	105.6
3319.549	114.6
3322.574	105.6
3325.597	106.6
3328.617	109.6
3331.635	115.6
3334.65	117.6
3337.663	100.6
3340.674	104.6
3343.682	108.6
3346.688	97.6
3349.691	106.6
3352.692	102.6
3355.691	108.6
3358.687	101.6
3361.681	106.6
3364.673	100.6
3367.662	101.6
3370.649	112.6
3373.633	93.6
3376.615	100.6
3379.595	90.6
3382.572	84.6
3385.547	87.6
3388.52	87.6
3391.49	80.6
3394.458	78.6
3397.424	83.6
3400.387	80.6
3403.348	76.6
3406.307	74.6
3409.263	75.6
3412.217	73.6
3415.168	78.6
3418.118	71.6
3421.065	67.6
3424.009	65.6
3426.951	63.6
3429.891	63.6
3432.829	56.6
3435.764	63.6
3438.697	59.6
3441.628	50.6
3444.557	54.6
3447.483	43.6
3450.407	34.6
3453.328	42.6
3456.247	42.6
3459.164	41.6
3462.079	32.6
3464.991	32.6
3467.902	30.6
3470.809	31.6
3473.715	24.6
3476.618	20.6
3479.519	19.6
3482.418	17.6
3485.315	17.6
3488.209	8.6
3491.101	7.6
3493.99	10.6
3496.878	2.6
3499.763	10.6
3502.646	9.6
3505.527	4.6
3508.405	-4.4
3511.281	1.6
3514.155	-5.4
3517.027	-9.4
3519.897	-6.4
3522.764	-11.4
3525.629	-10.4
3528.492	-15.4
3531.352	-22.4
3534.211	-16.4
3537.067	-12.4
3539.921	-17.4
3542.773	-24.4
3545.622	-22.4
3548.469	-25.4
3551.315	-22.4
3554.157	-27.4
3556.998	-27.4
3559.837	-28.4
3562.673	-29.4
3565.507	-29.4
3568.339	-25.4
3571.169	-35.4
3573.996	-27.4
3576.822	-39.4
3579.645	-33.4
3582.466	-31.4
3585.285	-35.4
3588.101	-39.4
3590.916	-31.4
3593.728	-38.4
3596.538	-41.4
3599.346	-36.4
3602.152	-38.4
3604.956	-42.4
3607.757	-32.4
3610.556	-41.4
3613.354	-49.4
3616.149	-45.4
3618.942	-44.4
3621.732	-45.4
3624.521	-42.4
3627.307	-43.4
3630.092	-48.4
3632.874	-48.4
3635.654	-49.4
3638.432	-47.4
3641.208	-52.4
3643.982	-44.4
3646.753	-46.4
3649.523	-46.4
3652.29	-45.4
3655.055	-47.4
3657.818	-54.4
3660.579	-50.4
3663.338	-48.4
3666.095	-51.4
3668.849	-53.4
3671.602	-49.4
3674.352	-49.4
3677.101	-55.4
3679.847	-53.4
3682.591	-61.4
3685.333	-52.4
3688.073	-57.4
3690.811	-51.4
3693.547	-55.4
3696.281	-44.4
3699.013	-52.4
3701.742	-54.4
3704.47	-55.4
3707.195	-54.4
3709.919	-55.4
3712.64	-52.4
3715.359	-52.4
3718.076	-59.4
3720.792	-55.4
3723.505	-58.4
3726.216	-49.4
3728.925	-61.4
3731.632	-54.4
3734.336	-55.4
3737.039	-52.4
3739.74	-62.4
3742.439	-62.4
3745.136	-61.4
3747.83	-58.4
3750.523	-59.4
3753.213	-59.4
3755.902	-59.4
3758.589	-61.4
3761.273	-58.4
3763.956	-62.4
3766.636	-54.4
3769.315	-58.4
3771.991	-54.4
3774.665	-63.4
3777.338	-52.4
3780.008	-57.4
3782.677	-65.4
3785.343	-60.4
3788.007	-61.4
3790.67	-58.4
3793.33	-56.4
3795.989	-64.4
3798.645	-61.4
3801.299	-61.4
3803.952	-63.4
3806.602	-64.4
3809.251	-64.4
3811.897	-63.4
3814.542	-64.4
3817.184	-66.4
3819.825	-57.4
3822.463	-64.4
3825.1	-62.4
3827.735	-65.4
3830.367	-61.4
3832.998	-64.4
3835.627	-64.4
3838.253	-55.4
3840.878	-55.4
3843.501	-55.4
3846.122	-62.4
3848.741	-64.4
3851.358	-58.4
3853.973	-65.4
3856.586	-59.4
3859.197	-62.4
3861.806	-58.4
3864.414	-57.4
3867.019	-58.4
3869.622	-53.4
3872.224	-44.4
3874.823	-41.4
3877.421	-33.4
3880.016	-21.4
3882.61	-7.4
3885.202	-4.4
3887.792	-11.4
3890.38	-32.4
3892.966	-45.4
3895.55	-59.4
3898.132	-56.4
3900.713	-59.4
3903.291	-61.4
3905.868	-60.4
3908.442	-63.4
3911.015	-60.4
3913.586	-67.4
3916.155	-64.4
3918.722	-58.4
3921.287	-61.4
3923.85	-54.4
3926.411	-63.4
3928.971	-65.4
3931.528	-57.4
3934.084	-61.4
3936.638	-60.4
3939.19	-68.4
3941.74	-62.4
3944.288	-64.4
3946.834	-65.4
3949.378	-64.4
3951.921	-65.4
3954.462	-63.4
3957	-53.4
3959.537	-51.4
3962.072	-52.4
3964.606	-52.4
3967.137	-63.4
3969.667	-63.4
3972.194	-56.4
3974.72	-58.4
3977.244	-57.4
3979.766	-62.4
3982.286	-59.4
3984.805	-65.4
3987.321	-57.4
3989.836	-58.4
3992.349	-64.4
3994.86	-65.4
3997.369	-63.4
3999.877	-61.4
4002.382	-59.4
4004.886	-59.4
4007.388	-62.4
4009.888	-58.4
4012.386	-65.4
4014.883	-59.4
4017.377	-55.4
4019.87	-57.4
4022.361	-62.4
4024.85	-59.4
4027.338	-65.4
4029.823	-61.4
4032.307	-61.4
4034.789	-60.4
4037.269	-60.4
4039.747	-61.4
4042.224	-62.4
4044.699	-58.4
4047.172	-62.4
4049.643	-64.4
4052.112	-59.4
4054.58	-55.4
4057.046	-58.4
4059.51	-67.4
4061.972	-66.4
4064.432	-60.4
4066.891	-59.4
4069.348	-57.4
4071.803	-54.4
4074.256	-57.4
4076.708	-58.4
4079.158	-65.4
4081.606	-58.4
4084.052	-58.4
4086.497	-59.4
4088.939	-61.4
4091.38	-62.4
4093.819	-62.4
4096.257	-64.4
4098.693	-61.4
4101.127	-57.4
4103.559	-62.4
4105.989	25.6
4108.418	14.6
4110.845	12.6
4113.27	13.6
4115.694	11.6
4118.115	14.6
4120.535	-59.4
4122.954	-57.4
4125.37	-61.4
4127.785	-57.4
4130.198	-55.4
4132.609	-62.4
4135.019	-61.4
4137.427	-63.4
4139.833	-66.4
4142.237	-65.4
