Data from 2018-3-7_conc=0_n=7_RamanShift_05.txt Node
Date: Wed Mar 07 10:27:52 IST 2018
User: aro
Spectrometer: QEPB0276
Trigger mode: 0
Integration Time (sec): 3.000000E1
Scans to average: 1
Electric dark correction enabled: true
Nonlinearity correction enabled: false
Boxcar width: 0
XAxis mode: Raman Shifts
Number of Pixels in Spectrum: 1044
>>>>>Begin Spectral Data<<<<<
160.701	11.1
166.742	26.1
172.777	49.1
178.805	149.1
184.826	392.1
190.841	816.1
196.849	1364.1
202.85	1759.1
208.845	1918.1
214.833	1936.1
220.815	1921.1
226.789	1911.1
232.758	1948.1
238.719	1951.1
244.674	1932.1
250.623	1935.1
256.565	1941.1
262.5	1898.1
268.429	1893.1
274.351	1903.1
280.267	1914.1
286.176	1894.1
292.079	1904.1
297.975	1916.1
303.865	1912.1
309.748	1895.1
315.625	1926.1
321.495	1930.1
327.359	1938.1
333.217	1931.1
339.068	1928.1
344.912	1943.1
350.751	1956.1
356.583	1963.1
362.408	1968.1
368.227	1970.1
374.04	1996.1
379.847	2022.1
385.647	2017.1
391.44	2017.1
397.228	2033.1
403.009	2045.1
408.784	2076.1
414.553	2079.1
420.315	2084.1
426.071	2079.1
431.821	2100.1
437.565	2089.1
443.302	2070.1
449.033	2067.1
454.758	2053.1
460.477	2055.1
466.189	2019.1
471.896	1998.1
477.596	1968.1
483.29	1985.1
488.978	1982.1
494.66	1964.1
500.335	1918.1
506.005	1821.1
511.668	1725.1
517.325	1639.1
522.977	1569.1
528.622	1507.1
534.261	1475.1
539.894	1415.1
545.521	1419.1
551.141	1393.1
556.756	1381.1
562.365	1369.1
567.968	1350.1
573.565	1335.1
579.155	1318.1
584.74	1336.1
590.319	1321.1
595.892	1326.1
601.459	1320.1
607.02	1318.1
612.575	1296.1
618.124	1301.1
623.667	1283.1
629.204	1258.1
634.735	1241.1
640.261	1231.1
645.781	1221.1
651.294	1211.1
656.802	1217.1
662.304	1193.1
667.8	1214.1
673.29	1199.1
678.775	1207.1
684.254	1189.1
689.726	1175.1
695.193	1172.1
700.655	1160.1
706.11	1165.1
711.56	1159.1
717.004	1147.1
722.442	1141.1
727.874	1128.1
733.301	1132.1
738.722	1119.1
744.137	1108.1
749.547	1139.1
754.951	1115.1
760.349	1107.1
765.741	1115.1
771.128	1126.1
776.509	1143.1
781.885	1164.1
787.254	1185.1
792.618	1190.1
797.977	1189.1
803.33	1183.1
808.677	1170.1
814.019	1181.1
819.355	1138.1
824.686	1134.1
830.011	1134.1
835.33	1118.1
840.644	1122.1
845.952	1112.1
851.255	1097.1
856.552	1104.1
861.844	1075.1
867.13	1069.1
872.41	1091.1
877.686	1120.1
882.955	1145.1
888.219	1140.1
893.478	1087.1
898.731	1046.1
903.979	1001.1
909.221	1002.1
914.458	971.1
919.69	974.1
924.916	972.1
930.136	973.1
935.351	969.1
940.561	965.1
945.766	980.1
950.965	965.1
956.158	948.1
961.347	940.1
966.529	934.1
971.707	916.1
976.879	908.1
982.046	893.1
987.208	896.1
992.364	891.1
997.515	910.1
1002.66	912.1
1007.801	934.1
1012.936	935.1
1018.066	924.1
1023.19	937.1
1028.309	948.1
1033.423	950.1
1038.532	947.1
1043.636	950.1
1048.734	944.1
1053.827	932.1
1058.915	923.1
1063.998	913.1
1069.075	905.1
1074.147	902.1
1079.214	916.1
1084.276	918.1
1089.333	927.1
1094.385	932.1
1099.431	910.1
1104.472	912.1
1109.509	898.1
1114.54	868.1
1119.565	847.1
1124.586	852.1
1129.602	824.1
1134.613	825.1
1139.618	809.1
1144.619	825.1
1149.614	833.1
1154.604	815.1
1159.589	825.1
1164.57	833.1
1169.545	819.1
1174.515	834.1
1179.48	824.1
1184.44	817.1
1189.395	807.1
1194.345	794.1
1199.29	795.1
1204.23	791.1
1209.165	801.1
1214.095	787.1
1219.021	805.1
1223.941	811.1
1228.856	827.1
1233.766	818.1
1238.672	818.1
1243.572	811.1
1248.467	801.1
1253.358	798.1
1258.244	785.1
1263.124	773.1
1268	762.1
1272.871	752.1
1277.737	749.1
1282.599	741.1
1287.455	748.1
1292.306	750.1
1297.153	753.1
1301.995	750.1
1306.832	753.1
1311.664	767.1
1316.491	761.1
1321.314	756.1
1326.132	748.1
1330.945	734.1
1335.753	714.1
1340.556	699.1
1345.354	677.1
1350.148	672.1
1354.937	665.1
1359.722	651.1
1364.501	633.1
1369.276	629.1
1374.046	600.1
1378.811	610.1
1383.572	613.1
1388.327	613.1
1393.079	610.1
1397.825	620.1
1402.567	628.1
1407.304	621.1
1412.036	630.1
1416.764	624.1
1421.487	626.1
1426.205	615.1
1430.919	631.1
1435.628	638.1
1440.333	650.1
1445.032	638.1
1449.727	668.1
1454.418	674.1
1459.104	674.1
1463.785	668.1
1468.462	642.1
1473.134	616.1
1477.802	582.1
1482.465	574.1
1487.123	557.1
1491.777	546.1
1496.426	539.1
1501.071	528.1
1505.711	522.1
1510.347	523.1
1514.978	513.1
1519.604	511.1
1524.226	507.1
1528.844	501.1
1533.457	509.1
1538.065	490.1
1542.669	505.1
1547.269	504.1
1551.864	514.1
1556.454	533.1
1561.041	538.1
1565.622	541.1
1570.199	530.1
1574.772	528.1
1579.34	545.1
1583.904	545.1
1588.464	557.1
1593.019	557.1
1597.569	554.1
1602.115	561.1
1606.657	553.1
1611.195	534.1
1615.728	541.1
1620.256	541.1
1624.78	530.1
1629.3	540.1
1633.816	537.1
1638.327	547.1
1642.834	541.1
1647.336	528.1
1651.834	536.1
1656.328	526.1
1660.817	524.1
1665.302	517.1
1669.783	509.1
1674.259	496.1
1678.732	479.1
1683.199	460.1
1687.663	455.1
1692.122	416.1
1696.577	407.1
1701.028	392.1
1705.474	367.1
1709.917	367.1
1714.355	363.1
1718.788	355.1
1723.218	363.1
1727.643	352.1
1732.064	360.1
1736.481	358.1
1740.893	352.1
1745.301	338.1
1749.705	350.1
1754.105	333.1
1758.501	322.1
1762.893	319.1
1767.28	297.1
1771.663	297.1
1776.042	304.1
1780.417	291.1
1784.787	291.1
1789.154	284.1
1793.516	271.1
1797.874	268.1
1802.228	273.1
1806.578	270.1
1810.924	265.1
1815.266	260.1
1819.603	267.1
1823.937	275.1
1828.266	265.1
1832.591	273.1
1836.913	267.1
1841.23	278.1
1845.543	272.1
1849.852	270.1
1854.156	269.1
1858.457	279.1
1862.754	276.1
1867.047	270.1
1871.335	275.1
1875.62	266.1
1879.9	274.1
1884.177	257.1
1888.449	259.1
1892.718	259.1
1896.982	249.1
1901.243	242.1
1905.499	237.1
1909.752	233.1
1914	234.1
1918.245	219.1
1922.485	221.1
1926.722	219.1
1930.954	215.1
1935.183	211.1
1939.408	210.1
1943.628	209.1
1947.845	213.1
1952.058	206.1
1956.267	209.1
1960.472	203.1
1964.673	191.1
1968.87	205.1
1973.063	201.1
1977.252	205.1
1981.438	195.1
1985.619	203.1
1989.797	203.1
1993.971	207.1
1998.14	204.1
2002.306	210.1
2006.469	210.1
2010.627	209.1
2014.781	212.1
2018.932	208.1
2023.078	213.1
2027.221	199.1
2031.36	208.1
2035.495	198.1
2039.627	185.1
2043.754	187.1
2047.878	188.1
2051.998	189.1
2056.114	184.1
2060.226	176.1
2064.334	181.1
2068.439	176.1
2072.54	180.1
2076.637	180.1
2080.73	175.1
2084.82	178.1
2088.906	165.1
2092.988	165.1
2097.066	175.1
2101.14	164.1
2105.211	168.1
2109.278	161.1
2113.342	153.1
2117.401	160.1
2121.457	152.1
2125.509	159.1
2129.558	156.1
2133.602	159.1
2137.643	158.1
2141.681	167.1
2145.714	158.1
2149.744	157.1
2153.77	165.1
2157.793	163.1
2161.812	166.1
2165.827	156.1
2169.838	162.1
2173.846	156.1
2177.851	154.1
2181.851	154.1
2185.848	143.1
2189.841	139.1
2193.831	138.1
2197.817	150.1
2201.799	142.1
2205.778	138.1
2209.753	145.1
2213.725	152.1
2217.693	150.1
2221.657	154.1
2225.618	139.1
2229.575	147.1
2233.529	128.1
2237.479	142.1
2241.425	134.1
2245.368	140.1
2249.307	139.1
2253.243	139.1
2257.175	138.1
2261.104	122.1
2265.029	127.1
2268.95	125.1
2272.868	121.1
2276.783	125.1
2280.694	121.1
2284.601	118.1
2288.505	129.1
2292.405	119.1
2296.302	130.1
2300.195	119.1
2304.085	118.1
2307.971	114.1
2311.854	114.1
2315.734	102.1
2319.609	113.1
2323.482	106.1
2327.351	116.1
2331.216	129.1
2335.078	140.1
2338.937	129.1
2342.792	115.1
2346.643	114.1
2350.492	115.1
2354.336	108.1
2358.178	101.1
2362.015	111.1
2365.85	108.1
2369.681	115.1
2373.508	115.1
2377.333	111.1
2381.153	110.1
2384.971	99.1
2388.785	112.1
2392.595	108.1
2396.402	113.1
2400.206	109.1
2404.007	108.1
2407.804	107.1
2411.597	106.1
2415.388	97.1
2419.174	105.1
2422.958	98.1
2426.738	110.1
2430.515	107.1
2434.289	108.1
2438.059	98.1
2441.825	91.1
2445.589	97.1
2449.349	92.1
2453.106	102.1
2456.859	89.1
2460.61	91.1
2464.356	97.1
2468.1	97.1
2471.84	93.1
2475.577	86.1
2479.311	79.1
2483.041	84.1
2486.768	80.1
2490.492	88.1
2494.213	87.1
2497.93	89.1
2501.644	90.1
2505.355	73.1
2509.062	86.1
2512.766	82.1
2516.467	74.1
2520.165	71.1
2523.859	82.1
2527.551	71.1
2531.239	68.1
2534.923	70.1
2538.605	64.1
2542.283	58.1
2545.958	64.1
2549.63	70.1
2553.299	64.1
2556.964	61.1
2560.626	65.1
2564.285	60.1
2567.941	56.1
2571.594	59.1
2575.243	64.1
2578.89	55.1
2582.533	52.1
2586.173	49.1
2589.809	59.1
2593.443	58.1
2597.073	50.1
2600.701	57.1
2604.325	49.1
2607.946	46.1
2611.564	60.1
2615.178	52.1
2618.79	52.1
2622.398	48.1
2626.004	51.1
2629.606	46.1
2633.205	49.1
2636.801	56.1
2640.394	54.1
2643.983	47.1
2647.57	50.1
2651.153	40.1
2654.734	43.1
2658.311	39.1
2661.885	46.1
2665.456	47.1
2669.025	46.1
2672.589	41.1
2676.151	40.1
2679.71	35.1
2683.266	41.1
2686.819	45.1
2690.368	37.1
2693.915	43.1
2697.458	37.1
2700.999	46.1
2704.536	44.1
2708.071	40.1
2711.602	33.1
2715.13	33.1
2718.656	32.1
2722.178	35.1
2725.697	28.1
2729.214	36.1
2732.727	36.1
2736.237	34.1
2739.744	27.1
2743.249	32.1
2746.75	22.1
2750.248	29.1
2753.743	22.1
2757.236	17.1
2760.725	25.1
2764.211	16.1
2767.695	14.1
2771.175	22.1
2774.652	20.1
2778.127	20.1
2781.598	13.1
2785.067	16.1
2788.532	16.1
2791.995	20.1
2795.455	23.1
2798.911	18.1
2802.365	23.1
2805.816	21.1
2809.264	19.1
2812.709	15.1
2816.151	22.1
2819.59	32.1
2823.026	22.1
2826.46	24.1
2829.89	29.1
2833.318	25.1
2836.742	29.1
2840.164	23.1
2843.583	19.1
2846.999	31.1
2850.412	25.1
2853.822	27.1
2857.229	36.1
2860.634	29.1
2864.035	28.1
2867.434	34.1
2870.83	37.1
2874.223	39.1
2877.613	47.1
2881	46.1
2884.385	53.1
2887.766	60.1
2891.145	60.1
2894.521	62.1
2897.894	50.1
2901.264	56.1
2904.631	51.1
2907.996	52.1
2911.358	53.1
2914.717	56.1
2918.073	61.1
2921.426	65.1
2924.777	64.1
2928.124	68.1
2931.469	78.1
2934.811	86.1
2938.15	80.1
2941.487	91.1
2944.821	78.1
2948.152	85.1
2951.48	69.1
2954.805	74.1
2958.128	62.1
2961.447	63.1
2964.765	60.1
2968.079	52.1
2971.39	60.1
2974.699	52.1
2978.005	59.1
2981.308	60.1
2984.609	60.1
2987.907	53.1
2991.202	54.1
2994.494	49.1
2997.784	40.1
3001.07	50.1
3004.355	47.1
3007.636	51.1
3010.915	50.1
3014.191	41.1
3017.464	46.1
3020.734	43.1
3024.002	53.1
3027.267	52.1
3030.53	46.1
3033.789	57.1
3037.046	52.1
3040.301	47.1
3043.552	55.1
3046.801	62.1
3050.048	58.1
3053.291	58.1
3056.532	65.1
3059.771	62.1
3063.006	71.1
3066.239	72.1
3069.469	76.1
3072.697	73.1
3075.922	86.1
3079.144	81.1
3082.364	84.1
3085.581	79.1
3088.795	86.1
3092.007	94.1
3095.216	101.1
3098.423	92.1
3101.627	95.1
3104.828	100.1
3108.026	98.1
3111.222	97.1
3114.416	104.1
3117.607	113.1
3120.795	109.1
3123.98	107.1
3127.163	118.1
3130.344	119.1
3133.521	118.1
3136.696	120.1
3139.869	125.1
3143.039	130.1
3146.206	131.1
3149.371	128.1
3152.533	143.1
3155.693	142.1
3158.85	136.1
3162.005	133.1
3165.157	137.1
3168.306	126.1
3171.453	135.1
3174.597	138.1
3177.739	141.1
3180.878	144.1
3184.014	135.1
3187.149	136.1
3190.28	140.1
3193.409	139.1
3196.536	139.1
3199.659	145.1
3202.781	142.1
3205.9	141.1
3209.016	144.1
3212.13	133.1
3215.241	135.1
3218.35	131.1
3221.456	139.1
3224.56	126.1
3227.661	129.1
3230.76	118.1
3233.856	126.1
3236.95	117.1
3240.041	112.1
3243.13	118.1
3246.216	108.1
3249.3	103.1
3252.382	105.1
3255.46	109.1
3258.537	106.1
3261.611	103.1
3264.682	109.1
3267.751	105.1
3270.818	92.1
3273.882	93.1
3276.943	98.1
3280.002	99.1
3283.059	103.1
3286.113	91.1
3289.165	98.1
3292.214	94.1
3295.261	93.1
3298.306	93.1
3301.348	97.1
3304.387	97.1
3307.425	90.1
3310.459	90.1
3313.492	91.1
3316.521	94.1
3319.549	94.1
3322.574	88.1
3325.597	86.1
3328.617	84.1
3331.635	86.1
3334.65	94.1
3337.663	84.1
3340.674	88.1
3343.682	85.1
3346.688	89.1
3349.691	93.1
3352.692	83.1
3355.691	85.1
3358.687	81.1
3361.681	81.1
3364.673	89.1
3367.662	86.1
3370.649	79.1
3373.633	77.1
3376.615	80.1
3379.595	79.1
3382.572	65.1
3385.547	72.1
3388.52	68.1
3391.49	66.1
3394.458	68.1
3397.424	75.1
3400.387	66.1
3403.348	56.1
3406.307	63.1
3409.263	59.1
3412.217	57.1
3415.168	61.1
3418.118	54.1
3421.065	57.1
3424.009	47.1
3426.951	55.1
3429.891	44.1
3432.829	48.1
3435.764	49.1
3438.697	43.1
3441.628	39.1
3444.557	45.1
3447.483	34.1
3450.407	38.1
3453.328	34.1
3456.247	26.1
3459.164	23.1
3462.079	25.1
3464.991	22.1
3467.902	19.1
3470.809	22.1
3473.715	21.1
3476.618	10.1
3479.519	13.1
3482.418	7.1
3485.315	7.1
3488.209	1.1
3491.101	2.1
3493.99	10.1
3496.878	4.1
3499.763	-4.9
3502.646	4.1
3505.527	2.1
3508.405	-3.9
3511.281	-6.9
3514.155	-6.9
3517.027	-15.9
3519.897	-10.9
3522.764	-16.9
3525.629	-8.9
3528.492	-19.9
3531.352	-18.9
3534.211	-22.9
3537.067	-13.9
3539.921	-16.9
3542.773	-25.9
3545.622	-25.9
3548.469	-26.9
3551.315	-24.9
3554.157	-22.9
3556.998	-20.9
3559.837	-28.9
3562.673	-30.9
3565.507	-28.9
3568.339	-24.9
3571.169	-35.9
3573.996	-27.9
3576.822	-40.9
3579.645	-34.9
3582.466	-29.9
3585.285	-31.9
3588.101	-35.9
3590.916	-31.9
3593.728	-32.9
3596.538	-44.9
3599.346	-38.9
3602.152	-39.9
3604.956	-35.9
3607.757	-33.9
3610.556	-34.9
3613.354	-41.9
3616.149	-41.9
3618.942	-36.9
3621.732	-39.9
3624.521	-41.9
3627.307	-42.9
3630.092	-46.9
3632.874	-45.9
3635.654	-43.9
3638.432	-43.9
3641.208	-39.9
3643.982	-40.9
3646.753	-50.9
3649.523	-44.9
3652.29	-46.9
3655.055	-40.9
3657.818	-49.9
3660.579	-50.9
3663.338	-40.9
3666.095	-49.9
3668.849	-46.9
3671.602	-44.9
3674.352	-49.9
3677.101	-48.9
3679.847	-44.9
3682.591	-45.9
3685.333	-43.9
3688.073	-51.9
3690.811	-52.9
3693.547	-51.9
3696.281	-49.9
3699.013	-48.9
3701.742	-52.9
3704.47	-48.9
3707.195	-47.9
3709.919	-49.9
3712.64	-50.9
3715.359	-49.9
3718.076	-52.9
3720.792	-48.9
3723.505	-57.9
3726.216	-52.9
3728.925	-53.9
3731.632	-50.9
3734.336	-51.9
3737.039	-44.9
3739.74	-52.9
3742.439	-60.9
3745.136	-54.9
3747.83	-50.9
3750.523	-54.9
3753.213	-63.9
3755.902	-52.9
3758.589	-54.9
3761.273	-50.9
3763.956	-52.9
3766.636	-51.9
3769.315	-48.9
3771.991	-56.9
3774.665	-56.9
3777.338	-49.9
3780.008	-59.9
3782.677	-55.9
3785.343	-53.9
3788.007	-54.9
3790.67	-54.9
3793.33	-55.9
3795.989	-54.9
3798.645	-53.9
3801.299	-50.9
3803.952	-58.9
3806.602	-57.9
3809.251	-54.9
3811.897	-60.9
3814.542	-60.9
3817.184	-52.9
3819.825	-52.9
3822.463	-53.9
3825.1	-53.9
3827.735	-60.9
3830.367	-60.9
3832.998	-57.9
3835.627	-56.9
3838.253	-49.9
3840.878	-52.9
3843.501	-52.9
3846.122	-58.9
3848.741	-56.9
3851.358	-54.9
3853.973	-54.9
3856.586	-55.9
3859.197	-52.9
3861.806	-54.9
3864.414	-58.9
3867.019	-51.9
3869.622	-52.9
3872.224	-40.9
3874.823	-40.9
3877.421	-34.9
3880.016	-25.9
3882.61	-20.9
3885.202	-16.9
3887.792	-20.9
3890.38	-23.9
3892.966	-46.9
3895.55	-56.9
3898.132	-51.9
3900.713	-59.9
3903.291	-59.9
3905.868	-51.9
3908.442	-58.9
3911.015	-47.9
3913.586	-62.9
3916.155	-55.9
3918.722	-61.9
3921.287	-52.9
3923.85	-50.9
3926.411	-58.9
3928.971	-60.9
3931.528	-60.9
3934.084	-50.9
3936.638	-51.9
3939.19	-61.9
3941.74	-57.9
3944.288	-54.9
3946.834	-56.9
3949.378	-58.9
3951.921	-57.9
3954.462	-53.9
3957	-49.9
3959.537	-50.9
3962.072	-53.9
3964.606	-54.9
3967.137	-57.9
3969.667	-57.9
3972.194	-51.9
3974.72	-51.9
3977.244	-50.9
3979.766	-53.9
3982.286	-55.9
3984.805	-62.9
3987.321	-53.9
3989.836	-57.9
3992.349	-58.9
3994.86	-57.9
3997.369	-56.9
3999.877	-52.9
4002.382	-55.9
4004.886	-51.9
4007.388	-54.9
4009.888	-53.9
4012.386	-53.9
4014.883	-56.9
4017.377	-52.9
4019.87	-55.9
4022.361	-59.9
4024.85	-49.9
4027.338	-53.9
4029.823	-58.9
4032.307	-59.9
4034.789	-55.9
4037.269	-59.9
4039.747	-57.9
4042.224	-54.9
4044.699	-55.9
4047.172	-62.9
4049.643	-56.9
4052.112	-56.9
4054.58	-54.9
4057.046	-51.9
4059.51	-60.9
4061.972	-55.9
4064.432	-55.9
4066.891	-54.9
4069.348	-51.9
4071.803	-52.9
4074.256	-54.9
4076.708	-54.9
4079.158	-61.9
4081.606	-58.9
4084.052	-57.9
4086.497	-47.9
4088.939	-49.9
4091.38	-55.9
4093.819	-60.9
4096.257	-58.9
4098.693	-58.9
4101.127	-49.9
4103.559	-57.9
4105.989	16.1
4108.418	10.1
4110.845	6.1
4113.27	3.1
4115.694	3.1
4118.115	13.1
4120.535	-53.9
4122.954	-55.9
4125.37	-53.9
4127.785	-54.9
4130.198	-54.9
4132.609	-58.9
4135.019	-58.9
4137.427	-61.9
4139.833	-55.9
4142.237	-58.9
