Data from 2018-3-7_conc=3_n=8_RamanShift_01.txt Node
Date: Wed Mar 07 11:37:52 IST 2018
User: aro
Spectrometer: QEPB0276
Trigger mode: 0
Integration Time (sec): 3.000000E1
Scans to average: 1
Electric dark correction enabled: true
Nonlinearity correction enabled: false
Boxcar width: 0
XAxis mode: Raman Shifts
Number of Pixels in Spectrum: 1044
>>>>>Begin Spectral Data<<<<<
160.701	15.1
166.742	25.1
172.777	49.1
178.805	138.1
184.826	349.1
190.841	716.1
196.849	1168.1
202.85	1526.1
208.845	1676.1
214.833	1686.1
220.815	1656.1
226.789	1648.1
232.758	1655.1
238.719	1659.1
244.674	1648.1
250.623	1635.1
256.565	1620.1
262.5	1587.1
268.429	1572.1
274.351	1589.1
280.267	1571.1
286.176	1556.1
292.079	1564.1
297.975	1569.1
303.865	1578.1
309.748	1568.1
315.625	1563.1
321.495	1568.1
327.359	1566.1
333.217	1569.1
339.068	1565.1
344.912	1562.1
350.751	1584.1
356.583	1583.1
362.408	1571.1
368.227	1581.1
374.04	1595.1
379.847	1628.1
385.647	1626.1
391.44	1631.1
397.228	1609.1
403.009	1632.1
408.784	1636.1
414.553	1663.1
420.315	1654.1
426.071	1641.1
431.821	1650.1
437.565	1648.1
443.302	1649.1
449.033	1635.1
454.758	1621.1
460.477	1637.1
466.189	1596.1
471.896	1595.1
477.596	1592.1
483.29	1587.1
488.978	1573.1
494.66	1573.1
500.335	1527.1
506.005	1456.1
511.668	1408.1
517.325	1370.1
522.977	1295.1
528.622	1277.1
534.261	1260.1
539.894	1220.1
545.521	1208.1
551.141	1200.1
556.756	1180.1
562.365	1172.1
567.968	1166.1
573.565	1157.1
579.155	1162.1
584.74	1154.1
590.319	1142.1
595.892	1155.1
601.459	1143.1
607.02	1136.1
612.575	1135.1
618.124	1105.1
623.667	1112.1
629.204	1092.1
634.735	1073.1
640.261	1075.1
645.781	1057.1
651.294	1054.1
656.802	1064.1
662.304	1049.1
667.8	1046.1
673.29	1037.1
678.775	1047.1
684.254	1037.1
689.726	1032.1
695.193	1036.1
700.655	1029.1
706.11	1015.1
711.56	1002.1
717.004	999.1
722.442	993.1
727.874	982.1
733.301	994.1
738.722	981.1
744.137	980.1
749.547	984.1
754.951	983.1
760.349	977.1
765.741	981.1
771.128	977.1
776.509	1011.1
781.885	1015.1
787.254	1013.1
792.618	1010.1
797.977	999.1
803.33	979.1
808.677	994.1
814.019	990.1
819.355	979.1
824.686	959.1
830.011	961.1
835.33	956.1
840.644	958.1
845.952	963.1
851.255	949.1
856.552	949.1
861.844	932.1
867.13	920.1
872.41	917.1
877.686	918.1
882.955	911.1
888.219	907.1
893.478	890.1
898.731	875.1
903.979	851.1
909.221	856.1
914.458	854.1
919.69	849.1
924.916	853.1
930.136	862.1
935.351	851.1
940.561	846.1
945.766	862.1
950.965	842.1
956.158	839.1
961.347	831.1
966.529	820.1
971.707	799.1
976.879	804.1
982.046	781.1
987.208	791.1
992.364	789.1
997.515	781.1
1002.66	799.1
1007.801	807.1
1012.936	792.1
1018.066	824.1
1023.19	816.1
1028.309	816.1
1033.423	821.1
1038.532	812.1
1043.636	804.1
1048.734	802.1
1053.827	783.1
1058.915	786.1
1063.998	766.1
1069.075	749.1
1074.147	759.1
1079.214	766.1
1084.276	784.1
1089.333	779.1
1094.385	771.1
1099.431	769.1
1104.472	775.1
1109.509	773.1
1114.54	758.1
1119.565	736.1
1124.586	735.1
1129.602	732.1
1134.613	710.1
1139.618	710.1
1144.619	706.1
1149.614	725.1
1154.604	708.1
1159.589	712.1
1164.57	725.1
1169.545	716.1
1174.515	730.1
1179.48	722.1
1184.44	722.1
1189.395	712.1
1194.345	713.1
1199.29	692.1
1204.23	707.1
1209.165	689.1
1214.095	706.1
1219.021	706.1
1223.941	710.1
1228.856	711.1
1233.766	717.1
1238.672	727.1
1243.572	708.1
1248.467	705.1
1253.358	694.1
1258.244	693.1
1263.124	680.1
1268	665.1
1272.871	653.1
1277.737	659.1
1282.599	642.1
1287.455	650.1
1292.306	646.1
1297.153	646.1
1301.995	652.1
1306.832	660.1
1311.664	658.1
1316.491	655.1
1321.314	655.1
1326.132	656.1
1330.945	638.1
1335.753	634.1
1340.556	605.1
1345.354	609.1
1350.148	599.1
1354.937	575.1
1359.722	565.1
1364.501	555.1
1369.276	552.1
1374.046	540.1
1378.811	545.1
1383.572	531.1
1388.327	528.1
1393.079	527.1
1397.825	545.1
1402.567	544.1
1407.304	551.1
1412.036	537.1
1416.764	542.1
1421.487	534.1
1426.205	545.1
1430.919	533.1
1435.628	544.1
1440.333	552.1
1445.032	546.1
1449.727	576.1
1454.418	556.1
1459.104	561.1
1463.785	550.1
1468.462	528.1
1473.134	521.1
1477.802	505.1
1482.465	497.1
1487.123	489.1
1491.777	462.1
1496.426	464.1
1501.071	469.1
1505.711	456.1
1510.347	454.1
1514.978	464.1
1519.604	456.1
1524.226	452.1
1528.844	462.1
1533.457	435.1
1538.065	447.1
1542.669	441.1
1547.269	444.1
1551.864	448.1
1556.454	462.1
1561.041	468.1
1565.622	474.1
1570.199	461.1
1574.772	470.1
1579.34	488.1
1583.904	470.1
1588.464	489.1
1593.019	495.1
1597.569	481.1
1602.115	485.1
1606.657	486.1
1611.195	480.1
1615.728	496.1
1620.256	481.1
1624.78	488.1
1629.3	479.1
1633.816	484.1
1638.327	491.1
1642.834	480.1
1647.336	486.1
1651.834	488.1
1656.328	487.1
1660.817	488.1
1665.302	465.1
1669.783	460.1
1674.259	455.1
1678.732	443.1
1683.199	420.1
1687.663	415.1
1692.122	380.1
1696.577	382.1
1701.028	346.1
1705.474	339.1
1709.917	335.1
1714.355	330.1
1718.788	324.1
1723.218	324.1
1727.643	322.1
1732.064	329.1
1736.481	321.1
1740.893	311.1
1745.301	306.1
1749.705	302.1
1754.105	284.1
1758.501	275.1
1762.893	279.1
1767.28	270.1
1771.663	273.1
1776.042	266.1
1780.417	260.1
1784.787	263.1
1789.154	261.1
1793.516	242.1
1797.874	239.1
1802.228	256.1
1806.578	246.1
1810.924	241.1
1815.266	241.1
1819.603	226.1
1823.937	240.1
1828.266	234.1
1832.591	235.1
1836.913	237.1
1841.23	246.1
1845.543	242.1
1849.852	238.1
1854.156	244.1
1858.457	244.1
1862.754	254.1
1867.047	248.1
1871.335	240.1
1875.62	239.1
1879.9	243.1
1884.177	233.1
1888.449	233.1
1892.718	233.1
1896.982	219.1
1901.243	220.1
1905.499	218.1
1909.752	207.1
1914	207.1
1918.245	204.1
1922.485	205.1
1926.722	199.1
1930.954	190.1
1935.183	198.1
1939.408	197.1
1943.628	200.1
1947.845	198.1
1952.058	196.1
1956.267	197.1
1960.472	188.1
1964.673	187.1
1968.87	187.1
1973.063	186.1
1977.252	189.1
1981.438	188.1
1985.619	186.1
1989.797	184.1
1993.971	182.1
1998.14	191.1
2002.306	188.1
2006.469	192.1
2010.627	184.1
2014.781	194.1
2018.932	180.1
2023.078	190.1
2027.221	184.1
2031.36	179.1
2035.495	179.1
2039.627	173.1
2043.754	172.1
2047.878	168.1
2051.998	175.1
2056.114	165.1
2060.226	163.1
2064.334	165.1
2068.439	156.1
2072.54	165.1
2076.637	168.1
2080.73	165.1
2084.82	167.1
2088.906	156.1
2092.988	158.1
2097.066	152.1
2101.14	157.1
2105.211	159.1
2109.278	156.1
2113.342	141.1
2117.401	142.1
2121.457	146.1
2125.509	145.1
2129.558	139.1
2133.602	139.1
2137.643	144.1
2141.681	136.1
2145.714	142.1
2149.744	143.1
2153.77	144.1
2157.793	153.1
2161.812	150.1
2165.827	148.1
2169.838	140.1
2173.846	137.1
2177.851	126.1
2181.851	134.1
2185.848	139.1
2189.841	130.1
2193.831	126.1
2197.817	130.1
2201.799	128.1
2205.778	122.1
2209.753	128.1
2213.725	127.1
2217.693	131.1
2221.657	125.1
2225.618	124.1
2229.575	121.1
2233.529	120.1
2237.479	123.1
2241.425	114.1
2245.368	122.1
2249.307	120.1
2253.243	119.1
2257.175	112.1
2261.104	105.1
2265.029	104.1
2268.95	105.1
2272.868	102.1
2276.783	94.1
2280.694	95.1
2284.601	96.1
2288.505	103.1
2292.405	108.1
2296.302	107.1
2300.195	96.1
2304.085	93.1
2307.971	90.1
2311.854	92.1
2315.734	86.1
2319.609	97.1
2323.482	93.1
2327.351	95.1
2331.216	97.1
2335.078	114.1
2338.937	108.1
2342.792	93.1
2346.643	94.1
2350.492	89.1
2354.336	94.1
2358.178	81.1
2362.015	97.1
2365.85	88.1
2369.681	97.1
2373.508	94.1
2377.333	95.1
2381.153	90.1
2384.971	84.1
2388.785	84.1
2392.595	91.1
2396.402	95.1
2400.206	80.1
2404.007	93.1
2407.804	84.1
2411.597	86.1
2415.388	82.1
2419.174	92.1
2422.958	78.1
2426.738	87.1
2430.515	81.1
2434.289	86.1
2438.059	78.1
2441.825	78.1
2445.589	81.1
2449.349	80.1
2453.106	72.1
2456.859	76.1
2460.61	73.1
2464.356	76.1
2468.1	72.1
2471.84	72.1
2475.577	62.1
2479.311	71.1
2483.041	63.1
2486.768	68.1
2490.492	72.1
2494.213	63.1
2497.93	68.1
2501.644	66.1
2505.355	66.1
2509.062	61.1
2512.766	61.1
2516.467	52.1
2520.165	59.1
2523.859	63.1
2527.551	55.1
2531.239	55.1
2534.923	54.1
2538.605	52.1
2542.283	52.1
2545.958	51.1
2549.63	55.1
2553.299	48.1
2556.964	47.1
2560.626	52.1
2564.285	49.1
2567.941	38.1
2571.594	49.1
2575.243	46.1
2578.89	41.1
2582.533	44.1
2586.173	39.1
2589.809	48.1
2593.443	52.1
2597.073	47.1
2600.701	50.1
2604.325	34.1
2607.946	33.1
2611.564	43.1
2615.178	38.1
2618.79	42.1
2622.398	40.1
2626.004	41.1
2629.606	39.1
2633.205	32.1
2636.801	32.1
2640.394	36.1
2643.983	36.1
2647.57	26.1
2651.153	29.1
2654.734	32.1
2658.311	35.1
2661.885	38.1
2665.456	36.1
2669.025	35.1
2672.589	28.1
2676.151	33.1
2679.71	27.1
2683.266	26.1
2686.819	35.1
2690.368	27.1
2693.915	30.1
2697.458	19.1
2700.999	25.1
2704.536	30.1
2708.071	27.1
2711.602	24.1
2715.13	16.1
2718.656	21.1
2722.178	17.1
2725.697	20.1
2729.214	20.1
2732.727	25.1
2736.237	22.1
2739.744	15.1
2743.249	13.1
2746.75	18.1
2750.248	18.1
2753.743	14.1
2757.236	8.1
2760.725	12.1
2764.211	13.1
2767.695	8.1
2771.175	13.1
2774.652	13.1
2778.127	11.1
2781.598	10.1
2785.067	11.1
2788.532	12.1
2791.995	12.1
2795.455	7.1
2798.911	10.1
2802.365	14.1
2805.816	10.1
2809.264	8.1
2812.709	5.1
2816.151	9.1
2819.59	22.1
2823.026	18.1
2826.46	17.1
2829.89	12.1
2833.318	13.1
2836.742	15.1
2840.164	14.1
2843.583	11.1
2846.999	13.1
2850.412	11.1
2853.822	14.1
2857.229	17.1
2860.634	10.1
2864.035	17.1
2867.434	15.1
2870.83	21.1
2874.223	16.1
2877.613	21.1
2881	22.1
2884.385	24.1
2887.766	29.1
2891.145	19.1
2894.521	19.1
2897.894	28.1
2901.264	25.1
2904.631	19.1
2907.996	17.1
2911.358	26.1
2914.717	20.1
2918.073	21.1
2921.426	19.1
2924.777	33.1
2928.124	28.1
2931.469	27.1
2934.811	38.1
2938.15	38.1
2941.487	43.1
2944.821	32.1
2948.152	39.1
2951.48	38.1
2954.805	34.1
2958.128	29.1
2961.447	38.1
2964.765	29.1
2968.079	30.1
2971.39	27.1
2974.699	30.1
2978.005	41.1
2981.308	37.1
2984.609	31.1
2987.907	36.1
2991.202	36.1
2994.494	36.1
2997.784	25.1
3001.07	41.1
3004.355	38.1
3007.636	36.1
3010.915	43.1
3014.191	29.1
3017.464	36.1
3020.734	40.1
3024.002	44.1
3027.267	36.1
3030.53	51.1
3033.789	42.1
3037.046	39.1
3040.301	42.1
3043.552	45.1
3046.801	49.1
3050.048	48.1
3053.291	50.1
3056.532	51.1
3059.771	56.1
3063.006	61.1
3066.239	58.1
3069.469	72.1
3072.697	66.1
3075.922	72.1
3079.144	64.1
3082.364	70.1
3085.581	73.1
3088.795	79.1
3092.007	78.1
3095.216	92.1
3098.423	79.1
3101.627	83.1
3104.828	89.1
3108.026	91.1
3111.222	90.1
3114.416	100.1
3117.607	97.1
3120.795	99.1
3123.98	100.1
3127.163	112.1
3130.344	107.1
3133.521	111.1
3136.696	116.1
3139.869	126.1
3143.039	116.1
3146.206	127.1
3149.371	120.1
3152.533	129.1
3155.693	134.1
3158.85	126.1
3162.005	136.1
3165.157	126.1
3168.306	123.1
3171.453	129.1
3174.597	130.1
3177.739	130.1
3180.878	132.1
3184.014	121.1
3187.149	131.1
3190.28	132.1
3193.409	130.1
3196.536	130.1
3199.659	138.1
3202.781	138.1
3205.9	132.1
3209.016	132.1
3212.13	137.1
3215.241	134.1
3218.35	132.1
3221.456	133.1
3224.56	130.1
3227.661	118.1
3230.76	122.1
3233.856	126.1
3236.95	125.1
3240.041	116.1
3243.13	123.1
3246.216	114.1
3249.3	113.1
3252.382	113.1
3255.46	111.1
3258.537	105.1
3261.611	101.1
3264.682	97.1
3267.751	104.1
3270.818	98.1
3273.882	98.1
3276.943	95.1
3280.002	96.1
3283.059	94.1
3286.113	93.1
3289.165	92.1
3292.214	90.1
3295.261	100.1
3298.306	89.1
3301.348	94.1
3304.387	85.1
3307.425	87.1
3310.459	83.1
3313.492	86.1
3316.521	90.1
3319.549	104.1
3322.574	89.1
3325.597	87.1
3328.617	82.1
3331.635	85.1
3334.65	96.1
3337.663	76.1
3340.674	82.1
3343.682	90.1
3346.688	89.1
3349.691	88.1
3352.692	85.1
3355.691	88.1
3358.687	81.1
3361.681	88.1
3364.673	83.1
3367.662	88.1
3370.649	80.1
3373.633	77.1
3376.615	81.1
3379.595	71.1
3382.572	67.1
3385.547	73.1
3388.52	70.1
3391.49	63.1
3394.458	60.1
3397.424	69.1
3400.387	64.1
3403.348	63.1
3406.307	68.1
3409.263	62.1
3412.217	61.1
3415.168	70.1
3418.118	54.1
3421.065	55.1
3424.009	58.1
3426.951	55.1
3429.891	50.1
3432.829	51.1
3435.764	49.1
3438.697	48.1
3441.628	37.1
3444.557	48.1
3447.483	48.1
3450.407	38.1
3453.328	40.1
3456.247	28.1
3459.164	29.1
3462.079	23.1
3464.991	24.1
3467.902	19.1
3470.809	23.1
3473.715	16.1
3476.618	16.1
3479.519	8.1
3482.418	6.1
3485.315	8.1
3488.209	0.1
3491.101	8.1
3493.99	11.1
3496.878	5.1
3499.763	1.1
3502.646	1.1
3505.527	4.1
3508.405	3.1
3511.281	3.1
3514.155	-3.9
3517.027	-8.9
3519.897	-0.9
3522.764	-9.9
3525.629	-13.9
3528.492	-19.9
3531.352	-20.9
3534.211	-23.9
3537.067	-21.9
3539.921	-16.9
3542.773	-21.9
3545.622	-20.9
3548.469	-22.9
3551.315	-16.9
3554.157	-22.9
3556.998	-23.9
3559.837	-23.9
3562.673	-26.9
3565.507	-29.9
3568.339	-27.9
3571.169	-23.9
3573.996	-27.9
3576.822	-35.9
3579.645	-34.9
3582.466	-32.9
3585.285	-36.9
3588.101	-36.9
3590.916	-33.9
3593.728	-40.9
3596.538	-39.9
3599.346	-37.9
3602.152	-42.9
3604.956	-31.9
3607.757	-30.9
3610.556	-30.9
3613.354	-39.9
3616.149	-42.9
3618.942	-36.9
3621.732	-48.9
3624.521	-39.9
3627.307	-36.9
3630.092	-45.9
3632.874	-44.9
3635.654	-44.9
3638.432	-42.9
3641.208	-41.9
3643.982	-41.9
3646.753	-44.9
3649.523	-41.9
3652.29	-43.9
3655.055	-41.9
3657.818	-46.9
3660.579	-48.9
3663.338	-42.9
3666.095	-45.9
3668.849	-51.9
3671.602	-46.9
3674.352	-46.9
3677.101	-47.9
3679.847	-53.9
3682.591	-52.9
3685.333	-51.9
3688.073	-52.9
3690.811	-46.9
3693.547	-47.9
3696.281	-45.9
3699.013	-47.9
3701.742	-49.9
3704.47	-41.9
3707.195	-49.9
3709.919	-50.9
3712.64	-54.9
3715.359	-50.9
3718.076	-55.9
3720.792	-56.9
3723.505	-60.9
3726.216	-54.9
3728.925	-55.9
3731.632	-48.9
3734.336	-53.9
3737.039	-45.9
3739.74	-51.9
3742.439	-52.9
3745.136	-51.9
3747.83	-53.9
3750.523	-54.9
3753.213	-64.9
3755.902	-54.9
3758.589	-53.9
3761.273	-56.9
3763.956	-60.9
3766.636	-50.9
3769.315	-51.9
3771.991	-59.9
3774.665	-56.9
3777.338	-50.9
3780.008	-51.9
3782.677	-56.9
3785.343	-46.9
3788.007	-54.9
3790.67	-56.9
3793.33	-47.9
3795.989	-55.9
3798.645	-58.9
3801.299	-56.9
3803.952	-58.9
3806.602	-56.9
3809.251	-55.9
3811.897	-61.9
3814.542	-60.9
3817.184	-58.9
3819.825	-47.9
3822.463	-53.9
3825.1	-48.9
3827.735	-56.9
3830.367	-55.9
3832.998	-56.9
3835.627	-52.9
3838.253	-53.9
3840.878	-50.9
3843.501	-57.9
3846.122	-59.9
3848.741	-56.9
3851.358	-56.9
3853.973	-53.9
3856.586	-56.9
3859.197	-58.9
3861.806	-56.9
3864.414	-59.9
3867.019	-51.9
3869.622	-44.9
3872.224	-43.9
3874.823	-31.9
3877.421	-21.9
3880.016	-10.9
3882.61	3.1
3885.202	7.1
3887.792	19.1
3890.38	52.1
3892.966	-36.9
3895.55	-45.9
3898.132	-55.9
3900.713	-55.9
3903.291	-60.9
3905.868	-50.9
3908.442	-54.9
3911.015	-54.9
3913.586	-57.9
3916.155	-55.9
3918.722	-53.9
3921.287	-54.9
3923.85	-52.9
3926.411	-59.9
3928.971	-64.9
3931.528	-60.9
3934.084	-56.9
3936.638	-57.9
3939.19	-63.9
3941.74	-58.9
3944.288	-60.9
3946.834	-56.9
3949.378	-56.9
3951.921	-57.9
3954.462	-53.9
3957	-52.9
3959.537	-45.9
3962.072	-49.9
3964.606	-54.9
3967.137	-49.9
3969.667	-61.9
3972.194	-53.9
3974.72	-53.9
3977.244	-51.9
3979.766	-57.9
3982.286	-54.9
3984.805	-63.9
3987.321	-54.9
3989.836	-51.9
3992.349	-53.9
3994.86	-58.9
3997.369	-56.9
3999.877	-55.9
4002.382	-55.9
4004.886	-51.9
4007.388	-61.9
4009.888	-56.9
4012.386	-60.9
4014.883	-52.9
4017.377	-50.9
4019.87	-55.9
4022.361	-57.9
4024.85	-50.9
4027.338	-54.9
4029.823	-58.9
4032.307	-55.9
4034.789	-56.9
4037.269	-59.9
4039.747	-54.9
4042.224	-55.9
4044.699	-60.9
4047.172	-59.9
4049.643	-56.9
4052.112	-57.9
4054.58	-60.9
4057.046	-50.9
4059.51	-60.9
4061.972	-56.9
4064.432	-50.9
4066.891	-52.9
4069.348	-46.9
4071.803	-46.9
4074.256	-53.9
4076.708	-60.9
4079.158	-62.9
4081.606	-54.9
4084.052	-60.9
4086.497	-53.9
4088.939	-55.9
4091.38	-63.9
4093.819	-64.9
4096.257	-59.9
4098.693	-60.9
4101.127	-53.9
4103.559	-61.9
4105.989	26.1
4108.418	18.1
4110.845	16.1
4113.27	18.1
4115.694	21.1
4118.115	17.1
4120.535	-55.9
4122.954	-55.9
4125.37	-55.9
4127.785	-54.9
4130.198	-52.9
4132.609	-56.9
4135.019	-54.9
4137.427	-59.9
4139.833	-56.9
4142.237	-55.9
