Data from 2018-3-7_conc=6_n=5_RamanShift_05.txt Node
Date: Wed Mar 07 13:11:22 IST 2018
User: aro
Spectrometer: QEPB0276
Trigger mode: 0
Integration Time (sec): 3.000000E1
Scans to average: 1
Electric dark correction enabled: true
Nonlinearity correction enabled: false
Boxcar width: 0
XAxis mode: Raman Shifts
Number of Pixels in Spectrum: 1044
>>>>>Begin Spectral Data<<<<<
160.701	7.1
166.742	19.1
172.777	47.1
178.805	154.1
184.826	404.1
190.841	872.1
196.849	1461.1
202.85	1927.1
208.845	2094.1
214.833	2099.1
220.815	2075.1
226.789	2075.1
232.758	2093.1
238.719	2056.1
244.674	2077.1
250.623	2043.1
256.565	2022.1
262.5	1985.1
268.429	1960.1
274.351	1951.1
280.267	1925.1
286.176	1932.1
292.079	1933.1
297.975	1914.1
303.865	1906.1
309.748	1906.1
315.625	1885.1
321.495	1889.1
327.359	1887.1
333.217	1876.1
339.068	1912.1
344.912	1922.1
350.751	1904.1
356.583	1906.1
362.408	1903.1
368.227	1917.1
374.04	1910.1
379.847	1925.1
385.647	1925.1
391.44	1935.1
397.228	1928.1
403.009	1945.1
408.784	1947.1
414.553	1984.1
420.315	1983.1
426.071	1956.1
431.821	1968.1
437.565	1968.1
443.302	1975.1
449.033	1944.1
454.758	1950.1
460.477	1940.1
466.189	1913.1
471.896	1907.1
477.596	1892.1
483.29	1888.1
488.978	1879.1
494.66	1883.1
500.335	1846.1
506.005	1824.1
511.668	1742.1
517.325	1702.1
522.977	1648.1
528.622	1628.1
534.261	1608.1
539.894	1561.1
545.521	1587.1
551.141	1562.1
556.756	1556.1
562.365	1550.1
567.968	1520.1
573.565	1500.1
579.155	1508.1
584.74	1502.1
590.319	1490.1
595.892	1500.1
601.459	1481.1
607.02	1474.1
612.575	1488.1
618.124	1460.1
623.667	1448.1
629.204	1441.1
634.735	1422.1
640.261	1420.1
645.781	1416.1
651.294	1414.1
656.802	1388.1
662.304	1396.1
667.8	1405.1
673.29	1381.1
678.775	1382.1
684.254	1374.1
689.726	1361.1
695.193	1377.1
700.655	1367.1
706.11	1336.1
711.56	1345.1
717.004	1342.1
722.442	1324.1
727.874	1301.1
733.301	1303.1
738.722	1304.1
744.137	1315.1
749.547	1294.1
754.951	1300.1
760.349	1308.1
765.741	1317.1
771.128	1307.1
776.509	1327.1
781.885	1332.1
787.254	1329.1
792.618	1329.1
797.977	1325.1
803.33	1306.1
808.677	1311.1
814.019	1310.1
819.355	1284.1
824.686	1261.1
830.011	1271.1
835.33	1255.1
840.644	1258.1
845.952	1264.1
851.255	1268.1
856.552	1265.1
861.844	1257.1
867.13	1236.1
872.41	1237.1
877.686	1221.1
882.955	1236.1
888.219	1219.1
893.478	1204.1
898.731	1186.1
903.979	1170.1
909.221	1168.1
914.458	1146.1
919.69	1152.1
924.916	1165.1
930.136	1162.1
935.351	1158.1
940.561	1166.1
945.766	1159.1
950.965	1147.1
956.158	1142.1
961.347	1144.1
966.529	1128.1
971.707	1094.1
976.879	1074.1
982.046	1080.1
987.208	1074.1
992.364	1075.1
997.515	1089.1
1002.66	1091.1
1007.801	1102.1
1012.936	1100.1
1018.066	1105.1
1023.19	1104.1
1028.309	1105.1
1033.423	1100.1
1038.532	1091.1
1043.636	1082.1
1048.734	1071.1
1053.827	1058.1
1058.915	1057.1
1063.998	1037.1
1069.075	1038.1
1074.147	1040.1
1079.214	1040.1
1084.276	1059.1
1089.333	1054.1
1094.385	1061.1
1099.431	1054.1
1104.472	1061.1
1109.509	1051.1
1114.54	1029.1
1119.565	1009.1
1124.586	994.1
1129.602	1000.1
1134.613	995.1
1139.618	956.1
1144.619	977.1
1149.614	976.1
1154.604	959.1
1159.589	981.1
1164.57	995.1
1169.545	994.1
1174.515	990.1
1179.48	981.1
1184.44	985.1
1189.395	973.1
1194.345	960.1
1199.29	946.1
1204.23	954.1
1209.165	953.1
1214.095	958.1
1219.021	955.1
1223.941	973.1
1228.856	979.1
1233.766	979.1
1238.672	981.1
1243.572	972.1
1248.467	978.1
1253.358	962.1
1258.244	950.1
1263.124	945.1
1268	929.1
1272.871	900.1
1277.737	891.1
1282.599	883.1
1287.455	891.1
1292.306	907.1
1297.153	904.1
1301.995	909.1
1306.832	909.1
1311.664	904.1
1316.491	915.1
1321.314	919.1
1326.132	918.1
1330.945	880.1
1335.753	885.1
1340.556	863.1
1345.354	846.1
1350.148	832.1
1354.937	817.1
1359.722	796.1
1364.501	768.1
1369.276	749.1
1374.046	750.1
1378.811	719.1
1383.572	738.1
1388.327	734.1
1393.079	734.1
1397.825	737.1
1402.567	740.1
1407.304	742.1
1412.036	750.1
1416.764	762.1
1421.487	760.1
1426.205	765.1
1430.919	750.1
1435.628	757.1
1440.333	771.1
1445.032	777.1
1449.727	783.1
1454.418	776.1
1459.104	774.1
1463.785	764.1
1468.462	751.1
1473.134	743.1
1477.802	697.1
1482.465	691.1
1487.123	688.1
1491.777	671.1
1496.426	656.1
1501.071	651.1
1505.711	630.1
1510.347	634.1
1514.978	629.1
1519.604	626.1
1524.226	616.1
1528.844	615.1
1533.457	609.1
1538.065	608.1
1542.669	620.1
1547.269	602.1
1551.864	625.1
1556.454	640.1
1561.041	644.1
1565.622	653.1
1570.199	642.1
1574.772	649.1
1579.34	672.1
1583.904	661.1
1588.464	678.1
1593.019	678.1
1597.569	684.1
1602.115	687.1
1606.657	683.1
1611.195	665.1
1615.728	666.1
1620.256	665.1
1624.78	676.1
1629.3	668.1
1633.816	677.1
1638.327	677.1
1642.834	684.1
1647.336	666.1
1651.834	663.1
1656.328	674.1
1660.817	656.1
1665.302	658.1
1669.783	648.1
1674.259	627.1
1678.732	616.1
1683.199	590.1
1687.663	570.1
1692.122	540.1
1696.577	508.1
1701.028	490.1
1705.474	459.1
1709.917	449.1
1714.355	437.1
1718.788	435.1
1723.218	444.1
1727.643	437.1
1732.064	442.1
1736.481	442.1
1740.893	429.1
1745.301	429.1
1749.705	424.1
1754.105	402.1
1758.501	407.1
1762.893	391.1
1767.28	377.1
1771.663	386.1
1776.042	380.1
1780.417	366.1
1784.787	354.1
1789.154	350.1
1793.516	344.1
1797.874	340.1
1802.228	340.1
1806.578	311.1
1810.924	318.1
1815.266	327.1
1819.603	325.1
1823.937	317.1
1828.266	324.1
1832.591	327.1
1836.913	318.1
1841.23	343.1
1845.543	329.1
1849.852	344.1
1854.156	337.1
1858.457	347.1
1862.754	342.1
1867.047	334.1
1871.335	347.1
1875.62	339.1
1879.9	343.1
1884.177	328.1
1888.449	327.1
1892.718	323.1
1896.982	318.1
1901.243	306.1
1905.499	309.1
1909.752	296.1
1914	300.1
1918.245	287.1
1922.485	274.1
1926.722	276.1
1930.954	272.1
1935.183	271.1
1939.408	266.1
1943.628	268.1
1947.845	265.1
1952.058	257.1
1956.267	247.1
1960.472	254.1
1964.673	247.1
1968.87	249.1
1973.063	253.1
1977.252	255.1
1981.438	250.1
1985.619	253.1
1989.797	250.1
1993.971	258.1
1998.14	260.1
2002.306	258.1
2006.469	261.1
2010.627	257.1
2014.781	271.1
2018.932	258.1
2023.078	261.1
2027.221	255.1
2031.36	250.1
2035.495	254.1
2039.627	246.1
2043.754	245.1
2047.878	243.1
2051.998	240.1
2056.114	232.1
2060.226	236.1
2064.334	235.1
2068.439	223.1
2072.54	225.1
2076.637	233.1
2080.73	233.1
2084.82	230.1
2088.906	219.1
2092.988	226.1
2097.066	223.1
2101.14	213.1
2105.211	208.1
2109.278	204.1
2113.342	201.1
2117.401	196.1
2121.457	195.1
2125.509	196.1
2129.558	193.1
2133.602	198.1
2137.643	202.1
2141.681	195.1
2145.714	205.1
2149.744	207.1
2153.77	205.1
2157.793	207.1
2161.812	212.1
2165.827	212.1
2169.838	202.1
2173.846	200.1
2177.851	193.1
2181.851	191.1
2185.848	201.1
2189.841	191.1
2193.831	187.1
2197.817	194.1
2201.799	195.1
2205.778	192.1
2209.753	188.1
2213.725	185.1
2217.693	189.1
2221.657	184.1
2225.618	181.1
2229.575	175.1
2233.529	181.1
2237.479	186.1
2241.425	176.1
2245.368	179.1
2249.307	181.1
2253.243	164.1
2257.175	169.1
2261.104	163.1
2265.029	170.1
2268.95	168.1
2272.868	172.1
2276.783	165.1
2280.694	156.1
2284.601	151.1
2288.505	161.1
2292.405	158.1
2296.302	155.1
2300.195	155.1
2304.085	141.1
2307.971	145.1
2311.854	142.1
2315.734	145.1
2319.609	144.1
2323.482	146.1
2327.351	146.1
2331.216	153.1
2335.078	164.1
2338.937	157.1
2342.792	147.1
2346.643	149.1
2350.492	144.1
2354.336	152.1
2358.178	131.1
2362.015	143.1
2365.85	144.1
2369.681	144.1
2373.508	152.1
2377.333	152.1
2381.153	149.1
2384.971	147.1
2388.785	140.1
2392.595	142.1
2396.402	144.1
2400.206	140.1
2404.007	137.1
2407.804	141.1
2411.597	139.1
2415.388	138.1
2419.174	153.1
2422.958	141.1
2426.738	142.1
2430.515	143.1
2434.289	144.1
2438.059	133.1
2441.825	134.1
2445.589	139.1
2449.349	126.1
2453.106	141.1
2456.859	132.1
2460.61	132.1
2464.356	131.1
2468.1	132.1
2471.84	122.1
2475.577	121.1
2479.311	122.1
2483.041	122.1
2486.768	120.1
2490.492	124.1
2494.213	122.1
2497.93	116.1
2501.644	121.1
2505.355	110.1
2509.062	115.1
2512.766	109.1
2516.467	116.1
2520.165	109.1
2523.859	114.1
2527.551	109.1
2531.239	100.1
2534.923	96.1
2538.605	100.1
2542.283	95.1
2545.958	98.1
2549.63	95.1
2553.299	92.1
2556.964	86.1
2560.626	94.1
2564.285	90.1
2567.941	86.1
2571.594	85.1
2575.243	87.1
2578.89	89.1
2582.533	75.1
2586.173	88.1
2589.809	86.1
2593.443	88.1
2597.073	76.1
2600.701	84.1
2604.325	76.1
2607.946	67.1
2611.564	79.1
2615.178	72.1
2618.79	78.1
2622.398	76.1
2626.004	71.1
2629.606	74.1
2633.205	74.1
2636.801	72.1
2640.394	77.1
2643.983	73.1
2647.57	75.1
2651.153	64.1
2654.734	69.1
2658.311	69.1
2661.885	68.1
2665.456	72.1
2669.025	72.1
2672.589	65.1
2676.151	64.1
2679.71	63.1
2683.266	62.1
2686.819	64.1
2690.368	59.1
2693.915	68.1
2697.458	61.1
2700.999	69.1
2704.536	56.1
2708.071	59.1
2711.602	47.1
2715.13	47.1
2718.656	55.1
2722.178	50.1
2725.697	45.1
2729.214	45.1
2732.727	53.1
2736.237	52.1
2739.744	47.1
2743.249	49.1
2746.75	49.1
2750.248	44.1
2753.743	42.1
2757.236	41.1
2760.725	36.1
2764.211	33.1
2767.695	26.1
2771.175	33.1
2774.652	33.1
2778.127	29.1
2781.598	33.1
2785.067	29.1
2788.532	35.1
2791.995	35.1
2795.455	29.1
2798.911	33.1
2802.365	38.1
2805.816	39.1
2809.264	33.1
2812.709	36.1
2816.151	45.1
2819.59	49.1
2823.026	42.1
2826.46	39.1
2829.89	37.1
2833.318	43.1
2836.742	39.1
2840.164	32.1
2843.583	32.1
2846.999	38.1
2850.412	35.1
2853.822	36.1
2857.229	46.1
2860.634	38.1
2864.035	38.1
2867.434	39.1
2870.83	44.1
2874.223	43.1
2877.613	49.1
2881	43.1
2884.385	56.1
2887.766	56.1
2891.145	51.1
2894.521	56.1
2897.894	51.1
2901.264	51.1
2904.631	47.1
2907.996	46.1
2911.358	55.1
2914.717	52.1
2918.073	52.1
2921.426	51.1
2924.777	53.1
2928.124	50.1
2931.469	58.1
2934.811	60.1
2938.15	67.1
2941.487	75.1
2944.821	66.1
2948.152	72.1
2951.48	63.1
2954.805	71.1
2958.128	61.1
2961.447	66.1
2964.765	70.1
2968.079	61.1
2971.39	58.1
2974.699	59.1
2978.005	68.1
2981.308	59.1
2984.609	58.1
2987.907	60.1
2991.202	67.1
2994.494	57.1
2997.784	45.1
3001.07	57.1
3004.355	60.1
3007.636	62.1
3010.915	59.1
3014.191	56.1
3017.464	60.1
3020.734	69.1
3024.002	80.1
3027.267	72.1
3030.53	73.1
3033.789	79.1
3037.046	75.1
3040.301	76.1
3043.552	82.1
3046.801	85.1
3050.048	86.1
3053.291	84.1
3056.532	90.1
3059.771	99.1
3063.006	99.1
3066.239	103.1
3069.469	109.1
3072.697	107.1
3075.922	115.1
3079.144	114.1
3082.364	118.1
3085.581	118.1
3088.795	122.1
3092.007	125.1
3095.216	136.1
3098.423	129.1
3101.627	129.1
3104.828	142.1
3108.026	146.1
3111.222	148.1
3114.416	152.1
3117.607	160.1
3120.795	148.1
3123.98	166.1
3127.163	169.1
3130.344	165.1
3133.521	169.1
3136.696	172.1
3139.869	186.1
3143.039	176.1
3146.206	185.1
3149.371	178.1
3152.533	187.1
3155.693	191.1
3158.85	191.1
3162.005	184.1
3165.157	194.1
3168.306	193.1
3171.453	197.1
3174.597	189.1
3177.739	195.1
3180.878	194.1
3184.014	192.1
3187.149	197.1
3190.28	198.1
3193.409	203.1
3196.536	188.1
3199.659	206.1
3202.781	203.1
3205.9	199.1
3209.016	194.1
3212.13	197.1
3215.241	200.1
3218.35	197.1
3221.456	190.1
3224.56	193.1
3227.661	182.1
3230.76	177.1
3233.856	173.1
3236.95	176.1
3240.041	174.1
3243.13	175.1
3246.216	163.1
3249.3	160.1
3252.382	163.1
3255.46	164.1
3258.537	161.1
3261.611	158.1
3264.682	161.1
3267.751	166.1
3270.818	141.1
3273.882	148.1
3276.943	153.1
3280.002	151.1
3283.059	147.1
3286.113	147.1
3289.165	138.1
3292.214	143.1
3295.261	143.1
3298.306	144.1
3301.348	136.1
3304.387	135.1
3307.425	136.1
3310.459	129.1
3313.492	134.1
3316.521	133.1
3319.549	142.1
3322.574	130.1
3325.597	140.1
3328.617	133.1
3331.635	137.1
3334.65	141.1
3337.663	128.1
3340.674	135.1
3343.682	136.1
3346.688	139.1
3349.691	143.1
3352.692	137.1
3355.691	141.1
3358.687	133.1
3361.681	133.1
3364.673	133.1
3367.662	132.1
3370.649	126.1
3373.633	120.1
3376.615	121.1
3379.595	114.1
3382.572	110.1
3385.547	116.1
3388.52	116.1
3391.49	107.1
3394.458	101.1
3397.424	109.1
3400.387	109.1
3403.348	106.1
3406.307	100.1
3409.263	103.1
3412.217	103.1
3415.168	109.1
3418.118	99.1
3421.065	91.1
3424.009	98.1
3426.951	93.1
3429.891	84.1
3432.829	85.1
3435.764	82.1
3438.697	85.1
3441.628	70.1
3444.557	76.1
3447.483	69.1
3450.407	56.1
3453.328	66.1
3456.247	63.1
3459.164	58.1
3462.079	52.1
3464.991	51.1
3467.902	48.1
3470.809	51.1
3473.715	43.1
3476.618	37.1
3479.519	39.1
3482.418	36.1
3485.315	35.1
3488.209	25.1
3491.101	25.1
3493.99	29.1
3496.878	20.1
3499.763	14.1
3502.646	20.1
3505.527	17.1
3508.405	12.1
3511.281	20.1
3514.155	4.1
3517.027	5.1
3519.897	6.1
3522.764	3.1
3525.629	3.1
3528.492	-6.9
3531.352	-6.9
3534.211	-7.9
3537.067	-5.9
3539.921	-8.9
3542.773	-11.9
3545.622	-7.9
3548.469	-9.9
3551.315	-11.9
3554.157	-17.9
3556.998	-15.9
3559.837	-13.9
3562.673	-19.9
3565.507	-12.9
3568.339	-17.9
3571.169	-17.9
3573.996	-17.9
3576.822	-29.9
3579.645	-26.9
3582.466	-27.9
3585.285	-26.9
3588.101	-32.9
3590.916	-26.9
3593.728	-29.9
3596.538	-30.9
3599.346	-32.9
3602.152	-34.9
3604.956	-30.9
3607.757	-26.9
3610.556	-26.9
3613.354	-31.9
3616.149	-37.9
3618.942	-33.9
3621.732	-31.9
3624.521	-30.9
3627.307	-38.9
3630.092	-39.9
3632.874	-38.9
3635.654	-41.9
3638.432	-39.9
3641.208	-40.9
3643.982	-39.9
3646.753	-41.9
3649.523	-41.9
3652.29	-43.9
3655.055	-40.9
3657.818	-42.9
3660.579	-40.9
3663.338	-38.9
3666.095	-41.9
3668.849	-48.9
3671.602	-45.9
3674.352	-43.9
3677.101	-42.9
3679.847	-40.9
3682.591	-50.9
3685.333	-41.9
3688.073	-49.9
3690.811	-43.9
3693.547	-51.9
3696.281	-39.9
3699.013	-46.9
3701.742	-52.9
3704.47	-46.9
3707.195	-53.9
3709.919	-52.9
3712.64	-48.9
3715.359	-51.9
3718.076	-50.9
3720.792	-44.9
3723.505	-46.9
3726.216	-42.9
3728.925	-55.9
3731.632	-48.9
3734.336	-50.9
3737.039	-44.9
3739.74	-49.9
3742.439	-60.9
3745.136	-57.9
3747.83	-54.9
3750.523	-53.9
3753.213	-56.9
3755.902	-49.9
3758.589	-57.9
3761.273	-50.9
3763.956	-49.9
3766.636	-50.9
3769.315	-48.9
3771.991	-51.9
3774.665	-57.9
3777.338	-49.9
3780.008	-52.9
3782.677	-59.9
3785.343	-47.9
3788.007	-47.9
3790.67	-49.9
3793.33	-47.9
3795.989	-52.9
3798.645	-58.9
3801.299	-47.9
3803.952	-52.9
3806.602	-57.9
3809.251	-56.9
3811.897	-60.9
3814.542	-60.9
3817.184	-56.9
3819.825	-48.9
3822.463	-59.9
3825.1	-50.9
3827.735	-58.9
3830.367	-55.9
3832.998	-56.9
3835.627	-48.9
3838.253	-50.9
3840.878	-47.9
3843.501	-45.9
3846.122	-53.9
3848.741	-53.9
3851.358	-52.9
3853.973	-50.9
3856.586	-49.9
3859.197	-53.9
3861.806	-48.9
3864.414	-61.9
3867.019	-57.9
3869.622	-51.9
3872.224	-48.9
3874.823	-39.9
3877.421	-36.9
3880.016	-19.9
3882.61	-7.9
3885.202	-8.9
3887.792	-8.9
3890.38	-20.9
3892.966	-43.9
3895.55	-41.9
3898.132	-53.9
3900.713	-53.9
3903.291	-55.9
3905.868	-52.9
3908.442	-56.9
3911.015	-55.9
3913.586	-56.9
3916.155	-55.9
3918.722	-55.9
3921.287	-55.9
3923.85	-52.9
3926.411	-56.9
3928.971	-63.9
3931.528	-56.9
3934.084	-56.9
3936.638	-51.9
3939.19	-58.9
3941.74	-48.9
3944.288	-49.9
3946.834	-52.9
3949.378	-50.9
3951.921	-56.9
3954.462	-56.9
3957	-50.9
3959.537	-45.9
3962.072	-51.9
3964.606	-52.9
3967.137	-48.9
3969.667	-56.9
3972.194	-52.9
3974.72	-52.9
3977.244	-56.9
3979.766	-55.9
3982.286	-56.9
3984.805	-63.9
3987.321	-53.9
3989.836	-48.9
3992.349	-53.9
3994.86	-52.9
3997.369	-54.9
3999.877	-56.9
4002.382	-49.9
4004.886	-47.9
4007.388	-55.9
4009.888	-57.9
4012.386	-48.9
4014.883	-57.9
4017.377	-50.9
4019.87	-53.9
4022.361	-59.9
4024.85	-50.9
4027.338	-59.9
4029.823	-53.9
4032.307	-56.9
4034.789	-52.9
4037.269	-55.9
4039.747	-54.9
4042.224	-54.9
4044.699	-58.9
4047.172	-59.9
4049.643	-52.9
4052.112	-56.9
4054.58	-50.9
4057.046	-48.9
4059.51	-55.9
4061.972	-52.9
4064.432	-50.9
4066.891	-50.9
4069.348	-46.9
4071.803	-48.9
4074.256	-55.9
4076.708	-56.9
4079.158	-56.9
4081.606	-53.9
4084.052	-54.9
4086.497	-52.9
4088.939	-55.9
4091.38	-58.9
4093.819	-59.9
4096.257	-57.9
4098.693	-58.9
4101.127	-48.9
4103.559	-58.9
4105.989	3.1
4108.418	-4.9
4110.845	-9.9
4113.27	-5.9
4115.694	4.1
4118.115	2.1
4120.535	-56.9
4122.954	-54.9
4125.37	-49.9
4127.785	-49.9
4130.198	-50.9
4132.609	-54.9
4135.019	-56.9
4137.427	-58.9
4139.833	-53.9
4142.237	-57.9
