Data from 2018-3-7_conc=2_n=4_RamanShift_01.txt Node
Date: Wed Mar 07 10:48:22 IST 2018
User: aro
Spectrometer: QEPB0276
Trigger mode: 0
Integration Time (sec): 3.000000E1
Scans to average: 1
Electric dark correction enabled: true
Nonlinearity correction enabled: false
Boxcar width: 0
XAxis mode: Raman Shifts
Number of Pixels in Spectrum: 1044
>>>>>Begin Spectral Data<<<<<
160.701	20.1
166.742	29.1
172.777	58.1
178.805	161.1
184.826	398.1
190.841	827.1
196.849	1355.1
202.85	1757.1
208.845	1918.1
214.833	1945.1
220.815	1924.1
226.789	1915.1
232.758	1910.1
238.719	1912.1
244.674	1926.1
250.623	1909.1
256.565	1887.1
262.5	1867.1
268.429	1845.1
274.351	1855.1
280.267	1839.1
286.176	1820.1
292.079	1848.1
297.975	1857.1
303.865	1844.1
309.748	1830.1
315.625	1842.1
321.495	1845.1
327.359	1839.1
333.217	1849.1
339.068	1840.1
344.912	1863.1
350.751	1866.1
356.583	1854.1
362.408	1874.1
368.227	1880.1
374.04	1888.1
379.847	1925.1
385.647	1912.1
391.44	1912.1
397.228	1907.1
403.009	1956.1
408.784	1945.1
414.553	1957.1
420.315	1950.1
426.071	1967.1
431.821	1955.1
437.565	1967.1
443.302	1961.1
449.033	1971.1
454.758	1941.1
460.477	1929.1
466.189	1907.1
471.896	1875.1
477.596	1868.1
483.29	1855.1
488.978	1850.1
494.66	1867.1
500.335	1813.1
506.005	1762.1
511.668	1668.1
517.325	1607.1
522.977	1549.1
528.622	1488.1
534.261	1478.1
539.894	1438.1
545.521	1424.1
551.141	1409.1
556.756	1387.1
562.365	1379.1
567.968	1359.1
573.565	1353.1
579.155	1357.1
584.74	1355.1
590.319	1355.1
595.892	1355.1
601.459	1337.1
607.02	1337.1
612.575	1324.1
618.124	1311.1
623.667	1289.1
629.204	1279.1
634.735	1265.1
640.261	1269.1
645.781	1236.1
651.294	1227.1
656.802	1228.1
662.304	1224.1
667.8	1227.1
673.29	1222.1
678.775	1213.1
684.254	1222.1
689.726	1206.1
695.193	1185.1
700.655	1193.1
706.11	1183.1
711.56	1167.1
717.004	1176.1
722.442	1163.1
727.874	1153.1
733.301	1162.1
738.722	1135.1
744.137	1139.1
749.547	1144.1
754.951	1138.1
760.349	1142.1
765.741	1144.1
771.128	1138.1
776.509	1161.1
781.885	1187.1
787.254	1179.1
792.618	1171.1
797.977	1190.1
803.33	1172.1
808.677	1161.1
814.019	1148.1
819.355	1149.1
824.686	1144.1
830.011	1126.1
835.33	1116.1
840.644	1101.1
845.952	1130.1
851.255	1099.1
856.552	1112.1
861.844	1095.1
867.13	1088.1
872.41	1087.1
877.686	1090.1
882.955	1078.1
888.219	1069.1
893.478	1037.1
898.731	1017.1
903.979	1011.1
909.221	994.1
914.458	986.1
919.69	1000.1
924.916	1005.1
930.136	993.1
935.351	1007.1
940.561	1017.1
945.766	1000.1
950.965	994.1
956.158	993.1
961.347	966.1
966.529	973.1
971.707	948.1
976.879	923.1
982.046	925.1
987.208	926.1
992.364	917.1
997.515	926.1
1002.66	923.1
1007.801	945.1
1012.936	948.1
1018.066	953.1
1023.19	970.1
1028.309	933.1
1033.423	944.1
1038.532	950.1
1043.636	940.1
1048.734	930.1
1053.827	924.1
1058.915	922.1
1063.998	899.1
1069.075	907.1
1074.147	905.1
1079.214	901.1
1084.276	912.1
1089.333	905.1
1094.385	916.1
1099.431	895.1
1104.472	916.1
1109.509	909.1
1114.54	891.1
1119.565	882.1
1124.586	855.1
1129.602	846.1
1134.613	848.1
1139.618	839.1
1144.619	837.1
1149.614	844.1
1154.604	842.1
1159.589	852.1
1164.57	847.1
1169.545	843.1
1174.515	849.1
1179.48	841.1
1184.44	825.1
1189.395	822.1
1194.345	806.1
1199.29	805.1
1204.23	824.1
1209.165	815.1
1214.095	813.1
1219.021	825.1
1223.941	835.1
1228.856	843.1
1233.766	838.1
1238.672	844.1
1243.572	829.1
1248.467	828.1
1253.358	805.1
1258.244	806.1
1263.124	780.1
1268	770.1
1272.871	763.1
1277.737	764.1
1282.599	768.1
1287.455	757.1
1292.306	769.1
1297.153	763.1
1301.995	765.1
1306.832	772.1
1311.664	767.1
1316.491	782.1
1321.314	764.1
1326.132	757.1
1330.945	740.1
1335.753	720.1
1340.556	721.1
1345.354	710.1
1350.148	692.1
1354.937	687.1
1359.722	660.1
1364.501	645.1
1369.276	640.1
1374.046	627.1
1378.811	631.1
1383.572	619.1
1388.327	618.1
1393.079	628.1
1397.825	630.1
1402.567	628.1
1407.304	628.1
1412.036	639.1
1416.764	632.1
1421.487	640.1
1426.205	631.1
1430.919	634.1
1435.628	645.1
1440.333	645.1
1445.032	647.1
1449.727	661.1
1454.418	662.1
1459.104	642.1
1463.785	625.1
1468.462	622.1
1473.134	605.1
1477.802	587.1
1482.465	576.1
1487.123	567.1
1491.777	544.1
1496.426	542.1
1501.071	531.1
1505.711	521.1
1510.347	520.1
1514.978	524.1
1519.604	522.1
1524.226	529.1
1528.844	516.1
1533.457	523.1
1538.065	516.1
1542.669	516.1
1547.269	508.1
1551.864	523.1
1556.454	526.1
1561.041	525.1
1565.622	544.1
1570.199	540.1
1574.772	547.1
1579.34	558.1
1583.904	544.1
1588.464	563.1
1593.019	569.1
1597.569	558.1
1602.115	566.1
1606.657	546.1
1611.195	560.1
1615.728	568.1
1620.256	565.1
1624.78	543.1
1629.3	565.1
1633.816	557.1
1638.327	562.1
1642.834	552.1
1647.336	551.1
1651.834	549.1
1656.328	555.1
1660.817	549.1
1665.302	541.1
1669.783	526.1
1674.259	507.1
1678.732	509.1
1683.199	471.1
1687.663	468.1
1692.122	441.1
1696.577	433.1
1701.028	404.1
1705.474	381.1
1709.917	379.1
1714.355	371.1
1718.788	366.1
1723.218	363.1
1727.643	373.1
1732.064	374.1
1736.481	368.1
1740.893	358.1
1745.301	352.1
1749.705	353.1
1754.105	340.1
1758.501	324.1
1762.893	319.1
1767.28	313.1
1771.663	310.1
1776.042	311.1
1780.417	299.1
1784.787	298.1
1789.154	291.1
1793.516	282.1
1797.874	276.1
1802.228	291.1
1806.578	283.1
1810.924	275.1
1815.266	286.1
1819.603	275.1
1823.937	283.1
1828.266	278.1
1832.591	288.1
1836.913	275.1
1841.23	284.1
1845.543	268.1
1849.852	289.1
1854.156	283.1
1858.457	286.1
1862.754	288.1
1867.047	277.1
1871.335	278.1
1875.62	273.1
1879.9	278.1
1884.177	264.1
1888.449	262.1
1892.718	271.1
1896.982	258.1
1901.243	244.1
1905.499	251.1
1909.752	240.1
1914	238.1
1918.245	234.1
1922.485	233.1
1926.722	219.1
1930.954	220.1
1935.183	225.1
1939.408	219.1
1943.628	211.1
1947.845	218.1
1952.058	215.1
1956.267	221.1
1960.472	218.1
1964.673	210.1
1968.87	208.1
1973.063	209.1
1977.252	213.1
1981.438	217.1
1985.619	203.1
1989.797	204.1
1993.971	211.1
1998.14	217.1
2002.306	221.1
2006.469	213.1
2010.627	216.1
2014.781	213.1
2018.932	212.1
2023.078	207.1
2027.221	210.1
2031.36	209.1
2035.495	201.1
2039.627	191.1
2043.754	200.1
2047.878	194.1
2051.998	201.1
2056.114	192.1
2060.226	191.1
2064.334	198.1
2068.439	185.1
2072.54	185.1
2076.637	179.1
2080.73	183.1
2084.82	177.1
2088.906	174.1
2092.988	171.1
2097.066	178.1
2101.14	173.1
2105.211	169.1
2109.278	168.1
2113.342	164.1
2117.401	170.1
2121.457	161.1
2125.509	166.1
2129.558	161.1
2133.602	165.1
2137.643	162.1
2141.681	157.1
2145.714	168.1
2149.744	158.1
2153.77	168.1
2157.793	164.1
2161.812	163.1
2165.827	164.1
2169.838	156.1
2173.846	156.1
2177.851	149.1
2181.851	152.1
2185.848	159.1
2189.841	151.1
2193.831	151.1
2197.817	150.1
2201.799	156.1
2205.778	150.1
2209.753	155.1
2213.725	146.1
2217.693	151.1
2221.657	142.1
2225.618	140.1
2229.575	138.1
2233.529	133.1
2237.479	140.1
2241.425	141.1
2245.368	132.1
2249.307	139.1
2253.243	127.1
2257.175	129.1
2261.104	118.1
2265.029	132.1
2268.95	129.1
2272.868	119.1
2276.783	117.1
2280.694	121.1
2284.601	114.1
2288.505	124.1
2292.405	114.1
2296.302	122.1
2300.195	114.1
2304.085	112.1
2307.971	111.1
2311.854	111.1
2315.734	99.1
2319.609	112.1
2323.482	109.1
2327.351	121.1
2331.216	124.1
2335.078	140.1
2338.937	117.1
2342.792	110.1
2346.643	114.1
2350.492	109.1
2354.336	106.1
2358.178	96.1
2362.015	103.1
2365.85	111.1
2369.681	111.1
2373.508	115.1
2377.333	110.1
2381.153	111.1
2384.971	106.1
2388.785	104.1
2392.595	105.1
2396.402	104.1
2400.206	103.1
2404.007	99.1
2407.804	102.1
2411.597	101.1
2415.388	104.1
2419.174	114.1
2422.958	96.1
2426.738	107.1
2430.515	94.1
2434.289	95.1
2438.059	91.1
2441.825	89.1
2445.589	90.1
2449.349	95.1
2453.106	99.1
2456.859	96.1
2460.61	87.1
2464.356	84.1
2468.1	91.1
2471.84	84.1
2475.577	81.1
2479.311	82.1
2483.041	77.1
2486.768	78.1
2490.492	75.1
2494.213	71.1
2497.93	83.1
2501.644	77.1
2505.355	73.1
2509.062	74.1
2512.766	77.1
2516.467	74.1
2520.165	71.1
2523.859	73.1
2527.551	63.1
2531.239	64.1
2534.923	61.1
2538.605	59.1
2542.283	63.1
2545.958	62.1
2549.63	62.1
2553.299	58.1
2556.964	54.1
2560.626	60.1
2564.285	52.1
2567.941	58.1
2571.594	55.1
2575.243	55.1
2578.89	52.1
2582.533	53.1
2586.173	51.1
2589.809	56.1
2593.443	58.1
2597.073	54.1
2600.701	55.1
2604.325	42.1
2607.946	39.1
2611.564	47.1
2615.178	49.1
2618.79	47.1
2622.398	43.1
2626.004	42.1
2629.606	51.1
2633.205	47.1
2636.801	43.1
2640.394	42.1
2643.983	43.1
2647.57	36.1
2651.153	39.1
2654.734	42.1
2658.311	35.1
2661.885	40.1
2665.456	39.1
2669.025	47.1
2672.589	38.1
2676.151	40.1
2679.71	35.1
2683.266	36.1
2686.819	35.1
2690.368	35.1
2693.915	33.1
2697.458	27.1
2700.999	32.1
2704.536	32.1
2708.071	40.1
2711.602	28.1
2715.13	28.1
2718.656	28.1
2722.178	20.1
2725.697	33.1
2729.214	26.1
2732.727	23.1
2736.237	29.1
2739.744	20.1
2743.249	18.1
2746.75	29.1
2750.248	20.1
2753.743	21.1
2757.236	20.1
2760.725	15.1
2764.211	16.1
2767.695	15.1
2771.175	9.1
2774.652	12.1
2778.127	15.1
2781.598	8.1
2785.067	12.1
2788.532	11.1
2791.995	24.1
2795.455	11.1
2798.911	17.1
2802.365	22.1
2805.816	18.1
2809.264	15.1
2812.709	12.1
2816.151	17.1
2819.59	28.1
2823.026	14.1
2826.46	18.1
2829.89	18.1
2833.318	18.1
2836.742	16.1
2840.164	10.1
2843.583	18.1
2846.999	21.1
2850.412	19.1
2853.822	15.1
2857.229	19.1
2860.634	15.1
2864.035	11.1
2867.434	18.1
2870.83	25.1
2874.223	29.1
2877.613	25.1
2881	30.1
2884.385	36.1
2887.766	27.1
2891.145	27.1
2894.521	33.1
2897.894	24.1
2901.264	34.1
2904.631	23.1
2907.996	25.1
2911.358	40.1
2914.717	31.1
2918.073	33.1
2921.426	30.1
2924.777	35.1
2928.124	38.1
2931.469	46.1
2934.811	48.1
2938.15	49.1
2941.487	44.1
2944.821	43.1
2948.152	46.1
2951.48	39.1
2954.805	48.1
2958.128	38.1
2961.447	41.1
2964.765	42.1
2968.079	38.1
2971.39	37.1
2974.699	38.1
2978.005	46.1
2981.308	35.1
2984.609	40.1
2987.907	39.1
2991.202	41.1
2994.494	34.1
2997.784	32.1
3001.07	44.1
3004.355	46.1
3007.636	43.1
3010.915	51.1
3014.191	41.1
3017.464	40.1
3020.734	48.1
3024.002	44.1
3027.267	39.1
3030.53	52.1
3033.789	42.1
3037.046	50.1
3040.301	42.1
3043.552	54.1
3046.801	57.1
3050.048	50.1
3053.291	60.1
3056.532	55.1
3059.771	65.1
3063.006	71.1
3066.239	69.1
3069.469	76.1
3072.697	80.1
3075.922	85.1
3079.144	87.1
3082.364	85.1
3085.581	82.1
3088.795	90.1
3092.007	100.1
3095.216	97.1
3098.423	97.1
3101.627	91.1
3104.828	105.1
3108.026	105.1
3111.222	102.1
3114.416	111.1
3117.607	119.1
3120.795	117.1
3123.98	115.1
3127.163	128.1
3130.344	119.1
3133.521	114.1
3136.696	130.1
3139.869	129.1
3143.039	131.1
3146.206	134.1
3149.371	133.1
3152.533	144.1
3155.693	144.1
3158.85	141.1
3162.005	140.1
3165.157	140.1
3168.306	135.1
3171.453	139.1
3174.597	148.1
3177.739	145.1
3180.878	150.1
3184.014	139.1
3187.149	145.1
3190.28	144.1
3193.409	153.1
3196.536	144.1
3199.659	155.1
3202.781	151.1
3205.9	147.1
3209.016	144.1
3212.13	147.1
3215.241	147.1
3218.35	138.1
3221.456	151.1
3224.56	137.1
3227.661	131.1
3230.76	128.1
3233.856	137.1
3236.95	134.1
3240.041	124.1
3243.13	123.1
3246.216	117.1
3249.3	123.1
3252.382	114.1
3255.46	117.1
3258.537	122.1
3261.611	103.1
3264.682	108.1
3267.751	116.1
3270.818	102.1
3273.882	115.1
3276.943	114.1
3280.002	113.1
3283.059	111.1
3286.113	107.1
3289.165	102.1
3292.214	100.1
3295.261	105.1
3298.306	100.1
3301.348	97.1
3304.387	97.1
3307.425	94.1
3310.459	97.1
3313.492	101.1
3316.521	90.1
3319.549	106.1
3322.574	86.1
3325.597	93.1
3328.617	95.1
3331.635	95.1
3334.65	98.1
3337.663	86.1
3340.674	94.1
3343.682	99.1
3346.688	94.1
3349.691	95.1
3352.692	93.1
3355.691	98.1
3358.687	92.1
3361.681	86.1
3364.673	87.1
3367.662	86.1
3370.649	85.1
3373.633	77.1
3376.615	86.1
3379.595	82.1
3382.572	71.1
3385.547	74.1
3388.52	76.1
3391.49	72.1
3394.458	67.1
3397.424	73.1
3400.387	74.1
3403.348	54.1
3406.307	62.1
3409.263	66.1
3412.217	65.1
3415.168	71.1
3418.118	63.1
3421.065	54.1
3424.009	60.1
3426.951	52.1
3429.891	51.1
3432.829	54.1
3435.764	51.1
3438.697	53.1
3441.628	39.1
3444.557	42.1
3447.483	42.1
3450.407	33.1
3453.328	37.1
3456.247	35.1
3459.164	29.1
3462.079	19.1
3464.991	24.1
3467.902	20.1
3470.809	24.1
3473.715	15.1
3476.618	15.1
3479.519	8.1
3482.418	9.1
3485.315	14.1
3488.209	3.1
3491.101	5.1
3493.99	10.1
3496.878	1.1
3499.763	-4.9
3502.646	-0.9
3505.527	2.1
3508.405	-2.9
3511.281	-4.9
3514.155	-9.9
3517.027	-11.9
3519.897	-9.9
3522.764	-12.9
3525.629	-7.9
3528.492	-16.9
3531.352	-17.9
3534.211	-25.9
3537.067	-23.9
3539.921	-20.9
3542.773	-25.9
3545.622	-23.9
3548.469	-24.9
3551.315	-16.9
3554.157	-25.9
3556.998	-26.9
3559.837	-29.9
3562.673	-34.9
3565.507	-27.9
3568.339	-30.9
3571.169	-41.9
3573.996	-32.9
3576.822	-40.9
3579.645	-31.9
3582.466	-32.9
3585.285	-32.9
3588.101	-42.9
3590.916	-34.9
3593.728	-39.9
3596.538	-43.9
3599.346	-45.9
3602.152	-42.9
3604.956	-44.9
3607.757	-39.9
3610.556	-38.9
3613.354	-43.9
3616.149	-46.9
3618.942	-41.9
3621.732	-47.9
3624.521	-40.9
3627.307	-48.9
3630.092	-43.9
3632.874	-49.9
3635.654	-49.9
3638.432	-40.9
3641.208	-45.9
3643.982	-42.9
3646.753	-47.9
3649.523	-51.9
3652.29	-48.9
3655.055	-46.9
3657.818	-56.9
3660.579	-51.9
3663.338	-51.9
3666.095	-49.9
3668.849	-53.9
3671.602	-51.9
3674.352	-43.9
3677.101	-44.9
3679.847	-50.9
3682.591	-53.9
3685.333	-48.9
3688.073	-60.9
3690.811	-52.9
3693.547	-55.9
3696.281	-54.9
3699.013	-53.9
3701.742	-56.9
3704.47	-49.9
3707.195	-50.9
3709.919	-54.9
3712.64	-47.9
3715.359	-56.9
3718.076	-57.9
3720.792	-52.9
3723.505	-56.9
3726.216	-60.9
3728.925	-58.9
3731.632	-50.9
3734.336	-57.9
3737.039	-50.9
3739.74	-57.9
3742.439	-61.9
3745.136	-60.9
3747.83	-58.9
3750.523	-61.9
3753.213	-68.9
3755.902	-63.9
3758.589	-60.9
3761.273	-51.9
3763.956	-59.9
3766.636	-56.9
3769.315	-54.9
3771.991	-58.9
3774.665	-57.9
3777.338	-57.9
3780.008	-63.9
3782.677	-57.9
3785.343	-60.9
3788.007	-63.9
3790.67	-60.9
3793.33	-61.9
3795.989	-57.9
3798.645	-63.9
3801.299	-59.9
3803.952	-62.9
3806.602	-60.9
3809.251	-61.9
3811.897	-61.9
3814.542	-61.9
3817.184	-61.9
3819.825	-54.9
3822.463	-58.9
3825.1	-58.9
3827.735	-65.9
3830.367	-58.9
3832.998	-61.9
3835.627	-61.9
3838.253	-53.9
3840.878	-59.9
3843.501	-58.9
3846.122	-64.9
3848.741	-62.9
3851.358	-59.9
3853.973	-56.9
3856.586	-55.9
3859.197	-60.9
3861.806	-60.9
3864.414	-61.9
3867.019	-59.9
3869.622	-54.9
3872.224	-50.9
3874.823	-44.9
3877.421	-37.9
3880.016	-19.9
3882.61	-3.9
3885.202	-0.9
3887.792	-14.9
3890.38	-25.9
3892.966	-39.9
3895.55	-48.9
3898.132	-52.9
3900.713	-64.9
3903.291	-64.9
3905.868	-60.9
3908.442	-56.9
3911.015	-58.9
3913.586	-65.9
3916.155	-57.9
3918.722	-55.9
3921.287	-60.9
3923.85	-52.9
3926.411	-65.9
3928.971	-67.9
3931.528	-61.9
3934.084	-62.9
3936.638	-62.9
3939.19	-64.9
3941.74	-58.9
3944.288	-57.9
3946.834	-55.9
3949.378	-61.9
3951.921	-65.9
3954.462	-66.9
3957	-53.9
3959.537	-53.9
3962.072	-60.9
3964.606	-56.9
3967.137	-60.9
3969.667	-63.9
3972.194	-58.9
3974.72	-53.9
3977.244	-56.9
3979.766	-60.9
3982.286	-63.9
3984.805	-69.9
3987.321	-60.9
3989.836	-58.9
3992.349	-63.9
3994.86	-59.9
3997.369	-61.9
3999.877	-61.9
4002.382	-60.9
4004.886	-57.9
4007.388	-62.9
4009.888	-59.9
4012.386	-61.9
4014.883	-57.9
4017.377	-55.9
4019.87	-61.9
4022.361	-64.9
4024.85	-56.9
4027.338	-61.9
4029.823	-65.9
4032.307	-62.9
4034.789	-53.9
4037.269	-61.9
4039.747	-55.9
4042.224	-63.9
4044.699	-64.9
4047.172	-64.9
4049.643	-62.9
4052.112	-59.9
4054.58	-60.9
4057.046	-58.9
4059.51	-60.9
4061.972	-58.9
4064.432	-58.9
4066.891	-54.9
4069.348	-58.9
4071.803	-52.9
4074.256	-58.9
4076.708	-62.9
4079.158	-64.9
4081.606	-62.9
4084.052	-59.9
4086.497	-53.9
4088.939	-58.9
4091.38	-60.9
4093.819	-63.9
4096.257	-61.9
4098.693	-59.9
4101.127	-56.9
4103.559	-65.9
4105.989	27.1
4108.418	18.1
4110.845	14.1
4113.27	21.1
4115.694	14.1
4118.115	17.1
4120.535	-61.9
4122.954	-58.9
4125.37	-60.9
4127.785	-55.9
4130.198	-59.9
4132.609	-62.9
4135.019	-65.9
4137.427	-68.9
4139.833	-66.9
4142.237	-66.9
