Data from 2018-3-7_conc=0_n=9_RamanShift_01.txt Node
Date: Wed Mar 07 10:32:52 IST 2018
User: aro
Spectrometer: QEPB0276
Trigger mode: 0
Integration Time (sec): 3.000000E1
Scans to average: 1
Electric dark correction enabled: true
Nonlinearity correction enabled: false
Boxcar width: 0
XAxis mode: Raman Shifts
Number of Pixels in Spectrum: 1044
>>>>>Begin Spectral Data<<<<<
160.701	13.1
166.742	21.1
172.777	60.1
178.805	154.1
184.826	390.1
190.841	826.1
196.849	1346.1
202.85	1738.1
208.845	1876.1
214.833	1899.1
220.815	1878.1
226.789	1880.1
232.758	1914.1
238.719	1905.1
244.674	1905.1
250.623	1891.1
256.565	1905.1
262.5	1870.1
268.429	1845.1
274.351	1846.1
280.267	1846.1
286.176	1835.1
292.079	1844.1
297.975	1844.1
303.865	1868.1
309.748	1858.1
315.625	1867.1
321.495	1869.1
327.359	1876.1
333.217	1884.1
339.068	1886.1
344.912	1873.1
350.751	1898.1
356.583	1910.1
362.408	1889.1
368.227	1912.1
374.04	1926.1
379.847	1943.1
385.647	1946.1
391.44	1991.1
397.228	1964.1
403.009	1977.1
408.784	1984.1
414.553	2017.1
420.315	1989.1
426.071	1994.1
431.821	2014.1
437.565	2025.1
443.302	2016.1
449.033	1998.1
454.758	2004.1
460.477	1961.1
466.189	1953.1
471.896	1931.1
477.596	1918.1
483.29	1903.1
488.978	1900.1
494.66	1891.1
500.335	1855.1
506.005	1765.1
511.668	1679.1
517.325	1591.1
522.977	1527.1
528.622	1495.1
534.261	1455.1
539.894	1430.1
545.521	1410.1
551.141	1381.1
556.756	1366.1
562.365	1348.1
567.968	1341.1
573.565	1342.1
579.155	1327.1
584.74	1315.1
590.319	1318.1
595.892	1333.1
601.459	1312.1
607.02	1304.1
612.575	1300.1
618.124	1272.1
623.667	1256.1
629.204	1246.1
634.735	1228.1
640.261	1227.1
645.781	1222.1
651.294	1215.1
656.802	1206.1
662.304	1203.1
667.8	1213.1
673.29	1201.1
678.775	1192.1
684.254	1192.1
689.726	1178.1
695.193	1171.1
700.655	1167.1
706.11	1171.1
711.56	1153.1
717.004	1153.1
722.442	1128.1
727.874	1120.1
733.301	1143.1
738.722	1124.1
744.137	1115.1
749.547	1120.1
754.951	1109.1
760.349	1117.1
765.741	1129.1
771.128	1123.1
776.509	1147.1
781.885	1162.1
787.254	1171.1
792.618	1183.1
797.977	1185.1
803.33	1162.1
808.677	1152.1
814.019	1149.1
819.355	1146.1
824.686	1129.1
830.011	1123.1
835.33	1110.1
840.644	1091.1
845.952	1100.1
851.255	1096.1
856.552	1081.1
861.844	1079.1
867.13	1075.1
872.41	1096.1
877.686	1109.1
882.955	1118.1
888.219	1095.1
893.478	1073.1
898.731	1013.1
903.979	1011.1
909.221	999.1
914.458	977.1
919.69	971.1
924.916	990.1
930.136	983.1
935.351	971.1
940.561	970.1
945.766	967.1
950.965	971.1
956.158	960.1
961.347	953.1
966.529	944.1
971.707	921.1
976.879	907.1
982.046	896.1
987.208	895.1
992.364	891.1
997.515	912.1
1002.66	911.1
1007.801	920.1
1012.936	926.1
1018.066	948.1
1023.19	939.1
1028.309	935.1
1033.423	938.1
1038.532	945.1
1043.636	935.1
1048.734	936.1
1053.827	942.1
1058.915	910.1
1063.998	910.1
1069.075	907.1
1074.147	901.1
1079.214	898.1
1084.276	907.1
1089.333	921.1
1094.385	928.1
1099.431	893.1
1104.472	898.1
1109.509	888.1
1114.54	874.1
1119.565	854.1
1124.586	852.1
1129.602	840.1
1134.613	825.1
1139.618	812.1
1144.619	827.1
1149.614	827.1
1154.604	813.1
1159.589	820.1
1164.57	830.1
1169.545	825.1
1174.515	843.1
1179.48	839.1
1184.44	817.1
1189.395	808.1
1194.345	800.1
1199.29	788.1
1204.23	797.1
1209.165	804.1
1214.095	801.1
1219.021	813.1
1223.941	818.1
1228.856	818.1
1233.766	832.1
1238.672	826.1
1243.572	813.1
1248.467	817.1
1253.358	805.1
1258.244	787.1
1263.124	772.1
1268	757.1
1272.871	753.1
1277.737	756.1
1282.599	752.1
1287.455	750.1
1292.306	758.1
1297.153	743.1
1301.995	748.1
1306.832	754.1
1311.664	774.1
1316.491	762.1
1321.314	750.1
1326.132	752.1
1330.945	731.1
1335.753	725.1
1340.556	703.1
1345.354	687.1
1350.148	669.1
1354.937	665.1
1359.722	662.1
1364.501	636.1
1369.276	628.1
1374.046	621.1
1378.811	620.1
1383.572	617.1
1388.327	618.1
1393.079	613.1
1397.825	634.1
1402.567	616.1
1407.304	632.1
1412.036	631.1
1416.764	631.1
1421.487	628.1
1426.205	628.1
1430.919	643.1
1435.628	638.1
1440.333	638.1
1445.032	647.1
1449.727	667.1
1454.418	666.1
1459.104	674.1
1463.785	670.1
1468.462	644.1
1473.134	623.1
1477.802	600.1
1482.465	583.1
1487.123	562.1
1491.777	547.1
1496.426	547.1
1501.071	537.1
1505.711	521.1
1510.347	528.1
1514.978	529.1
1519.604	514.1
1524.226	521.1
1528.844	514.1
1533.457	508.1
1538.065	524.1
1542.669	512.1
1547.269	498.1
1551.864	528.1
1556.454	527.1
1561.041	546.1
1565.622	552.1
1570.199	531.1
1574.772	544.1
1579.34	553.1
1583.904	558.1
1588.464	553.1
1593.019	558.1
1597.569	561.1
1602.115	560.1
1606.657	560.1
1611.195	560.1
1615.728	550.1
1620.256	546.1
1624.78	553.1
1629.3	542.1
1633.816	537.1
1638.327	549.1
1642.834	544.1
1647.336	541.1
1651.834	542.1
1656.328	543.1
1660.817	548.1
1665.302	531.1
1669.783	513.1
1674.259	502.1
1678.732	493.1
1683.199	469.1
1687.663	467.1
1692.122	430.1
1696.577	423.1
1701.028	404.1
1705.474	388.1
1709.917	371.1
1714.355	372.1
1718.788	371.1
1723.218	370.1
1727.643	364.1
1732.064	370.1
1736.481	367.1
1740.893	360.1
1745.301	355.1
1749.705	347.1
1754.105	340.1
1758.501	318.1
1762.893	318.1
1767.28	307.1
1771.663	311.1
1776.042	303.1
1780.417	292.1
1784.787	299.1
1789.154	286.1
1793.516	274.1
1797.874	271.1
1802.228	275.1
1806.578	273.1
1810.924	268.1
1815.266	269.1
1819.603	267.1
1823.937	267.1
1828.266	281.1
1832.591	275.1
1836.913	279.1
1841.23	285.1
1845.543	277.1
1849.852	292.1
1854.156	279.1
1858.457	280.1
1862.754	282.1
1867.047	273.1
1871.335	283.1
1875.62	277.1
1879.9	286.1
1884.177	267.1
1888.449	268.1
1892.718	260.1
1896.982	259.1
1901.243	250.1
1905.499	242.1
1909.752	241.1
1914	234.1
1918.245	246.1
1922.485	229.1
1926.722	215.1
1930.954	216.1
1935.183	225.1
1939.408	219.1
1943.628	212.1
1947.845	212.1
1952.058	208.1
1956.267	211.1
1960.472	215.1
1964.673	204.1
1968.87	205.1
1973.063	210.1
1977.252	214.1
1981.438	210.1
1985.619	206.1
1989.797	213.1
1993.971	208.1
1998.14	214.1
2002.306	219.1
2006.469	227.1
2010.627	212.1
2014.781	219.1
2018.932	213.1
2023.078	209.1
2027.221	198.1
2031.36	200.1
2035.495	204.1
2039.627	193.1
2043.754	195.1
2047.878	190.1
2051.998	191.1
2056.114	189.1
2060.226	185.1
2064.334	178.1
2068.439	177.1
2072.54	176.1
2076.637	182.1
2080.73	178.1
2084.82	180.1
2088.906	171.1
2092.988	175.1
2097.066	179.1
2101.14	170.1
2105.211	169.1
2109.278	170.1
2113.342	155.1
2117.401	165.1
2121.457	164.1
2125.509	163.1
2129.558	159.1
2133.602	158.1
2137.643	167.1
2141.681	165.1
2145.714	162.1
2149.744	162.1
2153.77	171.1
2157.793	164.1
2161.812	167.1
2165.827	170.1
2169.838	152.1
2173.846	160.1
2177.851	150.1
2181.851	153.1
2185.848	159.1
2189.841	153.1
2193.831	145.1
2197.817	156.1
2201.799	151.1
2205.778	146.1
2209.753	153.1
2213.725	153.1
2217.693	151.1
2221.657	144.1
2225.618	146.1
2229.575	144.1
2233.529	145.1
2237.479	146.1
2241.425	135.1
2245.368	138.1
2249.307	143.1
2253.243	136.1
2257.175	130.1
2261.104	128.1
2265.029	127.1
2268.95	137.1
2272.868	130.1
2276.783	123.1
2280.694	120.1
2284.601	112.1
2288.505	123.1
2292.405	121.1
2296.302	126.1
2300.195	118.1
2304.085	116.1
2307.971	111.1
2311.854	112.1
2315.734	111.1
2319.609	118.1
2323.482	109.1
2327.351	116.1
2331.216	129.1
2335.078	145.1
2338.937	126.1
2342.792	119.1
2346.643	116.1
2350.492	117.1
2354.336	111.1
2358.178	112.1
2362.015	120.1
2365.85	118.1
2369.681	117.1
2373.508	119.1
2377.333	119.1
2381.153	126.1
2384.971	118.1
2388.785	111.1
2392.595	115.1
2396.402	113.1
2400.206	114.1
2404.007	111.1
2407.804	112.1
2411.597	112.1
2415.388	104.1
2419.174	121.1
2422.958	105.1
2426.738	112.1
2430.515	103.1
2434.289	100.1
2438.059	99.1
2441.825	98.1
2445.589	90.1
2449.349	97.1
2453.106	97.1
2456.859	93.1
2460.61	96.1
2464.356	94.1
2468.1	97.1
2471.84	87.1
2475.577	84.1
2479.311	82.1
2483.041	90.1
2486.768	83.1
2490.492	88.1
2494.213	88.1
2497.93	88.1
2501.644	92.1
2505.355	79.1
2509.062	82.1
2512.766	86.1
2516.467	80.1
2520.165	76.1
2523.859	85.1
2527.551	72.1
2531.239	76.1
2534.923	69.1
2538.605	71.1
2542.283	59.1
2545.958	80.1
2549.63	67.1
2553.299	62.1
2556.964	61.1
2560.626	69.1
2564.285	68.1
2567.941	56.1
2571.594	61.1
2575.243	69.1
2578.89	57.1
2582.533	54.1
2586.173	59.1
2589.809	62.1
2593.443	65.1
2597.073	55.1
2600.701	64.1
2604.325	48.1
2607.946	48.1
2611.564	55.1
2615.178	58.1
2618.79	54.1
2622.398	50.1
2626.004	46.1
2629.606	47.1
2633.205	50.1
2636.801	53.1
2640.394	54.1
2643.983	51.1
2647.57	56.1
2651.153	47.1
2654.734	46.1
2658.311	50.1
2661.885	53.1
2665.456	50.1
2669.025	51.1
2672.589	47.1
2676.151	44.1
2679.71	35.1
2683.266	45.1
2686.819	44.1
2690.368	35.1
2693.915	36.1
2697.458	36.1
2700.999	38.1
2704.536	46.1
2708.071	42.1
2711.602	38.1
2715.13	30.1
2718.656	38.1
2722.178	26.1
2725.697	32.1
2729.214	25.1
2732.727	31.1
2736.237	40.1
2739.744	33.1
2743.249	33.1
2746.75	29.1
2750.248	25.1
2753.743	25.1
2757.236	26.1
2760.725	19.1
2764.211	18.1
2767.695	15.1
2771.175	18.1
2774.652	12.1
2778.127	25.1
2781.598	23.1
2785.067	22.1
2788.532	15.1
2791.995	28.1
2795.455	25.1
2798.911	24.1
2802.365	25.1
2805.816	22.1
2809.264	24.1
2812.709	19.1
2816.151	32.1
2819.59	38.1
2823.026	19.1
2826.46	23.1
2829.89	20.1
2833.318	19.1
2836.742	27.1
2840.164	27.1
2843.583	26.1
2846.999	29.1
2850.412	32.1
2853.822	32.1
2857.229	36.1
2860.634	26.1
2864.035	32.1
2867.434	32.1
2870.83	43.1
2874.223	38.1
2877.613	39.1
2881	46.1
2884.385	53.1
2887.766	50.1
2891.145	53.1
2894.521	54.1
2897.894	53.1
2901.264	52.1
2904.631	46.1
2907.996	49.1
2911.358	55.1
2914.717	51.1
2918.073	55.1
2921.426	49.1
2924.777	60.1
2928.124	66.1
2931.469	66.1
2934.811	70.1
2938.15	75.1
2941.487	78.1
2944.821	74.1
2948.152	68.1
2951.48	69.1
2954.805	64.1
2958.128	62.1
2961.447	59.1
2964.765	53.1
2968.079	51.1
2971.39	52.1
2974.699	45.1
2978.005	53.1
2981.308	53.1
2984.609	52.1
2987.907	51.1
2991.202	51.1
2994.494	50.1
2997.784	44.1
3001.07	44.1
3004.355	43.1
3007.636	49.1
3010.915	43.1
3014.191	41.1
3017.464	42.1
3020.734	50.1
3024.002	55.1
3027.267	51.1
3030.53	45.1
3033.789	53.1
3037.046	51.1
3040.301	52.1
3043.552	50.1
3046.801	60.1
3050.048	57.1
3053.291	59.1
3056.532	60.1
3059.771	61.1
3063.006	70.1
3066.239	64.1
3069.469	73.1
3072.697	75.1
3075.922	83.1
3079.144	76.1
3082.364	84.1
3085.581	83.1
3088.795	95.1
3092.007	90.1
3095.216	91.1
3098.423	88.1
3101.627	94.1
3104.828	102.1
3108.026	103.1
3111.222	102.1
3114.416	106.1
3117.607	116.1
3120.795	111.1
3123.98	111.1
3127.163	125.1
3130.344	113.1
3133.521	122.1
3136.696	128.1
3139.869	126.1
3143.039	125.1
3146.206	135.1
3149.371	136.1
3152.533	134.1
3155.693	139.1
3158.85	139.1
3162.005	140.1
3165.157	136.1
3168.306	137.1
3171.453	136.1
3174.597	135.1
3177.739	145.1
3180.878	138.1
3184.014	130.1
3187.149	139.1
3190.28	136.1
3193.409	143.1
3196.536	143.1
3199.659	146.1
3202.781	139.1
3205.9	140.1
3209.016	133.1
3212.13	135.1
3215.241	142.1
3218.35	137.1
3221.456	142.1
3224.56	124.1
3227.661	127.1
3230.76	123.1
3233.856	120.1
3236.95	117.1
3240.041	118.1
3243.13	116.1
3246.216	110.1
3249.3	109.1
3252.382	115.1
3255.46	107.1
3258.537	103.1
3261.611	93.1
3264.682	95.1
3267.751	108.1
3270.818	90.1
3273.882	100.1
3276.943	97.1
3280.002	98.1
3283.059	102.1
3286.113	93.1
3289.165	93.1
3292.214	98.1
3295.261	98.1
3298.306	95.1
3301.348	94.1
3304.387	97.1
3307.425	91.1
3310.459	81.1
3313.492	88.1
3316.521	86.1
3319.549	98.1
3322.574	83.1
3325.597	84.1
3328.617	91.1
3331.635	92.1
3334.65	93.1
3337.663	82.1
3340.674	91.1
3343.682	87.1
3346.688	82.1
3349.691	95.1
3352.692	87.1
3355.691	94.1
3358.687	90.1
3361.681	87.1
3364.673	81.1
3367.662	87.1
3370.649	87.1
3373.633	82.1
3376.615	78.1
3379.595	71.1
3382.572	68.1
3385.547	74.1
3388.52	72.1
3391.49	63.1
3394.458	66.1
3397.424	71.1
3400.387	69.1
3403.348	63.1
3406.307	56.1
3409.263	60.1
3412.217	54.1
3415.168	63.1
3418.118	50.1
3421.065	56.1
3424.009	56.1
3426.951	52.1
3429.891	49.1
3432.829	40.1
3435.764	54.1
3438.697	47.1
3441.628	37.1
3444.557	43.1
3447.483	39.1
3450.407	35.1
3453.328	33.1
3456.247	29.1
3459.164	30.1
3462.079	23.1
3464.991	20.1
3467.902	20.1
3470.809	20.1
3473.715	16.1
3476.618	15.1
3479.519	11.1
3482.418	9.1
3485.315	13.1
3488.209	-0.9
3491.101	3.1
3493.99	6.1
3496.878	3.1
3499.763	-0.9
3502.646	0.1
3505.527	0.1
3508.405	3.1
3511.281	-4.9
3514.155	-6.9
3517.027	-14.9
3519.897	-8.9
3522.764	-12.9
3525.629	-11.9
3528.492	-16.9
3531.352	-18.9
3534.211	-19.9
3537.067	-23.9
3539.921	-18.9
3542.773	-25.9
3545.622	-23.9
3548.469	-20.9
3551.315	-24.9
3554.157	-25.9
3556.998	-21.9
3559.837	-27.9
3562.673	-24.9
3565.507	-31.9
3568.339	-25.9
3571.169	-32.9
3573.996	-36.9
3576.822	-35.9
3579.645	-36.9
3582.466	-31.9
3585.285	-35.9
3588.101	-35.9
3590.916	-32.9
3593.728	-39.9
3596.538	-41.9
3599.346	-43.9
3602.152	-41.9
3604.956	-37.9
3607.757	-31.9
3610.556	-37.9
3613.354	-40.9
3616.149	-43.9
3618.942	-35.9
3621.732	-40.9
3624.521	-41.9
3627.307	-40.9
3630.092	-46.9
3632.874	-43.9
3635.654	-46.9
3638.432	-44.9
3641.208	-41.9
3643.982	-39.9
3646.753	-47.9
3649.523	-46.9
3652.29	-48.9
3655.055	-43.9
3657.818	-47.9
3660.579	-50.9
3663.338	-43.9
3666.095	-45.9
3668.849	-45.9
3671.602	-44.9
3674.352	-43.9
3677.101	-46.9
3679.847	-49.9
3682.591	-55.9
3685.333	-46.9
3688.073	-55.9
3690.811	-47.9
3693.547	-52.9
3696.281	-48.9
3699.013	-47.9
3701.742	-54.9
3704.47	-49.9
3707.195	-52.9
3709.919	-55.9
3712.64	-54.9
3715.359	-52.9
3718.076	-53.9
3720.792	-48.9
3723.505	-51.9
3726.216	-45.9
3728.925	-55.9
3731.632	-53.9
3734.336	-48.9
3737.039	-51.9
3739.74	-54.9
3742.439	-52.9
3745.136	-55.9
3747.83	-51.9
3750.523	-56.9
3753.213	-58.9
3755.902	-55.9
3758.589	-57.9
3761.273	-53.9
3763.956	-56.9
3766.636	-51.9
3769.315	-49.9
3771.991	-56.9
3774.665	-59.9
3777.338	-48.9
3780.008	-60.9
3782.677	-58.9
3785.343	-59.9
3788.007	-58.9
3790.67	-55.9
3793.33	-54.9
3795.989	-56.9
3798.645	-55.9
3801.299	-57.9
3803.952	-56.9
3806.602	-57.9
3809.251	-58.9
3811.897	-60.9
3814.542	-61.9
3817.184	-54.9
3819.825	-51.9
3822.463	-58.9
3825.1	-52.9
3827.735	-58.9
3830.367	-57.9
3832.998	-63.9
3835.627	-57.9
3838.253	-53.9
3840.878	-51.9
3843.501	-48.9
3846.122	-53.9
3848.741	-58.9
3851.358	-53.9
3853.973	-49.9
3856.586	-54.9
3859.197	-56.9
3861.806	-56.9
3864.414	-58.9
3867.019	-50.9
3869.622	-50.9
3872.224	-42.9
3874.823	-35.9
3877.421	-32.9
3880.016	-17.9
3882.61	6.1
3885.202	11.1
3887.792	-6.9
3890.38	-19.9
3892.966	-39.9
3895.55	-47.9
3898.132	-51.9
3900.713	-53.9
3903.291	-55.9
3905.868	-54.9
3908.442	-56.9
3911.015	-56.9
3913.586	-59.9
3916.155	-59.9
3918.722	-59.9
3921.287	-59.9
3923.85	-44.9
3926.411	-57.9
3928.971	-62.9
3931.528	-57.9
3934.084	-57.9
3936.638	-54.9
3939.19	-62.9
3941.74	-58.9
3944.288	-56.9
3946.834	-50.9
3949.378	-54.9
3951.921	-60.9
3954.462	-60.9
3957	-52.9
3959.537	-45.9
3962.072	-58.9
3964.606	-56.9
3967.137	-61.9
3969.667	-56.9
3972.194	-52.9
3974.72	-51.9
3977.244	-50.9
3979.766	-56.9
3982.286	-59.9
3984.805	-60.9
3987.321	-57.9
3989.836	-50.9
3992.349	-56.9
3994.86	-60.9
3997.369	-56.9
3999.877	-57.9
4002.382	-54.9
4004.886	-55.9
4007.388	-52.9
4009.888	-55.9
4012.386	-52.9
4014.883	-58.9
4017.377	-52.9
4019.87	-55.9
4022.361	-57.9
4024.85	-53.9
4027.338	-58.9
4029.823	-59.9
4032.307	-58.9
4034.789	-54.9
4037.269	-59.9
4039.747	-58.9
4042.224	-57.9
4044.699	-58.9
4047.172	-64.9
4049.643	-59.9
4052.112	-55.9
4054.58	-55.9
4057.046	-55.9
4059.51	-61.9
4061.972	-60.9
4064.432	-54.9
4066.891	-54.9
4069.348	-53.9
4071.803	-56.9
4074.256	-57.9
4076.708	-55.9
4079.158	-57.9
4081.606	-53.9
4084.052	-55.9
4086.497	-49.9
4088.939	-52.9
4091.38	-61.9
4093.819	-61.9
4096.257	-56.9
4098.693	-58.9
4101.127	-55.9
4103.559	-63.9
4105.989	24.1
4108.418	19.1
4110.845	11.1
4113.27	10.1
4115.694	14.1
4118.115	15.1
4120.535	-59.9
4122.954	-52.9
4125.37	-56.9
4127.785	-52.9
4130.198	-51.9
4132.609	-56.9
4135.019	-60.9
4137.427	-64.9
4139.833	-61.9
4142.237	-60.9
