Data from 2018-3-7_conc=5_n=3_RamanShift_02.txt Node
Date: Wed Mar 07 12:30:22 IST 2018
User: aro
Spectrometer: QEPB0276
Trigger mode: 0
Integration Time (sec): 3.000000E1
Scans to average: 1
Electric dark correction enabled: true
Nonlinearity correction enabled: false
Boxcar width: 0
XAxis mode: Raman Shifts
Number of Pixels in Spectrum: 1044
>>>>>Begin Spectral Data<<<<<
160.701	4.6
166.742	24.6
172.777	51.6
178.805	168.6
184.826	440.6
190.841	956.6
196.849	1596.6
202.85	2121.6
208.845	2322.6
214.833	2315.6
220.815	2307.6
226.789	2284.6
232.758	2280.6
238.719	2285.6
244.674	2275.6
250.623	2252.6
256.565	2227.6
262.5	2198.6
268.429	2167.6
274.351	2143.6
280.267	2132.6
286.176	2110.6
292.079	2116.6
297.975	2108.6
303.865	2120.6
309.748	2102.6
315.625	2102.6
321.495	2088.6
327.359	2091.6
333.217	2104.6
339.068	2102.6
344.912	2108.6
350.751	2099.6
356.583	2110.6
362.408	2104.6
368.227	2124.6
374.04	2115.6
379.847	2112.6
385.647	2097.6
391.44	2128.6
397.228	2139.6
403.009	2148.6
408.784	2148.6
414.553	2181.6
420.315	2156.6
426.071	2183.6
431.821	2170.6
437.565	2163.6
443.302	2173.6
449.033	2156.6
454.758	2171.6
460.477	2142.6
466.189	2124.6
471.896	2111.6
477.596	2100.6
483.29	2083.6
488.978	2109.6
494.66	2072.6
500.335	2068.6
506.005	2006.6
511.668	1936.6
517.325	1899.6
522.977	1825.6
528.622	1827.6
534.261	1785.6
539.894	1767.6
545.521	1746.6
551.141	1732.6
556.756	1736.6
562.365	1714.6
567.968	1714.6
573.565	1702.6
579.155	1699.6
584.74	1671.6
590.319	1687.6
595.892	1680.6
601.459	1661.6
607.02	1656.6
612.575	1639.6
618.124	1625.6
623.667	1617.6
629.204	1612.6
634.735	1581.6
640.261	1581.6
645.781	1582.6
651.294	1564.6
656.802	1558.6
662.304	1551.6
667.8	1564.6
673.29	1560.6
678.775	1538.6
684.254	1550.6
689.726	1530.6
695.193	1548.6
700.655	1519.6
706.11	1518.6
711.56	1502.6
717.004	1497.6
722.442	1479.6
727.874	1484.6
733.301	1483.6
738.722	1472.6
744.137	1467.6
749.547	1456.6
754.951	1449.6
760.349	1476.6
765.741	1472.6
771.128	1471.6
776.509	1488.6
781.885	1489.6
787.254	1500.6
792.618	1480.6
797.977	1471.6
803.33	1460.6
808.677	1463.6
814.019	1454.6
819.355	1440.6
824.686	1433.6
830.011	1429.6
835.33	1426.6
840.644	1409.6
845.952	1425.6
851.255	1401.6
856.552	1410.6
861.844	1399.6
867.13	1383.6
872.41	1368.6
877.686	1372.6
882.955	1373.6
888.219	1355.6
893.478	1342.6
898.731	1304.6
903.979	1299.6
909.221	1295.6
914.458	1278.6
919.69	1280.6
924.916	1291.6
930.136	1294.6
935.351	1292.6
940.561	1301.6
945.766	1291.6
950.965	1301.6
956.158	1275.6
961.347	1272.6
966.529	1252.6
971.707	1234.6
976.879	1211.6
982.046	1209.6
987.208	1199.6
992.364	1201.6
997.515	1197.6
1002.66	1218.6
1007.801	1239.6
1012.936	1242.6
1018.066	1237.6
1023.19	1244.6
1028.309	1237.6
1033.423	1239.6
1038.532	1222.6
1043.636	1210.6
1048.734	1195.6
1053.827	1186.6
1058.915	1196.6
1063.998	1173.6
1069.075	1169.6
1074.147	1162.6
1079.214	1165.6
1084.276	1174.6
1089.333	1182.6
1094.385	1182.6
1099.431	1171.6
1104.472	1175.6
1109.509	1149.6
1114.54	1153.6
1119.565	1139.6
1124.586	1129.6
1129.602	1100.6
1134.613	1101.6
1139.618	1103.6
1144.619	1104.6
1149.614	1093.6
1154.604	1104.6
1159.589	1104.6
1164.57	1107.6
1169.545	1096.6
1174.515	1096.6
1179.48	1105.6
1184.44	1082.6
1189.395	1088.6
1194.345	1066.6
1199.29	1061.6
1204.23	1069.6
1209.165	1065.6
1214.095	1084.6
1219.021	1067.6
1223.941	1082.6
1228.856	1081.6
1233.766	1095.6
1238.672	1086.6
1243.572	1090.6
1248.467	1071.6
1253.358	1064.6
1258.244	1053.6
1263.124	1037.6
1268	1015.6
1272.871	1004.6
1277.737	1002.6
1282.599	1000.6
1287.455	996.6
1292.306	994.6
1297.153	993.6
1301.995	1005.6
1306.832	1022.6
1311.664	1024.6
1316.491	1026.6
1321.314	1021.6
1326.132	1000.6
1330.945	990.6
1335.753	975.6
1340.556	962.6
1345.354	944.6
1350.148	921.6
1354.937	907.6
1359.722	889.6
1364.501	858.6
1369.276	856.6
1374.046	827.6
1378.811	827.6
1383.572	825.6
1388.327	814.6
1393.079	817.6
1397.825	822.6
1402.567	819.6
1407.304	828.6
1412.036	846.6
1416.764	831.6
1421.487	846.6
1426.205	850.6
1430.919	841.6
1435.628	849.6
1440.333	849.6
1445.032	861.6
1449.727	869.6
1454.418	867.6
1459.104	867.6
1463.785	847.6
1468.462	831.6
1473.134	813.6
1477.802	794.6
1482.465	762.6
1487.123	751.6
1491.777	733.6
1496.426	740.6
1501.071	716.6
1505.711	717.6
1510.347	710.6
1514.978	706.6
1519.604	704.6
1524.226	690.6
1528.844	695.6
1533.457	688.6
1538.065	687.6
1542.669	689.6
1547.269	684.6
1551.864	690.6
1556.454	703.6
1561.041	712.6
1565.622	731.6
1570.199	719.6
1574.772	715.6
1579.34	741.6
1583.904	741.6
1588.464	753.6
1593.019	750.6
1597.569	756.6
1602.115	754.6
1606.657	757.6
1611.195	752.6
1615.728	742.6
1620.256	744.6
1624.78	753.6
1629.3	739.6
1633.816	747.6
1638.327	749.6
1642.834	743.6
1647.336	747.6
1651.834	754.6
1656.328	752.6
1660.817	731.6
1665.302	730.6
1669.783	716.6
1674.259	700.6
1678.732	682.6
1683.199	641.6
1687.663	630.6
1692.122	592.6
1696.577	560.6
1701.028	548.6
1705.474	510.6
1709.917	493.6
1714.355	491.6
1718.788	487.6
1723.218	491.6
1727.643	489.6
1732.064	492.6
1736.481	491.6
1740.893	480.6
1745.301	472.6
1749.705	463.6
1754.105	451.6
1758.501	438.6
1762.893	433.6
1767.28	423.6
1771.663	419.6
1776.042	419.6
1780.417	399.6
1784.787	390.6
1789.154	389.6
1793.516	375.6
1797.874	375.6
1802.228	363.6
1806.578	363.6
1810.924	356.6
1815.266	350.6
1819.603	353.6
1823.937	361.6
1828.266	366.6
1832.591	370.6
1836.913	362.6
1841.23	366.6
1845.543	366.6
1849.852	370.6
1854.156	385.6
1858.457	380.6
1862.754	389.6
1867.047	376.6
1871.335	374.6
1875.62	366.6
1879.9	387.6
1884.177	360.6
1888.449	360.6
1892.718	365.6
1896.982	353.6
1901.243	342.6
1905.499	334.6
1909.752	327.6
1914	326.6
1918.245	319.6
1922.485	310.6
1926.722	300.6
1930.954	301.6
1935.183	301.6
1939.408	291.6
1943.628	284.6
1947.845	285.6
1952.058	280.6
1956.267	277.6
1960.472	282.6
1964.673	271.6
1968.87	273.6
1973.063	271.6
1977.252	272.6
1981.438	268.6
1985.619	276.6
1989.797	271.6
1993.971	289.6
1998.14	286.6
2002.306	287.6
2006.469	291.6
2010.627	294.6
2014.781	294.6
2018.932	288.6
2023.078	283.6
2027.221	283.6
2031.36	277.6
2035.495	280.6
2039.627	269.6
2043.754	268.6
2047.878	265.6
2051.998	265.6
2056.114	257.6
2060.226	260.6
2064.334	257.6
2068.439	247.6
2072.54	254.6
2076.637	251.6
2080.73	251.6
2084.82	247.6
2088.906	243.6
2092.988	239.6
2097.066	239.6
2101.14	238.6
2105.211	233.6
2109.278	220.6
2113.342	220.6
2117.401	218.6
2121.457	215.6
2125.509	217.6
2129.558	214.6
2133.602	218.6
2137.643	224.6
2141.681	211.6
2145.714	229.6
2149.744	214.6
2153.77	217.6
2157.793	229.6
2161.812	222.6
2165.827	224.6
2169.838	216.6
2173.846	219.6
2177.851	213.6
2181.851	217.6
2185.848	211.6
2189.841	209.6
2193.831	201.6
2197.817	207.6
2201.799	206.6
2205.778	203.6
2209.753	204.6
2213.725	199.6
2217.693	211.6
2221.657	195.6
2225.618	195.6
2229.575	193.6
2233.529	194.6
2237.479	201.6
2241.425	194.6
2245.368	196.6
2249.307	193.6
2253.243	182.6
2257.175	196.6
2261.104	184.6
2265.029	179.6
2268.95	177.6
2272.868	176.6
2276.783	179.6
2280.694	167.6
2284.601	164.6
2288.505	167.6
2292.405	169.6
2296.302	181.6
2300.195	161.6
2304.085	161.6
2307.971	158.6
2311.854	157.6
2315.734	157.6
2319.609	163.6
2323.482	160.6
2327.351	151.6
2331.216	166.6
2335.078	177.6
2338.937	172.6
2342.792	165.6
2346.643	158.6
2350.492	161.6
2354.336	157.6
2358.178	146.6
2362.015	164.6
2365.85	149.6
2369.681	159.6
2373.508	158.6
2377.333	163.6
2381.153	152.6
2384.971	153.6
2388.785	149.6
2392.595	163.6
2396.402	159.6
2400.206	165.6
2404.007	156.6
2407.804	152.6
2411.597	154.6
2415.388	150.6
2419.174	167.6
2422.958	155.6
2426.738	163.6
2430.515	150.6
2434.289	155.6
2438.059	151.6
2441.825	147.6
2445.589	147.6
2449.349	147.6
2453.106	147.6
2456.859	138.6
2460.61	133.6
2464.356	141.6
2468.1	131.6
2471.84	125.6
2475.577	126.6
2479.311	132.6
2483.041	127.6
2486.768	131.6
2490.492	122.6
2494.213	128.6
2497.93	127.6
2501.644	131.6
2505.355	117.6
2509.062	126.6
2512.766	120.6
2516.467	119.6
2520.165	119.6
2523.859	124.6
2527.551	116.6
2531.239	110.6
2534.923	104.6
2538.605	106.6
2542.283	106.6
2545.958	107.6
2549.63	101.6
2553.299	104.6
2556.964	95.6
2560.626	103.6
2564.285	98.6
2567.941	92.6
2571.594	96.6
2575.243	97.6
2578.89	93.6
2582.533	98.6
2586.173	90.6
2589.809	95.6
2593.443	94.6
2597.073	94.6
2600.701	83.6
2604.325	81.6
2607.946	72.6
2611.564	83.6
2615.178	88.6
2618.79	75.6
2622.398	85.6
2626.004	77.6
2629.606	81.6
2633.205	82.6
2636.801	76.6
2640.394	79.6
2643.983	86.6
2647.57	80.6
2651.153	77.6
2654.734	73.6
2658.311	81.6
2661.885	82.6
2665.456	77.6
2669.025	76.6
2672.589	75.6
2676.151	70.6
2679.71	68.6
2683.266	68.6
2686.819	71.6
2690.368	64.6
2693.915	69.6
2697.458	64.6
2700.999	64.6
2704.536	62.6
2708.071	65.6
2711.602	59.6
2715.13	56.6
2718.656	58.6
2722.178	59.6
2725.697	55.6
2729.214	54.6
2732.727	56.6
2736.237	54.6
2739.744	49.6
2743.249	48.6
2746.75	48.6
2750.248	41.6
2753.743	39.6
2757.236	36.6
2760.725	38.6
2764.211	26.6
2767.695	29.6
2771.175	34.6
2774.652	29.6
2778.127	40.6
2781.598	28.6
2785.067	34.6
2788.532	33.6
2791.995	39.6
2795.455	42.6
2798.911	37.6
2802.365	42.6
2805.816	36.6
2809.264	40.6
2812.709	30.6
2816.151	38.6
2819.59	48.6
2823.026	43.6
2826.46	34.6
2829.89	38.6
2833.318	36.6
2836.742	41.6
2840.164	36.6
2843.583	42.6
2846.999	49.6
2850.412	43.6
2853.822	40.6
2857.229	37.6
2860.634	47.6
2864.035	38.6
2867.434	49.6
2870.83	50.6
2874.223	52.6
2877.613	51.6
2881	54.6
2884.385	57.6
2887.766	54.6
2891.145	54.6
2894.521	56.6
2897.894	54.6
2901.264	45.6
2904.631	45.6
2907.996	57.6
2911.358	63.6
2914.717	56.6
2918.073	58.6
2921.426	59.6
2924.777	72.6
2928.124	62.6
2931.469	66.6
2934.811	82.6
2938.15	75.6
2941.487	81.6
2944.821	63.6
2948.152	66.6
2951.48	78.6
2954.805	67.6
2958.128	71.6
2961.447	72.6
2964.765	63.6
2968.079	64.6
2971.39	66.6
2974.699	62.6
2978.005	72.6
2981.308	65.6
2984.609	71.6
2987.907	68.6
2991.202	73.6
2994.494	66.6
2997.784	65.6
3001.07	67.6
3004.355	62.6
3007.636	66.6
3010.915	70.6
3014.191	64.6
3017.464	73.6
3020.734	75.6
3024.002	70.6
3027.267	77.6
3030.53	81.6
3033.789	87.6
3037.046	85.6
3040.301	82.6
3043.552	93.6
3046.801	87.6
3050.048	94.6
3053.291	100.6
3056.532	109.6
3059.771	107.6
3063.006	113.6
3066.239	118.6
3069.469	126.6
3072.697	129.6
3075.922	124.6
3079.144	129.6
3082.364	134.6
3085.581	137.6
3088.795	142.6
3092.007	146.6
3095.216	145.6
3098.423	156.6
3101.627	151.6
3104.828	157.6
3108.026	161.6
3111.222	165.6
3114.416	165.6
3117.607	177.6
3120.795	170.6
3123.98	177.6
3127.163	193.6
3130.344	181.6
3133.521	186.6
3136.696	196.6
3139.869	201.6
3143.039	197.6
3146.206	209.6
3149.371	207.6
3152.533	214.6
3155.693	219.6
3158.85	209.6
3162.005	215.6
3165.157	214.6
3168.306	212.6
3171.453	223.6
3174.597	216.6
3177.739	225.6
3180.878	223.6
3184.014	213.6
3187.149	217.6
3190.28	214.6
3193.409	227.6
3196.536	219.6
3199.659	227.6
3202.781	227.6
3205.9	219.6
3209.016	218.6
3212.13	221.6
3215.241	220.6
3218.35	216.6
3221.456	219.6
3224.56	213.6
3227.661	200.6
3230.76	203.6
3233.856	207.6
3236.95	193.6
3240.041	191.6
3243.13	194.6
3246.216	194.6
3249.3	179.6
3252.382	184.6
3255.46	181.6
3258.537	181.6
3261.611	175.6
3264.682	169.6
3267.751	172.6
3270.818	156.6
3273.882	172.6
3276.943	164.6
3280.002	166.6
3283.059	164.6
3286.113	164.6
3289.165	155.6
3292.214	157.6
3295.261	157.6
3298.306	154.6
3301.348	157.6
3304.387	149.6
3307.425	149.6
3310.459	150.6
3313.492	152.6
3316.521	153.6
3319.549	161.6
3322.574	146.6
3325.597	145.6
3328.617	141.6
3331.635	161.6
3334.65	153.6
3337.663	142.6
3340.674	149.6
3343.682	142.6
3346.688	147.6
3349.691	148.6
3352.692	150.6
3355.691	153.6
3358.687	163.6
3361.681	147.6
3364.673	151.6
3367.662	147.6
3370.649	143.6
3373.633	131.6
3376.615	136.6
3379.595	129.6
3382.572	123.6
3385.547	127.6
3388.52	129.6
3391.49	124.6
3394.458	124.6
3397.424	124.6
3400.387	117.6
3403.348	102.6
3406.307	110.6
3409.263	115.6
3412.217	114.6
3415.168	116.6
3418.118	105.6
3421.065	101.6
3424.009	109.6
3426.951	99.6
3429.891	97.6
3432.829	98.6
3435.764	96.6
3438.697	96.6
3441.628	87.6
3444.557	80.6
3447.483	76.6
3450.407	71.6
3453.328	79.6
3456.247	69.6
3459.164	70.6
3462.079	57.6
3464.991	54.6
3467.902	52.6
3470.809	52.6
3473.715	46.6
3476.618	51.6
3479.519	37.6
3482.418	43.6
3485.315	39.6
3488.209	29.6
3491.101	32.6
3493.99	36.6
3496.878	28.6
3499.763	25.6
3502.646	18.6
3505.527	20.6
3508.405	17.6
3511.281	11.6
3514.155	9.6
3517.027	5.6
3519.897	9.6
3522.764	0.6
3525.629	0.6
3528.492	-0.4
3531.352	-3.4
3534.211	-6.4
3537.067	-3.4
3539.921	-5.4
3542.773	-11.4
3545.622	-11.4
3548.469	-5.4
3551.315	-15.4
3554.157	-10.4
3556.998	-18.4
3559.837	-20.4
3562.673	-22.4
3565.507	-21.4
3568.339	-19.4
3571.169	-23.4
3573.996	-18.4
3576.822	-27.4
3579.645	-31.4
3582.466	-30.4
3585.285	-29.4
3588.101	-32.4
3590.916	-29.4
3593.728	-36.4
3596.538	-35.4
3599.346	-37.4
3602.152	-30.4
3604.956	-29.4
3607.757	-31.4
3610.556	-34.4
3613.354	-42.4
3616.149	-39.4
3618.942	-37.4
3621.732	-39.4
3624.521	-42.4
3627.307	-41.4
3630.092	-43.4
3632.874	-42.4
3635.654	-46.4
3638.432	-44.4
3641.208	-44.4
3643.982	-43.4
3646.753	-46.4
3649.523	-46.4
3652.29	-49.4
3655.055	-44.4
3657.818	-52.4
3660.579	-45.4
3663.338	-40.4
3666.095	-48.4
3668.849	-46.4
3671.602	-53.4
3674.352	-47.4
3677.101	-50.4
3679.847	-45.4
3682.591	-51.4
3685.333	-53.4
3688.073	-54.4
3690.811	-49.4
3693.547	-54.4
3696.281	-52.4
3699.013	-53.4
3701.742	-57.4
3704.47	-51.4
3707.195	-54.4
3709.919	-52.4
3712.64	-54.4
3715.359	-47.4
3718.076	-57.4
3720.792	-56.4
3723.505	-51.4
3726.216	-48.4
3728.925	-55.4
3731.632	-49.4
3734.336	-58.4
3737.039	-54.4
3739.74	-57.4
3742.439	-62.4
3745.136	-54.4
3747.83	-57.4
3750.523	-61.4
3753.213	-58.4
3755.902	-60.4
3758.589	-60.4
3761.273	-58.4
3763.956	-56.4
3766.636	-56.4
3769.315	-51.4
3771.991	-53.4
3774.665	-60.4
3777.338	-54.4
3780.008	-53.4
3782.677	-60.4
3785.343	-53.4
3788.007	-59.4
3790.67	-61.4
3793.33	-56.4
3795.989	-61.4
3798.645	-62.4
3801.299	-55.4
3803.952	-59.4
3806.602	-61.4
3809.251	-63.4
3811.897	-67.4
3814.542	-61.4
3817.184	-60.4
3819.825	-54.4
3822.463	-57.4
3825.1	-54.4
3827.735	-64.4
3830.367	-60.4
3832.998	-62.4
3835.627	-61.4
3838.253	-54.4
3840.878	-53.4
3843.501	-60.4
3846.122	-59.4
3848.741	-63.4
3851.358	-61.4
3853.973	-57.4
3856.586	-60.4
3859.197	-63.4
3861.806	-61.4
3864.414	-64.4
3867.019	-66.4
3869.622	-53.4
3872.224	-46.4
3874.823	-38.4
3877.421	-40.4
3880.016	-20.4
3882.61	-10.4
3885.202	-10.4
3887.792	-18.4
3890.38	-37.4
3892.966	-47.4
3895.55	-51.4
3898.132	-54.4
3900.713	-56.4
3903.291	-63.4
3905.868	-58.4
3908.442	-58.4
3911.015	-60.4
3913.586	-71.4
3916.155	-65.4
3918.722	-62.4
3921.287	-63.4
3923.85	-56.4
3926.411	-62.4
3928.971	-71.4
3931.528	-66.4
3934.084	-58.4
3936.638	-55.4
3939.19	-66.4
3941.74	-60.4
3944.288	-62.4
3946.834	-65.4
3949.378	-64.4
3951.921	-66.4
3954.462	-60.4
3957	-55.4
3959.537	-51.4
3962.072	-57.4
3964.606	-60.4
3967.137	-64.4
3969.667	-61.4
3972.194	-58.4
3974.72	-49.4
3977.244	-58.4
3979.766	-60.4
3982.286	-66.4
3984.805	-67.4
3987.321	-56.4
3989.836	-50.4
3992.349	-57.4
3994.86	-58.4
3997.369	-62.4
3999.877	-59.4
4002.382	-65.4
4004.886	-58.4
4007.388	-64.4
4009.888	-59.4
4012.386	-63.4
4014.883	-57.4
4017.377	-59.4
4019.87	-60.4
4022.361	-64.4
4024.85	-59.4
4027.338	-58.4
4029.823	-63.4
4032.307	-61.4
4034.789	-54.4
4037.269	-62.4
4039.747	-58.4
4042.224	-62.4
4044.699	-58.4
4047.172	-66.4
4049.643	-66.4
4052.112	-62.4
4054.58	-61.4
4057.046	-60.4
4059.51	-62.4
4061.972	-62.4
4064.432	-60.4
4066.891	-55.4
4069.348	-50.4
4071.803	-53.4
4074.256	-57.4
4076.708	-59.4
4079.158	-60.4
4081.606	-55.4
4084.052	-62.4
4086.497	-55.4
4088.939	-58.4
4091.38	-64.4
4093.819	-61.4
4096.257	-61.4
4098.693	-66.4
4101.127	-60.4
4103.559	-65.4
4105.989	3.6
4108.418	-4.4
4110.845	-7.4
4113.27	-3.4
4115.694	-4.4
4118.115	2.6
4120.535	-59.4
4122.954	-60.4
4125.37	-63.4
4127.785	-58.4
4130.198	-61.4
4132.609	-60.4
4135.019	-65.4
4137.427	-63.4
4139.833	-59.4
4142.237	-61.4
