Data from 2018-3-7_conc=6_n=7_RamanShift_06.txt Node
Date: Wed Mar 07 13:18:21 IST 2018
User: aro
Spectrometer: QEPB0276
Trigger mode: 0
Integration Time (sec): 3.000000E1
Scans to average: 1
Electric dark correction enabled: true
Nonlinearity correction enabled: false
Boxcar width: 0
XAxis mode: Raman Shifts
Number of Pixels in Spectrum: 1044
>>>>>Begin Spectral Data<<<<<
160.701	8.1
166.742	15.1
172.777	43.1
178.805	144.1
184.826	390.1
190.841	827.1
196.849	1382.1
202.85	1845.1
208.845	1978.1
214.833	1987.1
220.815	1974.1
226.789	1962.1
232.758	1987.1
238.719	1955.1
244.674	1961.1
250.623	1931.1
256.565	1906.1
262.5	1863.1
268.429	1860.1
274.351	1848.1
280.267	1820.1
286.176	1817.1
292.079	1814.1
297.975	1821.1
303.865	1801.1
309.748	1789.1
315.625	1808.1
321.495	1787.1
327.359	1796.1
333.217	1801.1
339.068	1809.1
344.912	1804.1
350.751	1807.1
356.583	1806.1
362.408	1791.1
368.227	1806.1
374.04	1812.1
379.847	1818.1
385.647	1822.1
391.44	1816.1
397.228	1841.1
403.009	1857.1
408.784	1867.1
414.553	1866.1
420.315	1861.1
426.071	1853.1
431.821	1870.1
437.565	1863.1
443.302	1851.1
449.033	1846.1
454.758	1860.1
460.477	1826.1
466.189	1833.1
471.896	1809.1
477.596	1801.1
483.29	1789.1
488.978	1789.1
494.66	1782.1
500.335	1743.1
506.005	1692.1
511.668	1659.1
517.325	1603.1
522.977	1564.1
528.622	1519.1
534.261	1492.1
539.894	1488.1
545.521	1474.1
551.141	1472.1
556.756	1454.1
562.365	1442.1
567.968	1439.1
573.565	1430.1
579.155	1417.1
584.74	1435.1
590.319	1430.1
595.892	1401.1
601.459	1394.1
607.02	1405.1
612.575	1403.1
618.124	1384.1
623.667	1365.1
629.204	1346.1
634.735	1340.1
640.261	1325.1
645.781	1331.1
651.294	1336.1
656.802	1314.1
662.304	1297.1
667.8	1299.1
673.29	1293.1
678.775	1301.1
684.254	1290.1
689.726	1284.1
695.193	1277.1
700.655	1281.1
706.11	1276.1
711.56	1257.1
717.004	1243.1
722.442	1255.1
727.874	1232.1
733.301	1242.1
738.722	1219.1
744.137	1230.1
749.547	1232.1
754.951	1222.1
760.349	1210.1
765.741	1218.1
771.128	1238.1
776.509	1240.1
781.885	1251.1
787.254	1250.1
792.618	1250.1
797.977	1233.1
803.33	1232.1
808.677	1222.1
814.019	1227.1
819.355	1216.1
824.686	1204.1
830.011	1205.1
835.33	1198.1
840.644	1198.1
845.952	1194.1
851.255	1194.1
856.552	1193.1
861.844	1171.1
867.13	1157.1
872.41	1175.1
877.686	1163.1
882.955	1160.1
888.219	1144.1
893.478	1112.1
898.731	1098.1
903.979	1088.1
909.221	1091.1
914.458	1079.1
919.69	1082.1
924.916	1093.1
930.136	1085.1
935.351	1092.1
940.561	1103.1
945.766	1086.1
950.965	1070.1
956.158	1083.1
961.347	1051.1
966.529	1051.1
971.707	1032.1
976.879	1011.1
982.046	1021.1
987.208	1025.1
992.364	1013.1
997.515	1010.1
1002.66	1033.1
1007.801	1025.1
1012.936	1044.1
1018.066	1030.1
1023.19	1024.1
1028.309	1035.1
1033.423	1029.1
1038.532	1010.1
1043.636	1021.1
1048.734	1018.1
1053.827	1001.1
1058.915	988.1
1063.998	976.1
1069.075	972.1
1074.147	963.1
1079.214	985.1
1084.276	999.1
1089.333	991.1
1094.385	993.1
1099.431	975.1
1104.472	1000.1
1109.509	978.1
1114.54	959.1
1119.565	954.1
1124.586	941.1
1129.602	937.1
1134.613	919.1
1139.618	926.1
1144.619	911.1
1149.614	934.1
1154.604	914.1
1159.589	928.1
1164.57	929.1
1169.545	929.1
1174.515	925.1
1179.48	928.1
1184.44	921.1
1189.395	912.1
1194.345	907.1
1199.29	881.1
1204.23	907.1
1209.165	901.1
1214.095	907.1
1219.021	915.1
1223.941	905.1
1228.856	911.1
1233.766	916.1
1238.672	914.1
1243.572	926.1
1248.467	913.1
1253.358	897.1
1258.244	886.1
1263.124	872.1
1268	851.1
1272.871	845.1
1277.737	836.1
1282.599	837.1
1287.455	836.1
1292.306	826.1
1297.153	844.1
1301.995	850.1
1306.832	852.1
1311.664	858.1
1316.491	864.1
1321.314	872.1
1326.132	862.1
1330.945	838.1
1335.753	815.1
1340.556	814.1
1345.354	793.1
1350.148	775.1
1354.937	758.1
1359.722	727.1
1364.501	727.1
1369.276	717.1
1374.046	687.1
1378.811	681.1
1383.572	701.1
1388.327	700.1
1393.079	680.1
1397.825	700.1
1402.567	696.1
1407.304	710.1
1412.036	714.1
1416.764	698.1
1421.487	708.1
1426.205	710.1
1430.919	699.1
1435.628	724.1
1440.333	719.1
1445.032	718.1
1449.727	735.1
1454.418	728.1
1459.104	714.1
1463.785	709.1
1468.462	695.1
1473.134	687.1
1477.802	662.1
1482.465	646.1
1487.123	647.1
1491.777	634.1
1496.426	623.1
1501.071	615.1
1505.711	616.1
1510.347	612.1
1514.978	591.1
1519.604	579.1
1524.226	603.1
1528.844	588.1
1533.457	584.1
1538.065	574.1
1542.669	573.1
1547.269	572.1
1551.864	571.1
1556.454	599.1
1561.041	597.1
1565.622	617.1
1570.199	613.1
1574.772	612.1
1579.34	616.1
1583.904	617.1
1588.464	634.1
1593.019	630.1
1597.569	648.1
1602.115	639.1
1606.657	639.1
1611.195	637.1
1615.728	642.1
1620.256	634.1
1624.78	636.1
1629.3	642.1
1633.816	625.1
1638.327	634.1
1642.834	638.1
1647.336	634.1
1651.834	636.1
1656.328	632.1
1660.817	644.1
1665.302	612.1
1669.783	604.1
1674.259	584.1
1678.732	579.1
1683.199	557.1
1687.663	532.1
1692.122	510.1
1696.577	488.1
1701.028	470.1
1705.474	441.1
1709.917	435.1
1714.355	422.1
1718.788	416.1
1723.218	424.1
1727.643	418.1
1732.064	421.1
1736.481	426.1
1740.893	410.1
1745.301	401.1
1749.705	396.1
1754.105	386.1
1758.501	372.1
1762.893	372.1
1767.28	361.1
1771.663	362.1
1776.042	349.1
1780.417	346.1
1784.787	342.1
1789.154	331.1
1793.516	324.1
1797.874	312.1
1802.228	318.1
1806.578	311.1
1810.924	303.1
1815.266	311.1
1819.603	303.1
1823.937	323.1
1828.266	305.1
1832.591	325.1
1836.913	310.1
1841.23	318.1
1845.543	317.1
1849.852	320.1
1854.156	334.1
1858.457	319.1
1862.754	316.1
1867.047	315.1
1871.335	318.1
1875.62	326.1
1879.9	316.1
1884.177	312.1
1888.449	307.1
1892.718	309.1
1896.982	297.1
1901.243	291.1
1905.499	298.1
1909.752	286.1
1914	274.1
1918.245	281.1
1922.485	268.1
1926.722	270.1
1930.954	260.1
1935.183	256.1
1939.408	257.1
1943.628	255.1
1947.845	251.1
1952.058	248.1
1956.267	243.1
1960.472	248.1
1964.673	234.1
1968.87	241.1
1973.063	242.1
1977.252	238.1
1981.438	243.1
1985.619	233.1
1989.797	238.1
1993.971	244.1
1998.14	246.1
2002.306	242.1
2006.469	255.1
2010.627	257.1
2014.781	246.1
2018.932	254.1
2023.078	247.1
2027.221	242.1
2031.36	245.1
2035.495	246.1
2039.627	237.1
2043.754	229.1
2047.878	233.1
2051.998	228.1
2056.114	224.1
2060.226	225.1
2064.334	228.1
2068.439	221.1
2072.54	217.1
2076.637	223.1
2080.73	225.1
2084.82	224.1
2088.906	217.1
2092.988	213.1
2097.066	216.1
2101.14	197.1
2105.211	202.1
2109.278	198.1
2113.342	191.1
2117.401	196.1
2121.457	192.1
2125.509	192.1
2129.558	195.1
2133.602	196.1
2137.643	190.1
2141.681	187.1
2145.714	196.1
2149.744	191.1
2153.77	197.1
2157.793	184.1
2161.812	207.1
2165.827	195.1
2169.838	187.1
2173.846	186.1
2177.851	191.1
2181.851	187.1
2185.848	191.1
2189.841	183.1
2193.831	181.1
2197.817	183.1
2201.799	186.1
2205.778	179.1
2209.753	175.1
2213.725	178.1
2217.693	180.1
2221.657	180.1
2225.618	173.1
2229.575	173.1
2233.529	168.1
2237.479	177.1
2241.425	164.1
2245.368	176.1
2249.307	166.1
2253.243	164.1
2257.175	158.1
2261.104	160.1
2265.029	157.1
2268.95	162.1
2272.868	148.1
2276.783	149.1
2280.694	146.1
2284.601	146.1
2288.505	146.1
2292.405	152.1
2296.302	146.1
2300.195	142.1
2304.085	136.1
2307.971	135.1
2311.854	134.1
2315.734	128.1
2319.609	142.1
2323.482	137.1
2327.351	137.1
2331.216	147.1
2335.078	151.1
2338.937	145.1
2342.792	139.1
2346.643	142.1
2350.492	137.1
2354.336	133.1
2358.178	129.1
2362.015	142.1
2365.85	136.1
2369.681	143.1
2373.508	136.1
2377.333	151.1
2381.153	141.1
2384.971	127.1
2388.785	135.1
2392.595	139.1
2396.402	140.1
2400.206	131.1
2404.007	132.1
2407.804	134.1
2411.597	135.1
2415.388	130.1
2419.174	141.1
2422.958	138.1
2426.738	135.1
2430.515	129.1
2434.289	139.1
2438.059	130.1
2441.825	120.1
2445.589	130.1
2449.349	124.1
2453.106	131.1
2456.859	124.1
2460.61	126.1
2464.356	124.1
2468.1	123.1
2471.84	116.1
2475.577	109.1
2479.311	117.1
2483.041	110.1
2486.768	109.1
2490.492	117.1
2494.213	114.1
2497.93	111.1
2501.644	114.1
2505.355	106.1
2509.062	105.1
2512.766	103.1
2516.467	109.1
2520.165	107.1
2523.859	110.1
2527.551	94.1
2531.239	108.1
2534.923	94.1
2538.605	89.1
2542.283	89.1
2545.958	90.1
2549.63	91.1
2553.299	88.1
2556.964	82.1
2560.626	86.1
2564.285	92.1
2567.941	77.1
2571.594	82.1
2575.243	83.1
2578.89	86.1
2582.533	75.1
2586.173	75.1
2589.809	78.1
2593.443	86.1
2597.073	69.1
2600.701	74.1
2604.325	73.1
2607.946	68.1
2611.564	78.1
2615.178	75.1
2618.79	74.1
2622.398	76.1
2626.004	74.1
2629.606	71.1
2633.205	67.1
2636.801	73.1
2640.394	73.1
2643.983	69.1
2647.57	66.1
2651.153	62.1
2654.734	65.1
2658.311	63.1
2661.885	65.1
2665.456	70.1
2669.025	63.1
2672.589	62.1
2676.151	54.1
2679.71	57.1
2683.266	56.1
2686.819	70.1
2690.368	62.1
2693.915	62.1
2697.458	56.1
2700.999	57.1
2704.536	60.1
2708.071	59.1
2711.602	48.1
2715.13	46.1
2718.656	52.1
2722.178	47.1
2725.697	45.1
2729.214	53.1
2732.727	51.1
2736.237	54.1
2739.744	41.1
2743.249	45.1
2746.75	37.1
2750.248	38.1
2753.743	38.1
2757.236	39.1
2760.725	38.1
2764.211	28.1
2767.695	25.1
2771.175	30.1
2774.652	31.1
2778.127	35.1
2781.598	37.1
2785.067	30.1
2788.532	31.1
2791.995	38.1
2795.455	30.1
2798.911	34.1
2802.365	34.1
2805.816	36.1
2809.264	35.1
2812.709	33.1
2816.151	36.1
2819.59	45.1
2823.026	33.1
2826.46	36.1
2829.89	33.1
2833.318	31.1
2836.742	34.1
2840.164	31.1
2843.583	34.1
2846.999	34.1
2850.412	36.1
2853.822	38.1
2857.229	37.1
2860.634	39.1
2864.035	36.1
2867.434	46.1
2870.83	49.1
2874.223	47.1
2877.613	47.1
2881	47.1
2884.385	45.1
2887.766	48.1
2891.145	51.1
2894.521	46.1
2897.894	44.1
2901.264	43.1
2904.631	47.1
2907.996	44.1
2911.358	51.1
2914.717	51.1
2918.073	52.1
2921.426	50.1
2924.777	61.1
2928.124	59.1
2931.469	65.1
2934.811	63.1
2938.15	65.1
2941.487	71.1
2944.821	62.1
2948.152	69.1
2951.48	65.1
2954.805	70.1
2958.128	65.1
2961.447	70.1
2964.765	57.1
2968.079	60.1
2971.39	61.1
2974.699	56.1
2978.005	61.1
2981.308	55.1
2984.609	52.1
2987.907	57.1
2991.202	58.1
2994.494	55.1
2997.784	56.1
3001.07	59.1
3004.355	64.1
3007.636	66.1
3010.915	70.1
3014.191	58.1
3017.464	67.1
3020.734	75.1
3024.002	73.1
3027.267	73.1
3030.53	74.1
3033.789	71.1
3037.046	73.1
3040.301	71.1
3043.552	79.1
3046.801	81.1
3050.048	80.1
3053.291	88.1
3056.532	87.1
3059.771	93.1
3063.006	97.1
3066.239	98.1
3069.469	106.1
3072.697	111.1
3075.922	116.1
3079.144	115.1
3082.364	118.1
3085.581	128.1
3088.795	118.1
3092.007	128.1
3095.216	129.1
3098.423	121.1
3101.627	126.1
3104.828	145.1
3108.026	142.1
3111.222	134.1
3114.416	142.1
3117.607	146.1
3120.795	151.1
3123.98	153.1
3127.163	167.1
3130.344	164.1
3133.521	166.1
3136.696	172.1
3139.869	172.1
3143.039	173.1
3146.206	178.1
3149.371	182.1
3152.533	183.1
3155.693	188.1
3158.85	186.1
3162.005	183.1
3165.157	177.1
3168.306	194.1
3171.453	187.1
3174.597	184.1
3177.739	191.1
3180.878	186.1
3184.014	183.1
3187.149	188.1
3190.28	196.1
3193.409	195.1
3196.536	197.1
3199.659	197.1
3202.781	201.1
3205.9	188.1
3209.016	191.1
3212.13	194.1
3215.241	192.1
3218.35	191.1
3221.456	189.1
3224.56	178.1
3227.661	171.1
3230.76	180.1
3233.856	179.1
3236.95	167.1
3240.041	169.1
3243.13	171.1
3246.216	158.1
3249.3	157.1
3252.382	159.1
3255.46	157.1
3258.537	158.1
3261.611	146.1
3264.682	153.1
3267.751	154.1
3270.818	142.1
3273.882	152.1
3276.943	142.1
3280.002	143.1
3283.059	151.1
3286.113	137.1
3289.165	145.1
3292.214	136.1
3295.261	135.1
3298.306	144.1
3301.348	136.1
3304.387	135.1
3307.425	137.1
3310.459	126.1
3313.492	133.1
3316.521	129.1
3319.549	130.1
3322.574	128.1
3325.597	132.1
3328.617	131.1
3331.635	137.1
3334.65	145.1
3337.663	128.1
3340.674	131.1
3343.682	131.1
3346.688	133.1
3349.691	137.1
3352.692	130.1
3355.691	137.1
3358.687	134.1
3361.681	130.1
3364.673	126.1
3367.662	120.1
3370.649	129.1
3373.633	120.1
3376.615	125.1
3379.595	117.1
3382.572	108.1
3385.547	113.1
3388.52	113.1
3391.49	103.1
3394.458	103.1
3397.424	108.1
3400.387	109.1
3403.348	98.1
3406.307	95.1
3409.263	101.1
3412.217	94.1
3415.168	104.1
3418.118	97.1
3421.065	88.1
3424.009	96.1
3426.951	94.1
3429.891	78.1
3432.829	86.1
3435.764	86.1
3438.697	80.1
3441.628	68.1
3444.557	81.1
3447.483	74.1
3450.407	69.1
3453.328	71.1
3456.247	62.1
3459.164	56.1
3462.079	53.1
3464.991	60.1
3467.902	55.1
3470.809	50.1
3473.715	46.1
3476.618	42.1
3479.519	35.1
3482.418	37.1
3485.315	28.1
3488.209	33.1
3491.101	26.1
3493.99	30.1
3496.878	23.1
3499.763	19.1
3502.646	16.1
3505.527	18.1
3508.405	16.1
3511.281	21.1
3514.155	10.1
3517.027	8.1
3519.897	12.1
3522.764	9.1
3525.629	9.1
3528.492	3.1
3531.352	-1.9
3534.211	-0.9
3537.067	-3.9
3539.921	2.1
3542.773	-7.9
3545.622	-5.9
3548.469	-9.9
3551.315	-6.9
3554.157	-13.9
3556.998	-13.9
3559.837	-12.9
3562.673	-18.9
3565.507	-15.9
3568.339	-14.9
3571.169	-16.9
3573.996	-12.9
3576.822	-25.9
3579.645	-22.9
3582.466	-18.9
3585.285	-21.9
3588.101	-17.9
3590.916	-17.9
3593.728	-23.9
3596.538	-29.9
3599.346	-29.9
3602.152	-25.9
3604.956	-27.9
3607.757	-23.9
3610.556	-30.9
3613.354	-35.9
3616.149	-29.9
3618.942	-31.9
3621.732	-37.9
3624.521	-31.9
3627.307	-30.9
3630.092	-31.9
3632.874	-32.9
3635.654	-34.9
3638.432	-31.9
3641.208	-32.9
3643.982	-25.9
3646.753	-35.9
3649.523	-28.9
3652.29	-32.9
3655.055	-36.9
3657.818	-37.9
3660.579	-34.9
3663.338	-35.9
3666.095	-39.9
3668.849	-42.9
3671.602	-41.9
3674.352	-33.9
3677.101	-41.9
3679.847	-41.9
3682.591	-48.9
3685.333	-40.9
3688.073	-47.9
3690.811	-40.9
3693.547	-44.9
3696.281	-39.9
3699.013	-43.9
3701.742	-49.9
3704.47	-38.9
3707.195	-42.9
3709.919	-47.9
3712.64	-39.9
3715.359	-44.9
3718.076	-41.9
3720.792	-43.9
3723.505	-44.9
3726.216	-35.9
3728.925	-50.9
3731.632	-39.9
3734.336	-43.9
3737.039	-48.9
3739.74	-45.9
3742.439	-54.9
3745.136	-50.9
3747.83	-47.9
3750.523	-54.9
3753.213	-50.9
3755.902	-49.9
3758.589	-50.9
3761.273	-42.9
3763.956	-52.9
3766.636	-48.9
3769.315	-40.9
3771.991	-48.9
3774.665	-50.9
3777.338	-50.9
3780.008	-47.9
3782.677	-49.9
3785.343	-44.9
3788.007	-47.9
3790.67	-45.9
3793.33	-43.9
3795.989	-51.9
3798.645	-49.9
3801.299	-48.9
3803.952	-51.9
3806.602	-49.9
3809.251	-53.9
3811.897	-54.9
3814.542	-54.9
3817.184	-49.9
3819.825	-42.9
3822.463	-53.9
3825.1	-45.9
3827.735	-50.9
3830.367	-48.9
3832.998	-53.9
3835.627	-46.9
3838.253	-42.9
3840.878	-42.9
3843.501	-44.9
3846.122	-47.9
3848.741	-47.9
3851.358	-45.9
3853.973	-49.9
3856.586	-45.9
3859.197	-47.9
3861.806	-50.9
3864.414	-54.9
3867.019	-56.9
3869.622	-44.9
3872.224	-40.9
3874.823	-30.9
3877.421	-28.9
3880.016	-16.9
3882.61	1.1
3885.202	0.1
3887.792	-2.9
3890.38	-21.9
3892.966	-36.9
3895.55	-44.9
3898.132	-44.9
3900.713	-45.9
3903.291	-53.9
3905.868	-43.9
3908.442	-47.9
3911.015	-52.9
3913.586	-52.9
3916.155	-47.9
3918.722	-48.9
3921.287	-50.9
3923.85	-45.9
3926.411	-54.9
3928.971	-58.9
3931.528	-54.9
3934.084	-47.9
3936.638	-56.9
3939.19	-58.9
3941.74	-46.9
3944.288	-50.9
3946.834	-49.9
3949.378	-49.9
3951.921	-53.9
3954.462	-52.9
3957	-37.9
3959.537	-41.9
3962.072	-47.9
3964.606	-45.9
3967.137	-46.9
3969.667	-48.9
3972.194	-45.9
3974.72	-41.9
3977.244	-42.9
3979.766	-49.9
3982.286	-47.9
3984.805	-57.9
3987.321	-48.9
3989.836	-44.9
3992.349	-54.9
3994.86	-51.9
3997.369	-48.9
3999.877	-51.9
4002.382	-50.9
4004.886	-47.9
4007.388	-49.9
4009.888	-48.9
4012.386	-49.9
4014.883	-46.9
4017.377	-44.9
4019.87	-49.9
4022.361	-49.9
4024.85	-43.9
4027.338	-52.9
4029.823	-55.9
4032.307	-50.9
4034.789	-44.9
4037.269	-48.9
4039.747	-53.9
4042.224	-52.9
4044.699	-54.9
4047.172	-52.9
4049.643	-54.9
4052.112	-54.9
4054.58	-54.9
4057.046	-49.9
4059.51	-49.9
4061.972	-53.9
4064.432	-50.9
4066.891	-48.9
4069.348	-45.9
4071.803	-43.9
4074.256	-46.9
4076.708	-47.9
4079.158	-58.9
4081.606	-49.9
4084.052	-47.9
4086.497	-40.9
4088.939	-42.9
4091.38	-50.9
4093.819	-57.9
4096.257	-48.9
4098.693	-49.9
4101.127	-44.9
4103.559	-51.9
4105.989	8.1
4108.418	-1.9
4110.845	-4.9
4113.27	3.1
4115.694	4.1
4118.115	1.1
4120.535	-54.9
4122.954	-49.9
4125.37	-50.9
4127.785	-42.9
4130.198	-48.9
4132.609	-57.9
4135.019	-52.9
4137.427	-56.9
4139.833	-49.9
4142.237	-50.9
