##TITLE=
##FORMAT=SPECTACLE-ASCII V-1.2
##DATA TYPE=ULTRAVIOLET SPECTRUM
##SECOND TYPE=ULTRAVIOLET SPECTRUM
##DATE=09/27/17
##TIME=10:50:24
##SPECTROMETER/DATA SYSTEM=SPECTACLE
##XUNITS=NM EM
##YUNITS=ENERGY
##YFACTOR=1
##FIRSTX=220
##LASTX=410
##NPOINTS=96
##3DDATA=Equidistant
##ZUNITS=NM EX
##FIRSTZ=210
##LASTZ=400
##ZPOINTS=39
##XYDATA=(Y..Y)
##ZVALUE=210
3.211498
3.555417
3.462434
3.594756
3.919601
3.851652
3.917813
3.434420
3.561974
3.788471
4.031658
3.873706
3.302693
3.609657
3.927946
3.744960
4.404783
4.125834
4.028678
4.895926
3.856421
5.172491
4.818439
4.550815
5.480647
5.337000
4.951954
5.661845
5.417466
5.903840
5.635619
5.868673
6.802678
6.045699
6.791949
6.406903
6.212592
6.499887
6.597638
6.969571
7.271767
7.104874
7.164478
7.070899
7.400513
7.035732
7.487535
7.637739
7.301569
6.677508
7.611513
7.654428
7.348657
7.672906
7.570982
8.607507
7.270575
6.903410
7.718801
8.037686
8.257627
7.817745
7.516742
7.698536
8.201599
7.998943
7.781982
8.480549
9.406805
10.388494
11.122823
12.061000
12.371540
14.119744
16.443729
16.863942
15.831590
16.107559
16.254783
15.252829
14.944673
13.936758
12.147427
10.362864
10.016561
8.711815
7.368922
7.711649
7.027984
6.658435
7.122755
7.945895
8.153915
6.575584
8.295774
8.312464
##ZVALUE=215
5.856752
5.986691
5.384684
5.205870
5.128980
5.248785
4.926920
5.526543
5.409718
4.950762
4.739761
5.235672
5.651712
4.727840
4.281998
4.428625
4.002452
4.320741
4.089475
4.601479
4.710555
5.188584
4.970431
4.925728
5.221963
5.474687
6.257892
6.315708
6.490946
7.333755
7.737875
6.877780
7.956624
7.940531
7.796884
8.193851
8.620620
8.621812
8.633733
7.908940
8.412600
8.197427
8.408427
8.431673
7.874966
8.680820
8.866787
8.568764
8.377433
8.309484
9.567738
8.679628
8.495450
8.304715
9.887815
8.236766
9.273887
9.498596
8.779764
9.880662
8.952618
9.032488
8.211732
8.295774
9.445548
9.300709
9.330511
9.904504
10.177493
10.997653
11.366606
12.641549
14.836788
15.229583
15.422702
16.934872
15.862584
15.726686
16.290545
14.333725
14.651418
13.151765
11.041760
10.633469
10.366440
10.630488
8.638501
8.760691
7.997751
8.101463
7.791519
7.976890
8.401871
8.352995
9.464622
7.294416
##ZVALUE=220
15.923977
17.220974
17.122626
18.891692
17.984509
13.371706
11.601448
10.548830
11.086464
9.509921
11.770725
10.983944
11.229515
9.580851
9.910464
7.070899
7.352829
5.375743
4.503727
4.553795
4.392862
4.678965
4.898906
5.607605
5.431771
5.399585
5.923510
7.290840
7.494688
8.997917
9.697676
9.267926
10.123849
11.313558
11.480451
10.462999
12.261868
11.693835
12.045503
12.322664
12.299418
11.845827
11.581779
11.960864
10.145903
11.188984
10.962486
11.482835
11.420846
12.955666
11.981726
12.327433
12.880564
13.592839
12.005568
12.661815
13.680458
13.325810
13.981462
13.421774
13.510585
12.744665
13.007522
12.252927
12.967587
12.964606
12.524724
13.134480
13.947487
14.408827
15.279651
16.333461
18.209815
19.222498
19.268990
20.269752
18.003583
17.331839
18.641949
16.722679
17.701983
16.193986
15.180707
14.872551
14.456511
12.522936
12.398958
11.069775
11.392832
11.604428
10.195971
9.742975
9.949803
9.816885
9.880662
9.516478
##ZVALUE=225
26.922822
28.003454
34.929514
50.936937
54.849982
55.812597
52.114725
44.957995
34.854412
28.386712
21.355748
19.844770
21.793842
24.966598
24.729967
21.710992
19.570589
16.571879
13.509989
9.061694
7.789731
5.966425
5.916953
6.300807
6.029606
6.354451
8.189678
8.501410
8.926988
10.650754
9.896755
10.303855
11.166930
13.248920
13.756752
13.019443
14.697909
14.776587
14.861822
16.005635
16.850829
16.071796
15.838742
16.812682
17.265677
17.252564
17.321706
17.846823
18.222928
19.472837
19.815564
19.778609
19.722581
19.058585
20.494461
20.975471
21.468997
21.711588
20.915866
21.434426
22.380948
22.488832
21.966696
21.313429
21.723509
20.842552
23.501515
22.614598
23.423433
23.658872
24.690628
24.513602
26.676655
25.743842
25.722980
26.945472
24.515986
25.002956
23.105741
22.408962
22.481680
23.592710
21.122694
19.209981
20.041466
18.029809
18.241405
18.280745
17.046928
17.135739
15.963912
17.532706
17.610788
15.688539
17.091632
15.563965
##ZVALUE=230
25.197864
26.506782
43.880939
75.600743
97.489953
127.308965
147.846937
146.142840
138.584971
115.060806
83.782673
58.953762
47.430992
42.442679
44.157505
46.842694
48.908591
46.039820
41.633844
34.850836
27.373433
19.569993
12.644529
9.141564
8.018613
6.708503
6.645918
7.603765
8.594990
8.574724
8.974671
10.619760
11.403561
12.156963
13.532639
13.936758
15.722513
17.092824
17.584562
21.436810
19.893646
20.304918
22.103786
23.237467
23.472905
24.823546
25.733709
26.568770
27.048588
28.973818
30.954480
30.138493
31.700730
33.375621
33.930540
34.716725
34.845471
36.766529
36.648512
37.173629
36.340952
37.758946
37.494898
36.414862
37.861466
36.327839
37.639737
39.152503
41.272640
38.556457
38.761497
41.852593
38.793683
40.292740
43.021441
41.975975
41.770935
42.057633
40.122867
39.890409
39.102435
37.682652
34.758449
32.910705
32.977462
31.646490
28.911829
31.298995
29.312968
28.828979
30.242801
28.226972
27.357936
25.931597
25.534630
26.564598
##ZVALUE=235
10.503531
11.086464
21.473765
51.479936
85.536838
143.082738
197.671652
259.385705
294.377804
305.401683
283.258557
236.899853
162.953734
122.844577
83.638430
69.294572
67.573786
72.005987
77.571869
79.422593
74.250698
64.730644
51.182508
37.022829
25.003552
15.688539
12.822747
8.980632
8.079410
9.019971
9.195805
9.049773
10.285974
10.702610
12.924671
13.260841
15.839934
16.959906
19.234419
20.308495
23.621917
24.823546
27.383566
30.334592
33.369660
34.923553
35.638809
39.403439
43.346882
46.688914
46.437979
47.405958
47.881603
49.978495
50.505996
54.624677
54.578781
55.534840
61.096549
58.386922
58.568716
57.154894
59.693456
60.606599
62.903762
60.958862
62.437654
62.382817
62.337518
65.463781
64.263940
62.629580
61.170459
65.158606
64.896941
62.928796
63.613653
60.608983
59.777498
60.395598
58.048964
57.498813
52.539706
53.646564
50.672889
51.997900
49.440861
48.034787
49.110651
47.920942
46.606660
46.410561
41.406751
39.908886
40.020943
41.353703
##ZVALUE=240
3.198981
2.994537
6.182790
14.773607
36.737919
70.952773
142.714977
217.977762
329.425931
409.893990
462.349653
477.190018
450.027585
365.043879
285.598636
185.498595
134.948492
97.451806
90.670586
96.408725
104.685426
113.533735
109.043717
97.965002
82.233548
60.521960
42.854548
32.706857
21.533966
15.238523
12.783408
11.045933
11.267662
11.489987
13.348460
14.872551
14.373660
19.329786
21.802783
24.338961
25.895834
29.849410
33.431649
39.806962
43.444633
49.870610
53.877831
56.642890
57.612658
61.419606
66.219568
68.744421
70.964694
75.121522
77.352524
78.066587
78.911781
79.769492
83.016753
77.796578
79.181790
78.133941
81.039667
79.326630
80.145597
81.975460
82.179904
84.722638
81.499815
80.686808
80.935955
79.992414
83.456635
82.991719
84.197521
82.171559
77.441931
80.766678
79.413652
75.760484
72.355866
73.087811
70.846677
71.213841
67.428946
65.279603
64.464808
63.093901
60.737729
60.618520
60.545802
56.907535
54.911971
55.420995
53.873658
53.496957
##ZVALUE=245
3.005862
3.221631
3.125668
3.445745
4.396439
14.270544
28.805733
79.492927
141.831636
225.908756
371.299982
479.604006
574.270487
600.739717
562.775731
494.387746
368.467569
276.240706
172.992945
124.654770
97.818971
97.091794
106.982589
125.144720
130.001903
120.994449
108.914971
88.986754
72.816610
49.976707
37.756562
24.142861
17.929673
15.464425
14.554858
15.472770
17.209649
20.055771
22.112727
28.273463
32.633543
35.535693
39.570928
45.499802
49.512982
56.621432
61.295629
65.362453
69.981813
75.518489
77.560544
80.860853
84.466934
88.504553
88.033676
89.786649
89.606643
88.778734
90.830922
91.200471
88.710785
85.613728
87.052584
84.139705
83.975792
86.292624
85.842609
84.658861
84.408522
80.678463
82.504749
80.985427
82.439780
79.698563
82.108974
79.761744
80.312490
77.064633
75.648427
74.785948
71.879625
69.858432
71.645975
66.996813
65.638423
66.715479
64.250827
63.329935
63.167810
59.145689
57.346821
56.210756
54.414868
57.120919
55.213571
53.016543
##ZVALUE=250
3.108978
2.749562
2.902746
2.543926
2.857447
2.585649
3.262758
7.519722
25.810599
56.754947
138.304830
238.214731
351.212621
511.954427
618.973970
697.515607
686.368942
622.497797
526.233912
360.307693
253.465772
169.466734
101.821423
95.162988
103.282928
115.792751
133.806467
138.169527
133.257508
124.562979
107.336640
82.057714
61.143637
40.924549
29.880404
22.102594
21.291971
22.041798
24.511814
27.805567
32.170415
36.026835
40.360689
47.319531
52.567720
60.023665
65.051913
67.950487
72.939992
78.885555
83.188415
87.178946
86.437464
90.280771
88.341832
87.500811
90.734959
87.847710
86.527467
88.254809
85.902810
82.470775
83.493590
80.351830
80.182552
77.231526
76.721907
75.619817
74.363947
74.093938
72.489977
73.728561
71.871877
71.253777
70.991516
69.389939
68.668723
67.647696
66.234469
65.094829
61.635971
62.165856
61.759949
58.650970
58.420897
59.438944
56.884885
55.406690
56.117773
52.995682
55.041909
51.045418
50.454736
48.837662
49.228668
52.056909
##ZVALUE=255
2.160668
2.538562
2.276897
2.595782
2.588630
2.616644
2.922416
2.827644
2.909899
4.653931
17.614961
41.035414
87.499619
195.988417
313.517451
495.651960
626.034737
754.910707
799.236894
755.213499
658.226609
524.939895
330.202579
212.333798
121.172667
92.989802
89.973807
104.230642
123.933554
138.617754
148.662925
148.584843
136.600733
109.689832
91.690421
65.259933
50.066710
35.667419
31.036735
30.848980
31.272769
36.409497
39.315820
45.991540
47.607422
54.018497
58.501959
62.769651
66.064000
69.944859
74.597001
77.399611
77.827573
79.512596
79.172850
78.643560
79.896450
80.178976
78.730583
77.931881
77.024698
75.253844
71.617961
71.830750
70.259571
67.477822
66.338778
66.469908
64.174533
64.412951
63.201785
61.104894
59.462786
60.671568
60.323477
58.396459
59.235692
57.933927
57.040453
57.801604
56.027770
54.709911
54.501891
52.820444
52.515864
52.300692
53.345561
49.521923
51.080585
49.873590
49.488544
47.782660
47.217607
49.162507
47.291517
45.782924
##ZVALUE=260
2.371669
2.308488
2.270937
2.218485
2.291799
2.105832
2.423525
2.276897
2.428889
2.655983
2.919436
3.592968
7.327795
26.764870
59.031844
145.890713
249.396563
430.555940
578.429699
773.226023
873.605609
880.709887
779.104829
640.294552
430.735946
294.528008
168.455839
110.213757
82.161427
86.882710
102.691650
130.233765
147.647858
157.526731
157.147646
137.849450
120.442510
96.926689
77.390671
56.922436
47.953725
41.909814
40.454865
41.615963
44.574738
47.580600
49.347878
54.039955
56.058764
58.949590
59.955716
64.531565
64.920783
65.490603
65.303445
65.264702
65.442920
64.337850
63.573718
63.923001
64.841509
62.608719
60.054660
58.946609
60.268641
58.306456
56.816936
56.036711
57.034492
55.254698
53.621531
54.022670
53.606629
52.119493
54.061413
53.124428
51.626563
52.371621
52.448511
51.880479
49.985647
51.493645
50.595999
49.457550
47.882795
47.613978
47.676563
44.852495
47.021508
45.123696
46.449900
43.859482
45.164824
44.610500
44.255853
42.322874
##ZVALUE=265
1.993775
1.849532
2.130866
2.093911
2.152920
2.106428
2.157688
2.456903
2.376437
2.455711
2.427697
2.542734
2.523661
2.752542
4.948974
18.431544
44.854879
113.326907
203.967690
390.797853
552.174449
702.387691
879.674554
927.890539
861.936808
739.586949
547.688007
387.791991
216.503739
136.769414
85.033774
75.520873
87.579489
117.842555
141.428709
163.891912
168.676972
160.482526
148.564577
126.900673
106.238723
84.761977
66.446662
52.233934
48.959851
46.465993
46.417713
46.418905
50.385594
51.239729
51.746964
54.668784
54.333806
54.927468
54.163933
55.558681
56.291819
55.519938
55.825710
54.417849
54.828525
54.535866
52.280426
51.889420
54.154992
51.842928
52.445531
51.249862
50.838590
50.066710
51.216483
50.519705
50.804615
48.874617
49.384832
48.721433
48.982501
47.390461
48.361421
49.268603
47.496557
48.146844
45.755506
46.005845
45.222640
44.219494
45.082569
44.005513
43.381453
42.826533
41.233897
41.353703
41.857958
41.672587
41.513443
40.297508
##ZVALUE=270
1.978874
2.134442
2.071857
1.919866
1.993775
2.047420
2.004504
1.892447
1.914501
2.026558
2.084970
1.922846
2.373457
2.296567
2.128482
2.514720
3.646612
8.362532
31.057596
72.969794
151.800513
319.123864
479.261875
708.708763
858.258009
958.638787
950.436592
832.632780
698.256493
483.080745
331.425667
177.609921
110.349655
72.397590
72.396994
96.988678
122.769475
152.957439
167.460442
177.319646
174.287558
156.202912
138.781667
111.245513
92.737675
71.883798
61.066747
51.294565
49.855709
48.203468
49.511790
51.600933
51.468611
50.158501
50.886869
52.045584
52.936673
52.884817
52.226782
51.830411
52.139759
50.766468
51.402450
51.386952
50.448775
51.437616
51.767826
51.435828
50.195456
50.016642
51.977634
50.370693
50.367713
50.334930
48.893690
50.691962
48.953891
48.117638
48.169494
47.953725
48.692822
45.969486
44.883490
44.997931
43.414831
44.164658
43.457747
43.807626
42.834878
42.055845
40.336847
40.391684
40.575862
40.614605
40.210485
40.701628
##ZVALUE=275
1.729727
1.730919
1.732707
1.677871
1.776814
1.686811
2.009869
1.896620
1.845956
1.881719
1.962781
2.099872
2.002716
2.160668
2.199411
2.383590
2.140999
2.331734
2.597570
4.783869
15.559793
42.717457
125.236511
240.277648
454.318523
623.134971
830.791593
953.455567
1011.453867
958.610773
846.972466
639.218688
456.181765
247.549415
149.389505
79.844594
63.576698
76.297522
97.633004
128.685832
151.451826
173.678994
180.157423
175.305009
160.815716
135.871768
118.886828
93.347430
77.197552
63.170791
56.551695
51.459670
49.777627
50.115585
49.735904
50.662756
50.815940
51.585436
51.297545
52.663684
52.954555
52.629709
52.853823
52.478909
53.606629
52.886605
52.997470
52.751899
53.258538
52.909851
51.844716
51.536560
52.149892
51.939487
52.541494
51.281452
50.153732
50.133467
49.410462
47.569871
48.362613
46.618581
45.417547
45.671463
44.551492
44.398904
44.395924
42.655468
42.528510
41.717887
39.611459
40.850639
40.192604
39.074421
38.404465
39.459467
##ZVALUE=280
1.659989
1.781583
1.757741
1.797676
1.773834
1.850724
1.903772
1.806617
1.909733
1.999736
1.772642
1.759529
1.891851
1.835823
1.973510
1.871586
1.983643
2.101660
2.450943
2.732873
2.672672
2.866983
10.641813
32.370687
99.446774
187.197924
364.297628
537.005663
771.559477
929.509997
1015.805006
1015.805006
933.494568
714.095831
529.602766
310.020447
189.917684
95.617771
63.577890
59.113503
73.669553
101.980567
123.231411
154.046416
169.796944
178.843737
171.733499
157.269835
139.317513
111.327767
95.452666
73.855519
62.164664
53.916574
50.151944
48.304796
48.142672
50.778985
50.596595
51.846504
51.423907
51.369667
52.569509
53.764582
52.013993
53.491592
52.429438
52.623749
52.352548
52.212477
52.343607
52.553415
51.932931
51.958561
52.649975
52.148700
50.738454
49.677491
49.567819
48.616529
48.148632
48.139691
45.954585
44.883490
44.632554
43.301582
42.422414
42.540431
41.626692
41.230917
41.403770
40.114522
39.128661
38.329959
38.737655
38.288832
##ZVALUE=285
1.580715
1.847744
1.701713
1.519918
1.650453
1.668930
1.590848
1.804829
1.712441
1.624823
1.577735
1.528859
1.653433
1.678467
1.868606
2.028942
1.782775
1.924634
2.048612
2.043843
2.319813
2.279878
2.541542
2.775788
5.480647
16.834736
55.476427
114.675760
254.389644
414.407849
600.962639
864.658952
1006.598473
1015.805602
1015.805602
852.019787
666.266680
413.344502
260.146856
130.715966
75.699687
48.083663
50.186515
69.524646
90.539455
122.386813
141.535997
161.610842
169.285536
163.026452
154.705644
133.113861
114.388466
89.268684
73.734522
57.976842
52.076578
47.639608
46.857595
46.987534
47.109723
48.284531
47.956705
49.731731
49.137473
49.969554
50.736666
50.772429
50.589442
50.854683
51.329732
51.045418
50.903559
50.876737
49.553514
49.853921
48.927665
49.075484
47.303438
47.867894
47.291517
46.959519
46.195984
44.811964
44.054985
42.794943
42.893887
42.394996
41.632652
40.036440
40.345788
39.671659
38.760900
38.272738
37.254691
37.157536
##ZVALUE=290
1.591444
1.574755
1.592636
1.588464
1.646876
1.631975
1.495481
1.491904
1.509786
1.473427
1.712441
1.638532
1.699924
1.773834
1.727939
1.737475
1.774430
1.902580
1.913905
1.871586
2.068877
2.207756
1.946688
2.086759
2.250671
2.322793
3.034472
7.345676
29.778481
69.543719
139.260888
307.432413
490.997434
767.523646
948.289037
1015.805006
1015.805006
956.174731
785.128474
529.662967
350.808501
182.219744
100.628734
46.807528
35.472512
44.668913
59.628487
84.704757
105.857849
132.976770
148.755908
160.704851
159.106851
146.631598
129.582882
105.648637
87.164640
68.306923
55.899620
47.525764
43.848753
42.675734
42.957664
43.575764
42.702556
43.276548
44.753551
45.049787
45.656562
45.720935
45.844913
45.490861
45.607686
45.485497
45.651793
45.783520
45.588613
46.156645
44.267774
44.538975
44.668913
42.882562
42.143464
43.153763
42.621493
41.354895
41.632652
40.177703
39.485693
39.160848
39.038658
37.334561
37.467480
37.205815
36.434531
36.455989
##ZVALUE=295
1.246929
1.215935
1.203418
1.194477
1.162887
1.225471
1.276731
1.289845
1.333952
1.228452
1.343489
1.310706
1.234412
1.244545
1.323819
1.452565
1.469851
1.607537
1.507998
1.519918
1.548529
1.651645
1.612902
1.875758
1.708865
1.962781
2.088547
2.152920
2.511740
3.567934
10.706782
43.790936
99.563003
237.371922
397.814512
656.362772
849.371552
1015.606523
1015.606523
1015.606523
907.331705
654.164553
454.709530
246.363878
138.576627
55.531859
32.575727
29.394627
37.496686
56.513548
75.851679
102.613568
123.679638
143.008828
150.443912
147.431493
139.952898
119.555593
102.620721
80.064535
65.172911
50.295591
43.765903
38.877726
37.404895
37.021637
37.779808
37.162900
37.977695
38.087964
38.424730
38.820505
40.219426
40.232539
39.649606
40.010810
40.340424
39.955974
40.217638
40.681958
39.931536
39.925575
39.686561
39.180517
39.320588
39.502978
37.784576
37.610531
37.224889
37.225485
35.914779
36.141872
34.920573
35.472512
34.172535
33.837557
##ZVALUE=300
1.278520
1.418591
1.448989
1.420975
1.243949
1.402497
1.215935
1.397729
1.413822
1.419783
1.296997
1.535416
1.375675
1.490712
1.335740
1.721978
1.562834
1.566410
1.680851
1.538992
1.472831
1.561642
1.670718
1.853704
1.928806
1.835823
1.900792
1.885891
2.025962
2.297759
2.303720
2.717972
7.489920
23.424625
76.965690
153.629780
320.534706
491.929650
742.335916
901.580453
1015.805602
1015.805602
938.185453
781.322718
523.205996
347.312689
176.495910
96.380711
39.166808
24.659634
26.609898
34.726858
51.934719
68.810582
94.464421
114.825964
134.520531
143.310428
141.103864
133.845806
116.050839
98.468661
76.637864
62.413812
47.618747
40.881634
35.696626
33.937693
33.441782
33.411980
34.386516
34.566522
35.650730
35.503507
36.128759
37.047863
37.388802
36.498904
37.257671
38.062930
37.836432
38.562417
37.454963
38.087964
37.509799
38.049817
37.302971
37.157536
36.639571
36.299825
34.963489
35.285950
34.160614
34.192801
34.231544
33.208728
##ZVALUE=305
1.367927
1.355410
1.342893
1.414418
1.312494
1.254678
1.256466
1.321435
1.340508
1.297593
1.231432
1.458526
1.358986
1.449585
1.341701
1.459718
1.531839
1.379848
1.433492
1.638532
1.488924
1.625419
1.632571
1.551509
1.688600
1.763701
1.829863
1.779795
1.822710
1.886487
1.759529
2.071857
2.180934
2.500415
4.113913
13.176799
52.239895
113.402605
254.618526
401.268601
636.227727
814.564824
998.834968
1015.805006
988.643765
853.303671
619.727969
445.811749
242.803693
132.462978
54.674745
29.138923
21.210909
24.709702
34.835935
47.943592
71.961880
88.834763
113.436580
126.473904
138.937831
138.683915
128.331780
114.911795
91.618896
76.084733
57.404637
47.341585
38.364530
34.551620
33.090711
33.592582
33.836961
33.509731
35.207868
35.804510
35.599470
36.169887
37.964582
37.342906
38.382411
38.371682
38.535595
39.132833
37.773848
38.223863
38.334727
37.373900
37.610531
36.784410
36.904812
37.277937
35.788417
35.195947
34.445524
34.702420
##ZVALUE=310
1.201630
1.170635
1.059771
1.106858
1.213551
1.085997
1.047850
1.205802
1.248717
1.200438
1.231432
1.335740
1.353621
1.230836
1.397729
1.330972
1.331568
1.256466
1.253486
1.342893
1.321435
1.270771
1.370907
1.384616
1.406670
1.447797
1.671910
1.750588
1.425743
1.578927
1.737475
1.877546
1.756549
1.871586
2.067685
1.997948
2.463460
7.388592
