##TITLE=
##FORMAT=SPECTACLE-ASCII V-1.2
##DATA TYPE=ULTRAVIOLET SPECTRUM
##SECOND TYPE=ULTRAVIOLET SPECTRUM
##DATE=09/27/17
##TIME=13:50:07
##SPECTROMETER/DATA SYSTEM=SPECTACLE
##XUNITS=NM EM
##YUNITS=ENERGY
##YFACTOR=1
##FIRSTX=220
##LASTX=410
##NPOINTS=96
##3DDATA=Equidistant
##ZUNITS=NM EX
##FIRSTZ=210
##LASTZ=400
##ZPOINTS=39
##XYDATA=(Y..Y)
##ZVALUE=210
4.250407
4.934669
3.346801
3.923774
3.766418
4.271865
4.438758
4.687905
3.927946
4.090667
3.397465
3.529787
4.097819
3.653765
3.860593
3.690720
3.874898
4.123449
3.805757
4.595518
4.818439
4.556775
4.671812
5.235672
5.597472
5.539656
6.284714
7.967949
6.914735
6.966591
8.563995
7.546544
7.892847
9.623766
9.054542
9.638667
8.892417
8.877516
9.191632
9.796619
8.881688
9.531975
9.236932
8.790493
9.938478
9.054542
9.213686
10.107756
9.500980
10.040998
9.864569
8.965731
10.452867
10.787845
11.295676
10.878444
10.155439
9.916425
9.842515
10.236502
9.922981
10.395646
10.646582
10.333657
10.711551
11.402965
11.036992
11.906624
13.476610
13.918877
16.291738
19.390583
22.946596
24.771690
26.751757
27.472973
28.466582
28.035641
27.482510
25.292635
24.382472
21.865964
20.055771
16.659498
15.728474
12.264848
11.642575
10.427833
8.995533
9.050965
9.870529
9.544492
9.149909
8.809566
10.132790
10.205507
##ZVALUE=215
15.031695
14.541745
14.465451
10.454655
8.873940
7.800460
7.325411
7.770658
7.634759
7.074475
8.081794
6.702542
6.188750
4.580617
4.052520
4.321933
4.948974
3.878474
4.904866
4.586577
4.695654
4.707575
5.399585
5.540848
6.356835
7.223487
8.140802
7.847548
9.913445
10.183454
10.138750
10.633469
11.059642
11.355877
11.031628
12.627840
11.335611
12.624860
11.142492
11.683702
12.477636
11.322498
10.712743
11.986494
12.741685
11.305809
11.945963
10.653734
11.108518
12.050867
12.090802
11.944771
11.449456
12.936592
11.699796
12.169480
10.841489
11.294484
11.693835
12.262464
12.209415
12.549758
11.795759
12.238622
10.512471
13.043880
12.727976
13.088584
15.433431
15.678406
17.829537
21.082759
21.884441
26.244521
25.023818
27.168989
27.732849
27.740598
27.438998
27.400851
25.458932
25.010705
20.442605
17.833710
16.562939
13.365746
12.547970
12.395978
10.407567
10.870695
10.468960
10.989904
10.035634
9.349585
9.308457
9.261966
##ZVALUE=220
43.675900
43.739676
47.474504
44.729710
43.814778
34.661889
28.751493
19.623637
15.553832
14.676452
15.058517
15.177727
14.700890
12.568831
11.442900
9.519458
7.472634
6.242990
5.238652
4.829764
4.174709
4.967451
5.719662
5.454421
6.273985
7.184744
7.973909
9.034872
10.185838
12.224913
12.656450
13.250709
15.223622
16.424656
15.697479
15.394688
15.096664
16.707778
14.905930
14.506578
14.555454
15.384555
15.850663
13.855696
15.577674
13.980865
14.306903
14.530420
14.446974
15.552640
14.648438
15.604496
16.506910
13.349652
15.496612
14.415979
14.133453
15.280843
15.834570
15.609860
15.867949
15.670657
15.463829
15.446544
15.427470
15.811920
15.285611
19.585490
18.998981
18.789768
21.709800
23.923516
25.785565
27.741790
28.773546
33.085942
28.645992
30.155778
28.000474
26.546717
27.574897
25.226474
22.819638
20.518899
17.729998
17.338991
14.901757
13.560653
12.203455
12.282729
11.620522
12.099743
11.091828
11.738539
11.037588
10.320544
##ZVALUE=225
64.320564
71.244836
88.235736
108.716488
119.364858
117.762685
107.579827
84.555745
65.906644
52.281618
33.027530
29.248595
29.725432
29.077530
31.392574
26.395917
23.732781
19.169450
14.031529
10.706782
7.695556
6.598830
5.992651
6.892681
6.791949
7.604957
9.634495
9.725690
11.390448
12.610555
14.314651
15.505552
16.635656
18.738508
17.690659
19.305944
18.663406
18.441677
18.968582
17.997622
18.671751
18.431544
18.327832
18.901825
18.324852
17.457604
18.963814
19.294620
20.700693
20.574927
22.060871
20.770431
22.249818
22.004843
21.563768
20.821691
22.373796
23.566484
22.044778
24.126768
22.971630
23.165941
24.907589
24.995804
25.226474
22.082925
26.065707
24.566650
26.994944
26.849508
28.108954
30.064583
30.904412
32.020807
30.494928
33.286810
32.630563
32.090545
30.084848
27.551651
29.349923
26.683807
24.089813
22.842884
21.801591
20.044446
19.291639
18.536448
15.714765
16.207695
16.938448
16.164780
14.452934
13.974905
14.512539
14.665723
##ZVALUE=230
47.074556
52.217841
84.857941
141.775608
189.246535
241.419673
263.037682
258.999467
238.065720
202.978849
132.171512
95.526576
63.128471
51.918626
49.420595
52.358508
54.025650
51.787496
46.877861
37.052631
28.735995
19.447803
12.926459
9.439588
8.814931
8.318424
8.211732
10.163784
9.451509
11.665821
12.036562
13.450980
15.219450
15.539527
16.126633
17.247796
17.429590
17.172694
17.900467
16.701818
19.516945
22.908449
22.467971
22.615790
23.783445
26.270747
26.717782
28.703809
30.024648
30.753613
32.867789
32.855868
35.583973
32.421947
35.750866
35.734773
35.272837
36.141872
36.375523
39.503574
38.492680
38.824677
39.450526
39.683580
38.643479
39.916635
40.946603
39.668679
39.282441
38.340688
43.834448
42.687654
43.044686
45.961738
45.968890
47.958493
44.096708
45.777559
40.941834
39.227605
40.137768
35.215616
33.182502
29.562712
31.126738
29.168725
28.327703
27.059913
26.380420
23.077726
22.512674
24.952888
23.227930
24.225712
22.320747
22.171736
##ZVALUE=235
13.596416
17.217994
34.149885
91.490746
150.538683
247.071981
325.110555
423.581600
467.993617
473.647714
421.327949
347.482562
244.015455
177.762508
114.304423
88.833570
74.513555
79.151988
83.890557
84.472895
77.502728
66.755414
52.250624
38.285851
26.111603
17.594695
12.790561
9.241700
9.393692
10.335445
9.994507
10.010600
10.642409
12.127757
12.726784
13.120770
14.035702
16.504526
17.529726
18.604994
20.681620
23.838878
26.325583
28.851628
32.024980
38.336515
41.248798
41.761994
46.692491
48.009753
50.320625
52.935481
54.025650
57.502985
57.588816
60.527921
58.828592
63.158870
62.022805
63.564777
61.805844
62.797666
65.208673
63.558817
65.039992
62.661767
64.615607
62.967539
64.824820
64.528584
65.164566
62.343478
63.645840
65.616965
66.486001
64.738989
63.909888
60.075521
58.407784
56.184530
52.998662
49.280524
48.516989
48.912764
45.647621
43.148994
42.656660
41.075945
40.338635
36.583543
38.029552
36.091805
33.137798
32.962561
33.168793
31.374693
##ZVALUE=240
2.692938
3.085732
7.011890
17.316937
51.376820
100.278854
204.647779
320.184827
488.440990
596.565008
689.020753
699.494481
657.164454
526.688695
416.887999
265.718699
181.122422
118.887424
100.323558
103.125572
112.861991
115.957856
112.270713
101.205707
81.627965
63.384771
49.145818
32.545924
20.852685
16.418695
11.905432
10.432601
11.712909
11.724830
12.009740
12.979507
15.379786
16.299486
18.843412
22.097826
25.257468
31.702518
32.675862
43.086410
46.167970
51.524639
57.668686
60.572624
66.123605
69.935918
77.088475
80.257654
82.759857
84.523559
85.363984
88.871717
93.151927
94.710588
92.556477
88.887811
88.619590
90.124607
88.758469
91.678500
89.723468
88.808537
88.753700
89.357495
87.597966
86.475611
85.681677
87.591410
86.904764
88.168979
83.131790
82.173944
81.762671
78.407526
72.527528
71.959496
67.947507
65.242648
65.241456
59.132576
60.558915
56.355596
50.640702
50.863624
50.278902
45.866966
44.951439
42.448640
41.396618
41.137934
38.841963
38.959980
##ZVALUE=245
2.462864
2.554655
2.356768
2.799630
4.759431
12.358427
41.292906
92.964768
213.623643
328.678489
532.785654
675.330758
795.720816
862.787962
833.608508
711.054802
575.290918
394.215584
273.263454
157.128572
116.895437
99.668503
109.991431
121.883750
124.361515
123.081803
114.014745
92.729926
69.555640
54.596663
42.357445
25.518537
17.214417
13.619661
13.328791
14.228821
14.357567
17.721653
19.426942
23.869872
28.715730
36.330819
39.152503
45.421720
51.206946
61.815977
67.850947
75.673461
79.938769
87.732673
89.127421
96.947551
100.138783
100.445747
101.066828
103.935003
107.617974
106.055737
105.347633
106.747746
103.659630
104.353428
101.096630
97.469687
92.934966
96.703768
96.980929
90.742707
89.735985
89.256763
87.632537
87.032914
86.611509
84.739923
82.398653
81.893802
78.889728
74.725747
74.203610
70.010424
69.895983
66.471696
60.864687
59.233904
57.324767
56.057572
53.424835
49.753785
47.824979
47.057867
44.496655
41.716695
41.805506
39.952993
37.704706
37.080646
##ZVALUE=250
2.167821
2.268553
2.257824
2.482533
2.520680
2.399683
2.916455
10.292530
27.560592
76.876879
151.878595
313.701630
476.030707
704.062581
864.260793
1002.591848
1015.805006
982.285738
852.867961
609.813929
430.079699
282.543898
151.843429
106.144547
105.500817
121.465921
134.731531
136.470795
132.141709
122.359991
103.467703
81.832409
61.007738
39.849877
28.749704
20.981431
18.881559
18.369555
21.819472
26.539564
30.620694
36.856532
41.222572
51.435828
55.745840
64.333677
67.634583
77.759624
84.955692
87.105632
90.287924
97.266436
101.261735
104.711652
105.163455
108.234882
107.291937
104.946494
105.446577
104.220510
99.173784
96.255541
93.910694
92.952847
91.918707
88.916421
88.409781
82.725883
82.124472
80.305934
78.961849
76.083541
76.016784
73.002577
70.486665
69.165826
66.333413
66.769719
64.600706
59.893727
57.182908
54.910779
52.048564
47.260523
47.923923
46.125650
44.469833
44.058561
41.721463
40.968657
39.261580
36.116838
36.128759
35.435557
34.038424
32.522678
##ZVALUE=255
1.797676
1.989603
1.941919
1.990795
1.986623
1.986623
2.286434
2.519488
2.839565
4.444718
20.633936
52.437782
110.382438
254.855752
402.063727
665.947795
857.069492
1015.805006
1015.805006
1015.805006
1012.590528
836.068988
540.664792
345.120430
175.527930
116.121769
95.185637
106.137991
128.518939
141.981840
149.851441
146.079659
135.693550
110.998750
88.918805
61.474442
47.923923
33.594966
28.579831
29.296875
29.675961
36.373734
39.880872
46.452880
52.970648
59.062839
65.129995
71.730614
71.962476
80.601573
84.841847
86.363554
90.356469
92.921853
91.672540
91.073513
90.900660
91.837645
89.133978
88.076591
86.359978
84.634423
82.863569
79.365969
78.055859
74.135661
71.547627
68.474412
68.503618
66.417456
64.558983
64.103603
61.611533
60.239434
59.335828
56.973696
54.244995
53.400993
50.828457
48.997998
46.458840
43.707490
41.883588
41.445494
39.110780
38.930774
36.967993
37.125945
33.835769
33.323765
32.832623
31.135678
31.381845
29.839873
29.204488
28.806925
##ZVALUE=260
1.533628
1.953840
1.927614
2.048612
1.762509
2.014637
1.909733
1.965761
1.882911
2.286434
2.607703
3.214478
7.757545
30.871630
72.959661
183.719993
314.919949
551.314950
759.178996
1013.967991
1015.799642
1015.799642
1015.799642
982.826948
676.167011
468.140841
267.734528
160.377622
94.414949
89.931488
106.690526
132.290721
148.558617
159.343481
154.519677
138.396621
121.006966
93.291998
74.452758
52.850842
43.835640
39.414763
37.899613
41.495562
43.365955
48.773885
50.606728
54.957867
58.744550
62.361956
65.607429
65.373778
66.755414
69.153905
70.949793
71.695447
69.693923
70.932508
66.756606
65.396428
64.261556
62.768459
62.037706
60.200691
58.915615
57.201982
55.347681
54.232478
53.245425
51.411986
50.427914
48.871636
48.439503
48.995614
46.912432
44.661760
43.755770
43.213964
42.131543
40.360689
37.639737
37.833452
36.545992
35.468936
32.881498
31.967759
31.642914
29.421449
30.404925
28.878450
28.112531
26.087761
27.024746
27.208924
26.650429
26.706457
##ZVALUE=265
1.543760
1.560450
1.506805
1.650453
1.546741
1.539588
1.806617
1.701713
1.780987
1.983643
1.811981
2.343655
2.047420
2.553463
5.049706
21.653771
52.502751
137.410760
251.049995
497.028828
723.641515
958.966613
1015.803814
1015.803814
1015.803814
1015.803814
788.525939
571.565628
329.151750
199.719667
122.327805
84.490776
89.591742
118.238926
138.688684
162.028670
166.931748
160.576701
147.170424
121.547580
100.928545
75.828433
60.762763
48.692822
45.141578
41.416883
43.657422
44.966936
46.165586
48.080683
49.362779
50.390959
51.144958
51.967502
52.305460
51.655769
51.778555
51.433444
50.065517
49.510002
48.669577
47.346950
46.934485
46.195984
46.174526
44.162869
43.886900
42.465925
42.620897
41.363835
40.708780
39.893985
38.440824
39.666891
37.887692
36.540627
37.273765
35.676956
34.505725
32.134652
32.358766
31.124949
30.943751
30.017495
27.979612
27.915835
28.237700
27.250648
26.161671
24.777651
25.226474
24.380684
24.196506
23.449659
23.279786
23.469925
##ZVALUE=270
1.606941
1.357794
1.470447
1.453757
1.566410
1.381636
1.529455
1.550913
1.688600
1.576543
1.929998
1.851916
1.917481
1.951456
2.173781
2.369881
3.176928
9.372830
31.271577
110.184550
226.172805
473.347902
719.871521
1015.805006
1015.805006
1015.805006
1015.805006
1015.805006
1015.805006
750.442743
513.712764
267.044902
153.246522
82.255602
73.186755
95.742941
116.941929
146.314502
160.436630
170.632601
165.504813
146.797895
128.392577
104.249716
83.673596
63.491464
54.163933
44.075847
42.652488
41.545630
40.967464
42.140484
42.640567
42.249560
42.575002
42.305589
42.724609
40.492415
41.452646
40.566921
40.851831
39.539933
39.773583
39.033890
38.720965
37.126541
37.741661
37.267804
36.356449
37.623644
36.225915
35.125613
36.116838
36.308765
34.434795
33.904910
33.974648
32.913685
31.722784
30.757785
29.288530
27.797818
28.809905
27.480721
26.826859
27.229786
26.306510
24.511814
25.238991
24.697781
22.710562
22.486448
22.230744
21.665692
21.648407
21.495819
##ZVALUE=275
1.526475
1.442432
1.356602
1.331568
1.484752
1.242757
1.221895
1.371503
1.525879
1.337528
1.573563
1.675487
1.549721
1.622438
1.927614
1.775622
2.139807
2.130866
2.390742
5.694628
24.423599
76.420903
222.969651
403.409600
742.580891
991.509557
1015.727520
1015.727520
1015.727520
1015.727520
1015.727520
1015.727520
754.725933
398.790836
222.805738
98.884702
65.442920
70.778728
91.074705
123.031735
144.490004
163.910985
172.507763
167.538524
155.607462
129.838586
107.715726
83.530545
67.673922
53.339601
45.483708
40.911436
40.686727
39.515495
38.028955
39.397478
39.311647
38.364530
39.558411
38.193464
38.255453
37.382841
37.410855
36.731958
36.693811
36.208630
36.024451
34.485459
35.500526
35.001636
35.495758
35.992861
35.684705
35.391450
34.594536
33.958554
34.247637
32.618642
32.025576
30.867457
30.148625
28.729439
27.706623
27.333498
25.855899
25.622845
24.328828
24.539828
23.778677
23.166537
22.703409
21.424890
22.340417
20.595789
20.121932
19.960999
##ZVALUE=280
1.378655
1.275539
1.367927
1.307726
1.260638
1.456738
1.289845
1.316667
1.399517
1.350641
1.432896
1.611710
1.387596
1.447797
1.646876
1.639724
1.617670
1.888871
2.098680
2.314448
2.716780
2.910495
15.440583
64.926744
199.839473
350.170732
637.121797
907.464027
1015.805006
1015.805006
1015.805006
1015.805006
1015.805006
1015.805006
892.855525
504.303575
293.494463
130.026937
71.529746
55.277944
66.970587
94.161630
118.699670
145.305991
160.485506
168.194771
165.000558
149.405003
131.920576
105.307698
85.677505
64.622760
53.482652
43.201447
40.328503
37.147999
36.659837
37.111640
36.421418
37.110448
36.059618
37.228465
36.890507
34.761429
35.111904
35.003424
35.449862
35.595894
34.890771
35.296679
34.510493
33.935905
34.681559
34.622550
34.443736
32.952428
33.371449
33.021569
31.761527
30.706525
29.906631
29.622912
28.202534
27.329922
26.161671
25.725961
25.714636
24.495721
24.287701
23.029447
23.302436
21.592975
21.583438
21.868944
20.608902
20.654798
##ZVALUE=285
1.146793
1.011491
1.259446
1.245737
1.165867
1.140833
1.224875
1.164675
1.419783
1.526475
1.384616
1.364946
1.448989
1.403689
1.440644
1.513958
1.481771
1.744628
1.712441
2.020597
2.193451
2.431870
2.555847
2.894998
7.555485
29.199719
111.150742
226.817727
465.453863
709.954500
1015.805602
1015.805602
1015.805602
1015.805602
1015.805602
1015.805602
1015.805602
674.284697
422.813892
197.197795
101.365447
50.025582
47.143698
66.221952
86.700916
117.143989
136.383772
156.782866
165.122747
161.024928
150.733590
127.037764
106.274486
82.124472
65.118670
49.372911
40.993690
36.194921
34.425855
32.646656
33.193827
33.252835
33.845901
33.260584
33.233762
33.058524
33.344626
32.874942
32.430887
32.928586
32.942891
33.499599
33.735633
32.597780
31.986833
32.658577
32.171607
30.859709
30.537844
29.786825
29.233694
28.642416
27.898550
26.012659
26.251674
26.032925
25.173426
24.351478
24.159551
23.301840
22.204518
21.511912
22.017956
20.800829
20.914674
20.142794
##ZVALUE=290
1.006722
0.993609
0.773668
1.010895
0.954866
0.870824
0.954866
1.030564
1.075864
1.067519
1.149774
1.187921
1.182556
1.182556
1.193881
1.333952
1.346469
1.359582
1.413822
1.603961
1.694560
1.788735
1.854897
2.025962
2.190471
2.358556
3.229976
10.083914
52.838922
122.638941
217.600465
483.446717
749.654770
1015.677452
1015.677452
1015.677452
1015.677452
1015.677452
1015.677452
833.859444
550.780892
276.354551
140.655637
55.438876
36.074519
43.779612
57.921410
83.530545
104.579926
131.775737
145.747662
155.507922
154.758692
140.388608
125.152469
96.555948
79.207420
57.437420
45.361519
36.171675
31.761527
29.952526
29.141903
28.949976
28.962493
29.238462
28.519630
30.617714
29.707551
30.027628
29.731989
30.010939
29.591918
29.993653
29.978752
29.185414
29.586554
28.232932
27.800798
27.310848
27.529597
26.669502
25.569797
25.411844
24.852753
24.312735
23.166537
23.068786
22.929907
22.383928
22.054911
21.230578
20.673871
19.851923
19.928813
19.441843
##ZVALUE=295
0.979900
1.010895
0.957847
1.106858
0.922680
1.093745
1.047850
1.004934
1.152754
0.954866
1.166463
1.184940
1.255870
1.361966
1.007915
0.963807
1.201630
1.300573
1.279712
1.357794
1.077652
1.354814
1.520514
1.567602
1.859665
1.766682
2.090931
2.551675
2.371669
4.897714
14.897585
60.954690
134.015679
322.074890
531.746745
886.523724
1015.805006
1015.805006
1015.805006
1015.805006
1015.805006
942.385793
664.930940
355.553627
197.448730
75.182915
38.225651
29.691458
36.423802
54.788589
72.776675
99.157691
117.447972
138.222575
146.148801
143.415928
132.433772
113.300681
94.342828
69.740415
55.082440
40.126443
32.786727
27.679801
24.970770
24.221539
24.300814
25.109649
25.341511
25.124550
25.589466
25.465488
26.032925
25.251508
25.500655
26.207566
24.898648
24.970770
25.204420
24.747849
24.499893
24.235845
23.987889
24.094582
22.958517
22.736788
22.425652
21.942854
21.613836
21.155477
20.618439
20.045638
19.834638
19.823909
19.156933
18.993616
##ZVALUE=300
0.892878
0.755787
0.913739
0.969768
0.978708
0.747442
0.864863
0.952482
0.983477
0.872612
0.905991
1.043677
0.940561
1.267791
1.162887
1.118779
1.057982
1.200438
1.012683
1.095533
1.309514
1.341701
1.570582
1.347661
1.546741
1.652837
1.708865
1.857877
1.921654
1.920462
2.278686
2.577901
7.550716
27.467608
95.686913
194.355845
416.601896
664.881468
1002.938747
1015.805602
1015.805602
1015.805602
1015.805602
1015.805602
785.422921
519.057512
262.645483
139.186978
49.960613
26.248693
24.352670
31.387806
49.329996
64.752698
90.334415
110.284686
129.655004
137.707591
136.934519
127.164721
108.502507
90.844631
66.455603
52.992702
38.022995
30.119419
24.511814
22.473931
21.697879
21.541715
21.208525
22.108555
22.433996
22.525787
22.545457
22.911429
23.300648
22.688508
23.162961
22.377968
22.776723
22.830963
22.281408
22.237897
21.498799
21.765828
21.120906
20.856857
20.604730
20.464659
19.513965
20.034909
19.476414
18.924475
18.842816
19.197464
##ZVALUE=305
0.938773
0.939965
0.877976
0.776649
0.949502
0.943542
0.865459
0.852942
0.814795
1.010895
1.064539
1.040697
0.950694
1.017451
1.130700
0.756979
1.068711
1.127720
1.177788
1.060963
0.938773
1.264811
1.051426
1.251698
1.228452
1.354814
1.489520
1.494884
1.598597
1.823902
1.907945
1.991987
1.955628
2.191663
4.025698
19.321442
53.963661
161.333680
297.547579
577.238798
844.419003
1015.805006
1015.805006
1015.805006
1015.805006
1015.805006
949.538946
594.012737
374.220610
176.483989
86.473823
31.502843
19.331574
22.397637
30.500889
47.487617
62.779784
86.476803
104.711652
121.768713
128.622651
127.998590
119.216442
103.216767
86.211562
64.590573
50.639510
35.414696
27.905703
23.224950
21.106601
21.428466
20.590425
20.828843
21.663904
21.149516
21.420717
21.966696
21.479726
22.203922
21.888614
21.648407
21.900535
21.651983
21.472573
21.173954
21.193624
21.236539
20.363927
20.357966
19.906759
19.666553
19.924641
19.437671
19.134879
18.812418
##ZVALUE=310
0.928640
0.821948
0.864863
0.957847
0.740886
0.788569
0.731945
0.819564
0.935793
0.987649
0.928640
0.856519
1.006722
1.007915
0.917912
0.982881
0.904799
0.846982
