##TITLE=
##FORMAT=SPECTACLE-ASCII V-1.2
##DATA TYPE=ULTRAVIOLET SPECTRUM
##SECOND TYPE=ULTRAVIOLET SPECTRUM
##DATE=09/27/17
##TIME=11:16:39
##SPECTROMETER/DATA SYSTEM=SPECTACLE
##XUNITS=NM EM
##YUNITS=ENERGY
##YFACTOR=1
##FIRSTX=220
##LASTX=410
##NPOINTS=96
##3DDATA=Equidistant
##ZUNITS=NM EX
##FIRSTZ=210
##LASTZ=400
##ZPOINTS=39
##XYDATA=(Y..Y)
##ZVALUE=210
2.826452
3.194809
2.873540
2.823472
3.256798
3.334880
3.153682
3.779531
3.089905
4.311800
3.856421
3.491640
3.973842
4.556775
4.234910
4.300475
4.627705
4.955530
5.177855
5.158782
4.547834
5.164742
5.585551
5.512834
5.794764
6.553531
6.497502
6.647706
7.414818
7.102489
7.625818
7.962584
7.589459
6.934404
7.623434
7.429719
7.628798
7.849932
8.297563
7.945895
8.509755
8.550882
8.748770
8.777976
9.561777
9.044409
10.119677
9.358525
9.690523
9.927750
9.473562
10.104775
10.190606
10.074973
10.498762
10.842681
10.909438
10.620952
11.684895
10.585785
11.600852
11.366606
10.298491
12.850761
11.894703
13.109446
12.330413
14.495850
15.827417
18.815994
23.394823
26.060939
30.411482
31.505823
35.409927
38.575530
41.082501
38.459897
38.229823
36.834478
36.131740
32.329559
27.204752
25.106668
21.369457
19.562840
15.710592
14.787912
14.783740
14.182925
13.025999
13.464689
12.730956
14.700890
15.162826
13.466477
##ZVALUE=215
4.405975
4.369617
4.561543
3.773570
3.807545
3.713965
3.361702
3.557801
4.130602
4.352927
4.603863
4.794598
4.409552
4.617572
4.707575
4.271865
5.063415
4.632473
4.843473
4.705787
5.275607
5.480647
5.862713
6.488562
6.683469
6.602407
7.201433
7.381439
6.336570
7.400513
8.234978
7.205606
7.963777
8.480549
8.773804
8.817911
9.239912
8.884668
9.258986
9.125471
8.561611
9.848475
10.083914
8.467436
10.388494
9.180903
9.933710
9.311438
10.579824
11.625886
10.694861
10.906458
10.319948
11.221766
11.641979
11.547804
11.356473
10.701418
11.800528
12.413859
13.032556
11.544824
12.093782
12.081861
12.851954
14.027953
13.966560
15.816689
18.777847
19.188523
22.884607
26.499629
28.997660
33.726692
36.428571
39.598942
38.868785
38.561821
39.294958
37.170649
35.015941
30.573606
29.447675
23.585558
21.560788
18.161535
18.596649
15.254617
13.886690
14.780760
15.313625
14.627576
14.003515
15.289783
15.162826
14.243722
##ZVALUE=220
10.734797
12.570620
12.143850
13.325810
11.450648
11.534691
8.054972
7.670522
6.387830
6.188750
7.244945
8.641481
7.869601
7.825494
9.245872
6.999969
6.752610
5.979538
5.595684
5.886555
5.985498
6.214976
6.136894
6.860495
6.675720
8.137822
7.352829
7.189512
8.291602
8.943677
9.527802
9.163618
9.469986
9.638667
9.827614
9.431839
9.832978
10.372996
10.488629
11.212826
10.103583
11.486411
10.243654
11.214614
11.188984
11.361837
11.042953
11.670589
12.614727
12.645721
12.359619
12.987852
13.102889
13.589859
13.290644
14.225841
13.624430
13.831854
15.746951
14.990568
15.125871
14.758706
14.824867
17.238855
16.124845
16.086698
17.924905
17.520785
19.741654
22.937655
25.491714
27.315617
30.299425
35.747886
37.935972
40.395856
41.731596
42.783618
39.771795
38.348436
36.502481
33.562779
31.541586
27.107000
23.787618
21.780729
20.392537
20.469427
18.727779
17.687678
17.340779
17.012954
18.007755
16.318560
16.068816
17.559528
##ZVALUE=225
20.870566
21.601915
31.617880
42.180419
46.388507
49.363971
49.375892
42.984486
34.633875
26.913881
18.029809
16.940832
16.086698
18.870831
19.161701
19.683838
17.088652
14.653802
12.115836
11.074543
8.385777
7.199645
6.851554
7.793903
7.890463
8.287430
8.890629
8.422732
9.342432
10.094643
10.775924
10.019541
10.481477
11.258721
11.157990
12.277961
12.214780
13.307929
13.361573
12.755990
14.455914
13.785958
14.512539
15.318990
14.548898
15.581846
15.891790
17.410517
16.099811
17.047524
16.807914
19.436479
18.873811
19.694567
20.049810
20.498633
18.520951
21.957755
21.592975
22.749901
22.014976
23.357868
20.756721
23.027658
23.465753
24.497509
23.912787
26.011467
26.795864
28.709769
32.628775
35.528541
39.399862
42.715669
44.601560
45.669675
45.379996
44.261813
44.256449
42.315722
39.319992
36.775470
34.965873
31.466484
29.824972
27.710795
25.723577
26.071668
25.754571
25.505424
23.606420
23.263693
25.788546
24.675727
23.324490
23.769736
##ZVALUE=230
22.246838
23.242831
46.813488
68.910718
110.003948
142.116547
169.613957
173.300505
165.436864
143.550634
98.963976
72.429776
48.933625
36.101937
34.548640
38.483739
41.480660
40.595531
39.151907
32.439828
25.244951
19.819736
14.462471
10.711551
8.792877
8.446574
9.239912
9.346604
10.677576
10.870695
10.251999
10.495782
11.204481
13.129711
12.667775
14.108419
15.124679
14.723539
15.958548
17.297864
17.730594
18.013716
20.078421
22.326708
21.969676
25.632977
24.578571
28.356910
27.615428
30.350685
31.629801
31.623840
35.148859
33.734441
33.417940
37.303567
36.122799
37.374496
40.232539
39.658546
39.591789
41.689873
40.874481
42.452812
42.433739
44.474602
43.545961
43.788552
45.042634
50.050616
52.798986
55.494905
56.649446
59.932470
64.281821
65.340996
61.607957
62.915683
61.600804
60.572624
58.850646
56.070685
55.199862
50.565600
49.169660
44.913888
47.542453
41.880608
44.775605
42.364001
42.808652
41.709542
40.502548
39.249659
39.740801
39.068460
##ZVALUE=235
9.291768
12.404919
29.136539
55.976510
120.368600
175.332427
269.191861
339.399576
409.504771
421.777964
382.717848
324.407816
245.036483
155.685544
105.425715
74.840784
64.720511
67.730546
72.200894
76.831579
69.963932
63.174963
47.266483
38.088560
24.881959
18.076897
13.883710
11.998415
10.660887
10.804534
10.972619
11.564493
12.406707
13.672709
15.509725
16.280413
16.472936
18.331409
19.777417
21.400452
26.003718
27.127862
31.399727
32.748580
36.250949
39.160848
40.206909
46.024919
47.611594
53.272843
53.340793
57.701468
58.977604
62.880516
64.584613
67.808628
66.490769
64.301491
67.029595
68.677664
68.436861
71.471930
72.293878
71.058869
72.766542
72.962642
75.605512
76.227784
76.483488
80.004930
81.905723
89.250803
90.637803
92.892647
88.668466
94.602704
93.546510
88.457465
86.977482
87.347627
83.085895
83.050728
80.722570
77.978969
77.599883
72.702765
74.362755
69.866776
69.311857
66.241622
63.809752
63.720942
67.395568
64.953566
60.164928
63.663721
##ZVALUE=240
3.842711
3.372431
8.427501
18.476844
49.969554
94.698668
208.036900
305.916667
473.502874
592.419505
699.826479
708.414912
665.567517
545.625687
423.682928
262.838602
182.533860
120.239854
98.347664
94.092488
102.843642
108.250976
106.802583
97.588897
79.265833
64.376593
49.277544
35.408735
23.481846
17.786622
13.783574
13.346672
13.321638
14.553666
16.109943
17.677546
20.707846
23.778677
26.403666
29.999614
33.756495
36.733747
41.362643
47.256947
50.691962
58.414936
61.802864
70.246458
75.014830
76.943636
83.570480
87.489486
90.852976
95.778704
93.461871
96.135736
100.230575
99.170804
102.115870
104.746819
104.968548
104.028583
105.143785
106.493831
104.329586
108.092427
107.111931
106.374621
108.567476
112.738609
111.411810
111.540556
118.063688
115.611553
119.539499
120.329857
117.582679
117.249489
114.121437
114.715695
109.776855
109.865665
105.195642
101.643801
102.250576
99.112988
92.161894
89.859962
88.170767
89.728832
91.222525
84.297657
84.646940
85.234642
85.359812
78.260899
##ZVALUE=245
3.117919
3.412962
2.873540
3.264546
5.848408
15.422702
50.528646
102.735758
232.423544
363.069773
571.718812
727.069974
825.830698
886.314511
854.446888
729.873776
587.034822
399.195552
271.731615
159.704685
118.332505
100.809932
111.219883
122.799873
126.649737
122.460723
106.008649
94.787478
73.519945
54.658651
38.906932
26.369691
21.124482
17.014742
17.423630
19.037724
20.983815
24.016500
27.232766
32.004714
35.826564
45.211911
46.447515
57.765841
58.107972
68.256855
73.442459
78.741908
86.246729
93.941689
95.735788
101.000667
105.967522
107.056499
112.802982
109.449625
113.970637
112.114549
115.999579
115.529895
116.537809
115.078688
114.117861
113.720894
112.846494
113.325715
112.284422
111.305714
108.515620
109.971762
110.271573
114.655495
115.699768
120.165944
116.923451
115.954876
114.557743
113.662481
113.364458
108.716488
109.089613
104.490519
104.000568
100.349784
97.008944
98.827481
93.985796
92.949867
94.978809
90.785623
90.062618
86.041689
86.892843
83.273649
84.119439
81.961751
##ZVALUE=250
2.642870
2.876520
2.822876
2.979636
3.526807
3.451705
4.370809
12.117624
34.209490
75.936913
195.658803
342.001915
579.701662
759.305954
956.386924
1015.805006
1015.805006
981.914997
842.540860
583.803654
397.015810
218.308568
142.546892
102.928877
102.521777
122.955441
132.897496
137.987733
134.145617
117.468834
101.856589
79.772472
63.361526
42.512417
31.536818
23.549795
24.445653
25.721788
28.192997
32.109618
37.737489
44.966936
48.177838
55.072904
63.358545
68.240762
72.619915
79.445839
85.143447
92.297792
98.004937
99.924803
103.994608
111.488700
106.805563
113.755465
112.561584
110.589862
110.390782
112.918615
107.043982
107.862949
105.605721
104.287863
103.501678
102.876425
101.158619
100.594759
101.269484
101.878643
100.585818
101.989508
99.836588
101.458430
101.355910
104.378462
102.618933
97.786784
99.099874
94.699860
93.593597
93.951821
92.457533
91.348886
90.140700
88.128448
88.554621
84.933639
85.037947
85.475445
84.297657
80.664754
82.778931
83.886981
80.628991
78.711510
##ZVALUE=255
2.463460
2.304912
2.637506
2.580881
2.669692
2.583861
2.653599
2.698898
3.449917
7.804632
20.507574
72.354674
150.380731
324.133635
497.607589
781.602859
974.265933
1015.700698
1015.700698
1015.700698
1009.876728
839.203000
519.766808
326.715708
163.215995
115.036964
96.391439
103.687644
128.206611
139.307976
146.948695
145.269632
134.155750
109.096766
89.302659
63.436627
48.584938
37.715435
32.010674
33.084750
37.210584
38.771629
43.360591
51.441789
54.380894
59.784651
66.791773
69.266558
75.125694
80.814958
83.191991
88.256001
92.973709
93.720555
93.786716
93.094707
94.862580
97.121000
93.572736
95.280409
93.698502
92.601776
89.833736
88.080764
87.967515
84.497929
84.763765
83.139539
83.643794
84.042549
82.993507
86.012483
86.839795
86.304545
87.294579
84.499717
86.737871
83.818436
84.492564
82.054734
82.626939
81.330538
82.667470
81.269741
80.750585
79.962611
75.776577
77.037811
75.477958
75.823665
76.719522
73.759556
74.124932
74.991584
74.435472
73.548555
##ZVALUE=260
2.243519
2.055764
2.506971
2.340674
2.418756
2.231598
2.354980
2.709627
2.707839
2.631545
3.200769
4.186630
10.918975
43.654442
97.686648
241.440535
413.368940
685.904026
924.011469
1015.805006
1015.805006
1015.805006
1015.805006
1003.014445
686.239004
466.166735
260.588527
157.664418
96.487999
90.866685
103.280544
131.235719
147.779584
157.898664
154.502988
137.834549
119.140744
91.922879
73.966980
57.815909
48.384666
40.039420
40.494800
41.363835
45.124888
50.482750
50.609708
58.656931
60.776472
62.157512
68.084598
71.282983
72.759986
74.655414
74.642897
73.533654
74.835420
76.963902
73.924661
74.209571
74.009895
74.409842
73.941946
72.229505
71.786642
70.900917
70.030689
68.398714
69.392920
71.144700
72.826743
71.170926
72.447658
72.750449
75.038671
74.341893
73.580742
74.739456
73.734522
73.388815
73.628426
72.466731
72.358847
71.892738
70.346594
69.387555
70.054531
68.558455
71.297884
68.627000
69.027543
69.989562
69.913864
69.099665
68.387985
68.064928
##ZVALUE=265
2.168417
2.105832
2.222657
2.217889
2.147555
2.660751
2.320409
2.573729
2.438426
2.595782
2.770424
2.968907
2.668500
3.449917
6.487966
29.784441
75.531006
193.829536
344.162583
647.831559
928.656459
1015.805006
1015.805006
1015.805006
1015.805006
1015.805006
892.993808
634.391904
359.064937
212.304592
128.470659
84.485412
89.829564
115.902424
140.333772
157.751441
162.551999
157.231688
144.650936
122.359991
101.389885
76.743960
62.292814
50.935745
45.916438
41.957498
43.511987
47.334433
47.886968
52.606463
53.047538
55.678487
57.631731
58.967471
61.929822
60.024858
60.810447
61.956644
63.259602
62.691569
60.822964
61.127543
62.854886
60.456991
60.548782
61.638951
61.080456
61.597824
62.520504
62.569976
62.878728
62.637925
64.166784
66.470504
65.572858
66.269636
67.345500
64.769983
66.898465
64.778924
64.494610
65.374970
64.856410
65.440536
65.547824
64.228773
65.032840
65.343976
64.168572
65.301657
63.071847
64.568520
63.502789
64.213872
64.508915
65.497756
##ZVALUE=270
1.906753
2.029538
2.086759
2.050996
1.900792
2.409816
2.256632
2.172589
2.177954
2.330542
2.612472
2.496839
2.730489
2.599955
2.942681
3.049970
4.235506
11.852980
37.769675
129.918456
263.398886
562.250614
846.806765
1015.805006
1015.805006
1015.805006
1015.805006
1015.805006
1015.805006
893.305540
524.140000
324.738622
154.044628
90.566874
74.161887
89.663863
119.181871
140.944719
162.847638
167.518854
165.904760
149.433613
132.251978
104.274750
84.785819
65.623522
54.151416
48.678517
46.881437
46.857595
48.239827
49.102902
50.782561
52.289963
53.254962
55.312514
55.019855
56.246519
56.600571
60.032606
57.619810
59.892535
57.581663
57.985783
59.072971
57.556629
58.621764
59.785843
60.647726
59.765577
62.043667
62.168837
64.087510
63.422918
63.727498
64.672828
64.842701
63.645840
65.108538
63.252449
62.174797
63.198805
62.630773
62.209964
63.109994
62.837601
61.446428
61.476827
60.892701
60.655475
59.543848
60.101748
59.816837
59.775710
59.102774
60.323477
##ZVALUE=275
1.873970
1.925826
1.703501
1.774430
2.014637
1.731515
1.995564
2.080798
1.942515
2.079606
2.327561
2.080798
2.263784
2.446771
2.522469
2.531409
2.677441
2.976656
3.046989
6.962419
25.014877
73.367953
218.876600
420.248508
795.735717
1015.805006
1015.805006
1015.805006
1015.805006
1015.805006
1015.805006
1015.805006
787.422657
417.485833
236.189961
103.470683
68.636537
71.996450
91.117620
120.819807
142.598748
162.849426
169.122815
165.412426
154.685974
128.183961
111.310482
86.986423
72.697997
58.802962
52.662492
51.329732
50.657988
50.643682
52.242875
53.067803
54.101944
55.225492
56.994557
58.539510
59.227943
59.908628
59.666634
59.395432
59.272647
60.616732
59.965849
59.692860
61.856508
62.544942
62.407851
63.902736
65.212846
64.847469
64.980984
65.693855
65.586567
65.103769
65.527558
63.641667
63.985586
63.826442
61.752796
62.491894
62.617660
61.318874
60.709715
60.531497
59.956908
60.565472
59.387684
58.204532
57.813525
56.579709
57.385564
57.197809
##ZVALUE=280
1.634955
1.921654
1.757741
1.872778
1.666546
1.866817
1.854897
1.835823
1.963973
1.866817
1.754761
2.085567
1.981854
2.391934
2.380610
2.362728
2.463460
2.563000
2.770424
2.897978
3.076792
4.236698
19.789934
60.885549
184.958577
348.837972
587.157607
983.210802
1015.805006
1015.805006
1015.805006
1015.805006
1015.805006
1015.805006
970.189571
563.273430
331.474543
141.574740
76.827407
55.638552
66.677928
96.948743
118.578672
145.084858
161.418915
169.773698
165.859461
153.386593
135.699511
112.758875
93.855858
75.073838
66.223741
58.046579
55.333972
54.761767
55.792928
57.666898
58.911443
60.047507
60.972571
61.614513
63.139796
61.954856
63.086748
63.248873
64.724684
64.872503
65.638423
66.559911
65.848827
66.761971
66.780448
65.003633
67.515969
67.738891
65.914989
64.711571
65.501928
65.721869
64.690709
64.931512
63.612461
61.362982
63.305497
62.393546
60.410500
59.772730
59.405565
58.559775
57.943463
57.440996
56.808591
56.169629
56.008697
56.383610
##ZVALUE=285
1.731515
1.712441
1.735687
1.637936
1.780987
1.725554
1.839995
1.927614
1.714826
2.091527
1.991987
1.984835
1.813769
2.020597
1.990795
2.025962
2.302527
2.121925
2.363920
2.538562
2.764463
2.831817
3.414750
3.671646
8.388758
28.566718
99.532604
214.542747
482.648611
767.707825
1015.815735
1015.815735
1015.815735
1015.815735
1015.815735
1015.815735
1015.815735
764.368773
480.923653
228.482485
116.131902
53.559542
49.108863
67.972541
87.438822
118.067861
138.849616
159.224868
168.477893
167.806745
158.019662
139.534473
121.513605
99.309683
83.988905
71.326494
63.780546
61.814785
61.781406
63.345432
64.135790
65.758824
67.982674
66.082478
65.657496
66.311955
67.074895
66.759586
68.782568
68.797469
69.280863
69.903731
69.211721
69.204569
68.790913
70.000887
69.044828
68.749785
67.719817
66.566467
65.407753
65.638423
64.682961
64.738989
63.187480
62.753558
62.694550
60.890913
61.046481
58.661699
58.560967
57.274699
57.162642
56.943893
56.487918
55.629611
##ZVALUE=290
1.701713
1.640916
1.863837
1.666546
1.861453
1.729727
1.728535
1.529455
1.699924
1.728535
1.901984
1.711845
1.945496
1.854897
2.085567
1.868606
1.889467
2.138615
2.101660
2.246499
2.344847
2.488494
3.032684
2.833605
3.075600
3.392696
4.588962
13.364553
62.063932
149.253011
293.490887
651.295781
991.888642
1015.805006
1015.805006
1015.805006
1015.805006
1015.805006
1015.805006
984.663963
660.516620
327.231884
171.092749
69.872737
41.986704
47.072768
64.199567
89.072585
110.471845
140.618682
156.773925
169.823766
172.170997
161.840916
143.642426
123.966932
106.094480
88.738799
78.323483
71.428418
68.587661
67.413449
68.075657
68.122745
68.456531
69.171786
69.523454
71.788430
71.707964
71.166754
71.035624
72.017908
72.720647
70.811510
70.523620
71.624517
71.955919
69.295764
67.990422
68.519711
67.321658
66.253543
66.496730
65.533519
65.540671
64.081550
63.343644
63.014627
61.690807
61.851740
59.543848
58.744550
58.141947
57.014823
56.531429
56.730509
##ZVALUE=295
1.451969
1.684427
1.620650
1.457930
1.519918
1.540780
1.842976
1.807809
1.758933
1.718998
1.936555
1.847744
1.778603
1.759529
1.827478
1.753569
1.922846
1.923442
1.924634
2.155900
2.115965
2.343655
2.419949
2.708435
2.814531
2.920628
3.351569
3.358722
3.728867
7.360578
24.450421
105.859637
238.623619
558.923483
923.056602
1015.805006
1015.805006
1015.805006
1015.805006
1015.805006
1015.805006
1015.804410
910.353661
462.934971
244.103670
88.420510
46.439767
36.085844
44.856668
66.784620
88.178515
117.696524
137.764812
160.291791
172.635913
171.448588
162.394643
146.248937
130.988955
108.660460
95.171928
81.402659
73.585510
69.750547
68.654418
67.625642
68.809986
71.025491
70.146918
71.663857
71.555972
71.312785
72.100759
72.121620
71.695447
71.496964
70.997477
71.077943
70.173740
70.251822
68.918467
67.340732
67.051649
66.048503
65.972805
64.239502
64.091682
62.861443
62.157512
61.069727
60.850978
59.259534
58.462620
57.129860
56.748986
57.578683
##ZVALUE=300
1.438856
1.427531
1.470447
1.616478
1.512766
1.593828
1.484752
1.619458
1.560450
1.549721
1.810789
1.706481
1.671910
1.623631
1.663566
1.735687
1.868606
1.966953
1.978874
1.837611
2.125502
2.115965
2.055764
2.369881
2.347827
2.627969
2.422929
2.750754
3.011823
3.094673
3.707409
4.077554
13.184547
48.756003
174.372792
357.372761
765.793920
1015.805602
1015.805602
1015.805602
1015.805602
1015.805602
1015.805602
1015.805602
1015.805602
748.880506
363.385677
187.024474
39.323568
38.827658
39.017797
52.190423
66.663623
89.744925
110.856891
140.854716
158.237815
172.848701
174.321532
165.844560
152.141452
130.098462
112.938881
94.318986
83.291531
75.706840
71.622729
70.050955
69.188476
70.130825
70.478916
70.127845
71.330667
70.967674
70.108771
71.249604
69.883466
70.269704
70.898533
69.208741
70.107579
68.979859
67.946911
67.896843
66.777468
66.186786
66.125989
65.263510
64.945817
62.061548
61.821938
60.657859
59.272647
58.384538
58.767796
57.265759
##ZVALUE=305
1.361966
1.337528
1.440644
1.574755
1.475811
1.663566
1.435876
1.400709
1.253486
1.445413
1.498461
1.682639
1.620650
1.670718
1.601577
1.688600
1.707673
1.772642
1.775622
1.950860
2.042651
1.935959
1.874566
1.949668
2.224445
2.325773
2.467632
2.446771
2.433658
2.747774
2.978444
3.103614
3.396869
3.881454
6.205440
34.000874
94.240904
282.781720
533.328652
983.883739
1015.805006
1015.805006
1015.805006
1015.805006
1015.805006
1015.805006
1015.804410
902.294517
556.554794
249.132514
126.294494
53.621531
40.240884
45.652986
54.770708
73.907971
92.895627
117.837787
137.220621
158.407688
168.767571
166.634917
161.154866
144.982934
127.724409
106.890798
94.766617
81.482530
74.903965
70.681572
68.876743
68.932772
69.442987
69.222450
69.213510
68.922639
70.167780
69.648623
69.950819
70.346594
69.506764
68.876743
68.950653
68.444610
67.718625
67.924857
68.455935
66.745877
66.973567
64.406991
63.372850
62.583685
61.065555
60.023665
59.764981
59.171915
##ZVALUE=310
1.311898
1.541972
1.345873
1.483560
1.484752
1.372695
1.366735
1.241565
1.312494
1.538992
1.654625
1.629591
