Data from 1000CFU2_A_RamanShift_1.txt Node
Date: Thu Jan 26 10:56:18 IST 2017
User: aro
Spectrometer: QEPB0276
Trigger mode: 0
Integration Time (sec): 5.000000E0
Scans to average: 1
Electric dark correction enabled: true
Nonlinearity correction enabled: false
Boxcar width: 0
XAxis mode: Raman Shifts
Number of Pixels in Spectrum: 1044
>>>>>Begin Spectral Data<<<<<
160.701	-39.75
166.742	-1.75
172.777	104.25
178.805	420.25
184.826	1162.25
190.841	2327.25
196.849	3587.25
202.85	4341.25
208.845	4473.25
214.833	4331.25
220.815	4168.25
226.789	4062.25
232.758	3973.25
238.719	3817.25
244.674	3709.25
250.623	3550.25
256.565	3400.25
262.5	3238.25
268.429	3107.25
274.351	2988.25
280.267	2883.25
286.176	2801.25
292.079	2705.25
297.975	2609.25
303.865	2522.25
309.748	2485.25
315.625	2423.25
321.495	2369.25
327.359	2330.25
333.217	2317.25
339.068	2283.25
344.912	2278.25
350.751	2270.25
356.583	2268.25
362.408	2269.25
368.227	2252.25
374.04	2271.25
379.847	2280.25
385.647	2297.25
391.44	2322.25
397.228	2324.25
403.009	2332.25
408.784	2342.25
414.553	2332.25
420.315	2359.25
426.071	2348.25
431.821	2344.25
437.565	2334.25
443.302	2345.25
449.033	2333.25
454.758	2332.25
460.477	2317.25
466.189	2302.25
471.896	2294.25
477.596	2279.25
483.29	2262.25
488.978	2263.25
494.66	2253.25
500.335	2226.25
506.005	2181.25
511.668	2144.25
517.325	2128.25
522.977	2080.25
528.622	2055.25
534.261	2022.25
539.894	2032.25
545.521	1990.25
551.141	1987.25
556.756	1979.25
562.365	1983.25
567.968	1970.25
573.565	1949.25
579.155	1928.25
584.74	1930.25
590.319	1917.25
595.892	1904.25
601.459	1887.25
607.02	1892.25
612.575	1865.25
618.124	1838.25
623.667	1838.25
629.204	1809.25
634.735	1799.25
640.261	1794.25
645.781	1801.25
651.294	1779.25
656.802	1778.25
662.304	1757.25
667.8	1747.25
673.29	1740.25
678.775	1755.25
684.254	1744.25
689.726	1716.25
695.193	1704.25
700.655	1700.25
706.11	1692.25
711.56	1700.25
717.004	1695.25
722.442	1671.25
727.874	1662.25
733.301	1653.25
738.722	1650.25
744.137	1646.25
749.547	1623.25
754.951	1639.25
760.349	1642.25
765.741	1637.25
771.128	1634.25
776.509	1614.25
781.885	1635.25
787.254	1634.25
792.618	1609.25
797.977	1598.25
803.33	1585.25
808.677	1588.25
814.019	1573.25
819.355	1550.25
824.686	1548.25
830.011	1539.25
835.33	1525.25
840.644	1535.25
845.952	1530.25
851.255	1523.25
856.552	1514.25
861.844	1512.25
867.13	1513.25
872.41	1500.25
877.686	1478.25
882.955	1454.25
888.219	1433.25
893.478	1406.25
898.731	1384.25
903.979	1389.25
909.221	1367.25
914.458	1361.25
919.69	1347.25
924.916	1359.25
930.136	1365.25
935.351	1365.25
940.561	1349.25
945.766	1362.25
950.965	1342.25
956.158	1340.25
961.347	1310.25
966.529	1314.25
971.707	1297.25
976.879	1283.25
982.046	1247.25
987.208	1267.25
992.364	1261.25
997.515	1269.25
1002.66	1266.25
1007.801	1286.25
1012.936	1296.25
1018.066	1292.25
1023.19	1304.25
1028.309	1305.25
1033.423	1317.25
1038.532	1307.25
1043.636	1293.25
1048.734	1267.25
1053.827	1264.25
1058.915	1276.25
1063.998	1249.25
1069.075	1252.25
1074.147	1258.25
1079.214	1256.25
1084.276	1263.25
1089.333	1297.25
1094.385	1291.25
1099.431	1299.25
1104.472	1294.25
1109.509	1288.25
1114.54	1282.25
1119.565	1267.25
1124.586	1248.25
1129.602	1218.25
1134.613	1228.25
1139.618	1223.25
1144.619	1224.25
1149.614	1232.25
1154.604	1230.25
1159.589	1249.25
1164.57	1251.25
1169.545	1257.25
1174.515	1247.25
1179.48	1252.25
1184.44	1246.25
1189.395	1233.25
1194.345	1238.25
1199.29	1236.25
1204.23	1219.25
1209.165	1238.25
1214.095	1258.25
1219.021	1257.25
1223.941	1273.25
1228.856	1280.25
1233.766	1292.25
1238.672	1274.25
1243.572	1271.25
1248.467	1280.25
1253.358	1252.25
1258.244	1230.25
1263.124	1216.25
1268	1212.25
1272.871	1182.25
1277.737	1191.25
1282.599	1196.25
1287.455	1193.25
1292.306	1206.25
1297.153	1202.25
1301.995	1218.25
1306.832	1213.25
1311.664	1232.25
1316.491	1232.25
1321.314	1213.25
1326.132	1204.25
1330.945	1190.25
1335.753	1199.25
1340.556	1168.25
1345.354	1173.25
1350.148	1153.25
1354.937	1146.25
1359.722	1152.25
1364.501	1130.25
1369.276	1139.25
1374.046	1113.25
1378.811	1115.25
1383.572	1108.25
1388.327	1127.25
1393.079	1109.25
1397.825	1094.25
1402.567	1077.25
1407.304	1075.25
1412.036	1062.25
1416.764	1067.25
1421.487	1068.25
1426.205	1087.25
1430.919	1092.25
1435.628	1098.25
1440.333	1121.25
1445.032	1120.25
1449.727	1132.25
1454.418	1135.25
1459.104	1149.25
1463.785	1126.25
1468.462	1127.25
1473.134	1106.25
1477.802	1111.25
1482.465	1103.25
1487.123	1099.25
1491.777	1100.25
1496.426	1094.25
1501.071	1115.25
1505.711	1128.25
1510.347	1131.25
1514.978	1139.25
1519.604	1147.25
1524.226	1164.25
1528.844	1144.25
1533.457	1142.25
1538.065	1143.25
1542.669	1139.25
1547.269	1136.25
1551.864	1149.25
1556.454	1147.25
1561.041	1167.25
1565.622	1164.25
1570.199	1187.25
1574.772	1195.25
1579.34	1232.25
1583.904	1243.25
1588.464	1260.25
1593.019	1283.25
1597.569	1300.25
1602.115	1301.25
1606.657	1318.25
1611.195	1325.25
1615.728	1321.25
1620.256	1353.25
1624.78	1369.25
1629.3	1362.25
1633.816	1394.25
1638.327	1411.25
1642.834	1431.25
1647.336	1456.25
1651.834	1451.25
1656.328	1448.25
1660.817	1438.25
1665.302	1409.25
1669.783	1386.25
1674.259	1349.25
1678.732	1334.25
1683.199	1276.25
1687.663	1247.25
1692.122	1215.25
1696.577	1161.25
1701.028	1129.25
1705.474	1082.25
1709.917	1036.25
1714.355	1015.25
1718.788	1009.25
1723.218	986.25
1727.643	970.25
1732.064	980.25
1736.481	939.25
1740.893	910.25
1745.301	887.25
1749.705	863.25
1754.105	847.25
1758.501	836.25
1762.893	822.25
1767.28	818.25
1771.663	808.25
1776.042	805.25
1780.417	813.25
1784.787	816.25
1789.154	832.25
1793.516	829.25
1797.874	813.25
1802.228	803.25
1806.578	794.25
1810.924	782.25
1815.266	764.25
1819.603	749.25
1823.937	741.25
1828.266	739.25
1832.591	741.25
1836.913	743.25
1841.23	728.25
1845.543	747.25
1849.852	741.25
1854.156	747.25
1858.457	734.25
1862.754	752.25
1867.047	744.25
1871.335	747.25
1875.62	753.25
1879.9	750.25
1884.177	762.25
1888.449	758.25
1892.718	751.25
1896.982	749.25
1901.243	751.25
1905.499	743.25
1909.752	739.25
1914	736.25
1918.245	737.25
1922.485	749.25
1926.722	738.25
1930.954	745.25
1935.183	739.25
1939.408	743.25
1943.628	755.25
1947.845	753.25
1952.058	753.25
1956.267	748.25
1960.472	726.25
1964.673	724.25
1968.87	714.25
1973.063	711.25
1977.252	711.25
1981.438	710.25
1985.619	715.25
1989.797	704.25
1993.971	702.25
1998.14	709.25
2002.306	717.25
2006.469	721.25
2010.627	724.25
2014.781	727.25
2018.932	714.25
2023.078	718.25
2027.221	712.25
2031.36	703.25
2035.495	701.25
2039.627	703.25
2043.754	697.25
2047.878	694.25
2051.998	692.25
2056.114	702.25
2060.226	692.25
2064.334	699.25
2068.439	708.25
2072.54	690.25
2076.637	709.25
2080.73	708.25
2084.82	705.25
2088.906	709.25
2092.988	724.25
2097.066	705.25
2101.14	705.25
2105.211	699.25
2109.278	695.25
2113.342	689.25
2117.401	678.25
2121.457	689.25
2125.509	679.25
2129.558	682.25
2133.602	670.25
2137.643	672.25
2141.681	667.25
2145.714	669.25
2149.744	667.25
2153.77	658.25
2157.793	654.25
2161.812	667.25
2165.827	651.25
2169.838	635.25
2173.846	623.25
2177.851	604.25
2181.851	600.25
2185.848	600.25
2189.841	594.25
2193.831	581.25
2197.817	591.25
2201.799	596.25
2205.778	598.25
2209.753	582.25
2213.725	586.25
2217.693	589.25
2221.657	579.25
2225.618	581.25
2229.575	578.25
2233.529	569.25
2237.479	576.25
2241.425	569.25
2245.368	547.25
2249.307	552.25
2253.243	540.25
2257.175	532.25
2261.104	522.25
2265.029	510.25
2268.95	513.25
2272.868	506.25
2276.783	498.25
2280.694	495.25
2284.601	487.25
2288.505	476.25
2292.405	482.25
2296.302	477.25
2300.195	467.25
2304.085	467.25
2307.971	459.25
2311.854	445.25
2315.734	442.25
2319.609	443.25
2323.482	430.25
2327.351	416.25
2331.216	430.25
2335.078	406.25
2338.937	419.25
2342.792	411.25
2346.643	416.25
2350.492	413.25
2354.336	403.25
2358.178	411.25
2362.015	410.25
2365.85	415.25
2369.681	411.25
2373.508	419.25
2377.333	417.25
2381.153	407.25
2384.971	415.25
2388.785	405.25
2392.595	408.25
2396.402	411.25
2400.206	404.25
2404.007	408.25
2407.804	402.25
2411.597	398.25
2415.388	394.25
2419.174	402.25
2422.958	391.25
2426.738	395.25
2430.515	396.25
2434.289	387.25
2438.059	387.25
2441.825	389.25
2445.589	385.25
2449.349	386.25
2453.106	382.25
2456.859	376.25
2460.61	372.25
2464.356	383.25
2468.1	370.25
2471.84	362.25
2475.577	360.25
2479.311	362.25
2483.041	363.25
2486.768	361.25
2490.492	358.25
2494.213	352.25
2497.93	360.25
2501.644	352.25
2505.355	360.25
2509.062	358.25
2512.766	362.25
2516.467	356.25
2520.165	361.25
2523.859	353.25
2527.551	357.25
2531.239	344.25
2534.923	349.25
2538.605	337.25
2542.283	344.25
2545.958	343.25
2549.63	336.25
2553.299	327.25
2556.964	326.25
2560.626	321.25
2564.285	324.25
2567.941	328.25
2571.594	324.25
2575.243	324.25
2578.89	321.25
2582.533	314.25
2586.173	306.25
2589.809	303.25
2593.443	303.25
2597.073	307.25
2600.701	309.25
2604.325	302.25
2607.946	303.25
2611.564	309.25
2615.178	307.25
2618.79	295.25
2622.398	292.25
2626.004	293.25
2629.606	289.25
2633.205	290.25
2636.801	291.25
2640.394	285.25
2643.983	277.25
2647.57	279.25
2651.153	273.25
2654.734	278.25
2658.311	268.25
2661.885	271.25
2665.456	268.25
2669.025	258.25
2672.589	265.25
2676.151	256.25
2679.71	258.25
2683.266	255.25
2686.819	258.25
2690.368	256.25
2693.915	250.25
2697.458	250.25
2700.999	251.25
2704.536	240.25
2708.071	236.25
2711.602	247.25
2715.13	225.25
2718.656	237.25
2722.178	232.25
2725.697	238.25
2729.214	232.25
2732.727	239.25
2736.237	231.25
2739.744	248.25
2743.249	244.25
2746.75	243.25
2750.248	238.25
2753.743	239.25
2757.236	234.25
2760.725	232.25
2764.211	231.25
2767.695	229.25
2771.175	221.25
2774.652	225.25
2778.127	219.25
2781.598	227.25
2785.067	219.25
2788.532	221.25
2791.995	217.25
2795.455	227.25
2798.911	230.25
2802.365	227.25
2805.816	227.25
2809.264	231.25
2812.709	224.25
2816.151	222.25
2819.59	220.25
2823.026	225.25
2826.46	236.25
2829.89	239.25
2833.318	231.25
2836.742	234.25
2840.164	235.25
2843.583	233.25
2846.999	244.25
2850.412	238.25
2853.822	240.25
2857.229	242.25
2860.634	241.25
2864.035	239.25
2867.434	248.25
2870.83	251.25
2874.223	254.25
2877.613	251.25
2881	250.25
2884.385	254.25
2887.766	252.25
2891.145	252.25
2894.521	255.25
2897.894	260.25
2901.264	255.25
2904.631	263.25
2907.996	250.25
2911.358	258.25
2914.717	262.25
2918.073	267.25
2921.426	276.25
2924.777	271.25
2928.124	275.25
2931.469	285.25
2934.811	279.25
2938.15	300.25
2941.487	307.25
2944.821	306.25
2948.152	297.25
2951.48	302.25
2954.805	307.25
2958.128	305.25
2961.447	316.25
2964.765	319.25
2968.079	328.25
2971.39	323.25
2974.699	346.25
2978.005	353.25
2981.308	356.25
2984.609	365.25
2987.907	373.25
2991.202	389.25
2994.494	390.25
2997.784	402.25
3001.07	414.25
3004.355	439.25
3007.636	416.25
3010.915	447.25
3014.191	460.25
3017.464	453.25
3020.734	460.25
3024.002	467.25
3027.267	477.25
3030.53	481.25
3033.789	485.25
3037.046	502.25
3040.301	524.25
3043.552	525.25
3046.801	539.25
3050.048	550.25
3053.291	574.25
3056.532	587.25
3059.771	607.25
3063.006	626.25
3066.239	638.25
3069.469	656.25
3072.697	667.25
3075.922	694.25
3079.144	712.25
3082.364	706.25
3085.581	729.25
3088.795	762.25
3092.007	781.25
3095.216	792.25
3098.423	802.25
3101.627	830.25
3104.828	840.25
3108.026	857.25
3111.222	876.25
3114.416	901.25
3117.607	927.25
3120.795	939.25
3123.98	967.25
3127.163	987.25
3130.344	1005.25
3133.521	1025.25
3136.696	1053.25
3139.869	1072.25
3143.039	1081.25
3146.206	1102.25
3149.371	1102.25
3152.533	1127.25
3155.693	1126.25
3158.85	1132.25
3162.005	1142.25
3165.157	1149.25
3168.306	1147.25
3171.453	1144.25
3174.597	1147.25
3177.739	1174.25
3180.878	1160.25
3184.014	1159.25
3187.149	1162.25
3190.28	1170.25
3193.409	1180.25
3196.536	1182.25
3199.659	1177.25
3202.781	1191.25
3205.9	1195.25
3209.016	1196.25
3212.13	1202.25
3215.241	1181.25
3218.35	1179.25
3221.456	1180.25
3224.56	1160.25
3227.661	1144.25
3230.76	1133.25
3233.856	1126.25
3236.95	1114.25
3240.041	1119.25
3243.13	1104.25
3246.216	1076.25
3249.3	1084.25
3252.382	1071.25
3255.46	1069.25
3258.537	1070.25
3261.611	1059.25
3264.682	1055.25
3267.751	1063.25
3270.818	1057.25
3273.882	1046.25
3276.943	1042.25
3280.002	1045.25
3283.059	1021.25
3286.113	1003.25
3289.165	996.25
3292.214	997.25
3295.261	958.25
3298.306	956.25
3301.348	931.25
3304.387	921.25
3307.425	896.25
3310.459	897.25
3313.492	899.25
3316.521	860.25
3319.549	862.25
3322.574	862.25
3325.597	851.25
3328.617	846.25
3331.635	837.25
3334.65	836.25
3337.663	841.25
3340.674	821.25
3343.682	824.25
3346.688	825.25
3349.691	816.25
3352.692	814.25
3355.691	804.25
3358.687	786.25
3361.681	783.25
3364.673	776.25
3367.662	771.25
3370.649	767.25
3373.633	759.25
3376.615	741.25
3379.595	741.25
3382.572	737.25
3385.547	709.25
3388.52	714.25
3391.49	698.25
3394.458	691.25
3397.424	689.25
3400.387	678.25
3403.348	651.25
3406.307	650.25
3409.263	647.25
3412.217	630.25
3415.168	630.25
3418.118	627.25
3421.065	615.25
3424.009	611.25
3426.951	594.25
3429.891	596.25
3432.829	570.25
3435.764	569.25
3438.697	548.25
3441.628	549.25
3444.557	539.25
3447.483	514.25
3450.407	494.25
3453.328	483.25
3456.247	470.25
3459.164	468.25
3462.079	442.25
3464.991	423.25
3467.902	423.25
3470.809	401.25
3473.715	394.25
3476.618	375.25
3479.519	384.25
3482.418	357.25
3485.315	343.25
3488.209	334.25
3491.101	323.25
3493.99	309.25
3496.878	311.25
3499.763	301.25
3502.646	283.25
3505.527	282.25
3508.405	260.25
3511.281	261.25
3514.155	245.25
3517.027	233.25
3519.897	224.25
3522.764	212.25
3525.629	196.25
3528.492	190.25
3531.352	170.25
3534.211	160.25
3537.067	159.25
3539.921	149.25
3542.773	130.25
3545.622	128.25
3548.469	117.25
3551.315	114.25
3554.157	103.25
3556.998	101.25
3559.837	94.25
3562.673	91.25
3565.507	77.25
3568.339	73.25
3571.169	70.25
3573.996	65.25
3576.822	58.25
3579.645	52.25
3582.466	43.25
3585.285	30.25
3588.101	37.25
3590.916	27.25
3593.728	23.25
3596.538	18.25
3599.346	7.25
3602.152	4.25
3604.956	-3.75
3607.757	-3.75
3610.556	-2.75
3613.354	-8.75
3616.149	-11.75
3618.942	-18.75
3621.732	-9.75
3624.521	-17.75
3627.307	-25.75
3630.092	-30.75
3632.874	-27.75
3635.654	-36.75
3638.432	-36.75
3641.208	-37.75
3643.982	-40.75
3646.753	-42.75
3649.523	-48.75
3652.29	-43.75
3655.055	-47.75
3657.818	-54.75
3660.579	-53.75
3663.338	-58.75
3666.095	-60.75
3668.849	-63.75
3671.602	-64.75
3674.352	-65.75
3677.101	-67.75
3679.847	-66.75
3682.591	-71.75
3685.333	-70.75
3688.073	-74.75
3690.811	-79.75
3693.547	-79.75
3696.281	-82.75
3699.013	-83.75
3701.742	-88.75
3704.47	-87.75
3707.195	-87.75
3709.919	-88.75
3712.64	-90.75
3715.359	-88.75
3718.076	-89.75
3720.792	-88.75
3723.505	-92.75
3726.216	-91.75
3728.925	-90.75
3731.632	-94.75
3734.336	-96.75
3737.039	-98.75
3739.74	-98.75
3742.439	-99.75
3745.136	-97.75
3747.83	-97.75
3750.523	-98.75
3753.213	-94.75
3755.902	-94.75
3758.589	-95.75
3761.273	-101.75
3763.956	-104.75
3766.636	-102.75
3769.315	-102.75
3771.991	-101.75
3774.665	-101.75
3777.338	-107.75
3780.008	-99.75
3782.677	-101.75
3785.343	-101.75
3788.007	-103.75
3790.67	-100.75
3793.33	-106.75
3795.989	-105.75
3798.645	-103.75
3801.299	-107.75
3803.952	-107.75
3806.602	-105.75
3809.251	-105.75
3811.897	-109.75
3814.542	-111.75
3817.184	-106.75
3819.825	-106.75
3822.463	-104.75
3825.1	-108.75
3827.735	-109.75
3830.367	-108.75
3832.998	-105.75
3835.627	-110.75
3838.253	-110.75
3840.878	-111.75
3843.501	-110.75
3846.122	-109.75
3848.741	-108.75
3851.358	-110.75
3853.973	-107.75
3856.586	-111.75
3859.197	-112.75
3861.806	-117.75
3864.414	-111.75
3867.019	-117.75
3869.622	-114.75
3872.224	-114.75
3874.823	-110.75
3877.421	-104.75
3880.016	-109.75
3882.61	-104.75
3885.202	-99.75
3887.792	-102.75
3890.38	-105.75
3892.966	-109.75
3895.55	-113.75
3898.132	-115.75
3900.713	-113.75
3903.291	-111.75
3905.868	-113.75
3908.442	-116.75
3911.015	-114.75
3913.586	-114.75
3916.155	-115.75
3918.722	-116.75
3921.287	-117.75
3923.85	-119.75
3926.411	-114.75
3928.971	-118.75
3931.528	-116.75
3934.084	-117.75
3936.638	-115.75
3939.19	-114.75
3941.74	-109.75
3944.288	-112.75
3946.834	-112.75
3949.378	-115.75
3951.921	-115.75
3954.462	-115.75
3957	-119.75
3959.537	-119.75
3962.072	-116.75
3964.606	-118.75
3967.137	-114.75
3969.667	-117.75
3972.194	-112.75
3974.72	-115.75
3977.244	-116.75
3979.766	-114.75
3982.286	-114.75
3984.805	-120.75
3987.321	-114.75
3989.836	-115.75
3992.349	-116.75
3994.86	-111.75
3997.369	-116.75
3999.877	-110.75
4002.382	-112.75
4004.886	-115.75
4007.388	-113.75
4009.888	-112.75
4012.386	-111.75
4014.883	-111.75
4017.377	-114.75
4019.87	-114.75
4022.361	-118.75
4024.85	-116.75
4027.338	-116.75
4029.823	-119.75
4032.307	-116.75
4034.789	-119.75
4037.269	-119.75
4039.747	-117.75
4042.224	-114.75
4044.699	-114.75
4047.172	-116.75
4049.643	-114.75
4052.112	-117.75
4054.58	-117.75
4057.046	-116.75
4059.51	-118.75
4061.972	-114.75
4064.432	-116.75
4066.891	-118.75
4069.348	-113.75
4071.803	-111.75
4074.256	-112.75
4076.708	-113.75
4079.158	-116.75
4081.606	-117.75
4084.052	-116.75
4086.497	-116.75
4088.939	-116.75
4091.38	-116.75
4093.819	-118.75
4096.257	-119.75
4098.693	-123.75
4101.127	-123.75
4103.559	-121.75
4105.989	-82.75
4108.418	-78.75
4110.845	-71.75
4113.27	-65.75
4115.694	-62.75
4118.115	-56.75
4120.535	-118.75
4122.954	-113.75
4125.37	-113.75
4127.785	-112.75
4130.198	-112.75
4132.609	-111.75
4135.019	-118.75
4137.427	-122.75
4139.833	-122.75
4142.237	-118.75
