Data from 10000000CFU1_B_RamanShift_1.txt Node
Date: Thu Jan 26 11:42:38 IST 2017
User: aro
Spectrometer: QEPB0276
Trigger mode: 0
Integration Time (sec): 5.000000E0
Scans to average: 1
Electric dark correction enabled: true
Nonlinearity correction enabled: false
Boxcar width: 0
XAxis mode: Raman Shifts
Number of Pixels in Spectrum: 1044
>>>>>Begin Spectral Data<<<<<
160.701	-32.88
166.742	-2.88
172.777	88.12
178.805	384.12
184.826	1046.12
190.841	2147.12
196.849	3325.12
202.85	4049.12
208.845	4227.12
214.833	4074.12
220.815	3931.12
226.789	3800.12
232.758	3713.12
238.719	3588.12
244.674	3477.12
250.623	3317.12
256.565	3175.12
262.5	3018.12
268.429	2906.12
274.351	2777.12
280.267	2684.12
286.176	2573.12
292.079	2491.12
297.975	2400.12
303.865	2363.12
309.748	2290.12
315.625	2220.12
321.495	2190.12
327.359	2172.12
333.217	2128.12
339.068	2145.12
344.912	2108.12
350.751	2100.12
356.583	2109.12
362.408	2085.12
368.227	2084.12
374.04	2086.12
379.847	2128.12
385.647	2109.12
391.44	2117.12
397.228	2129.12
403.009	2156.12
408.784	2156.12
414.553	2169.12
420.315	2172.12
426.071	2179.12
431.821	2192.12
437.565	2173.12
443.302	2163.12
449.033	2174.12
454.758	2166.12
460.477	2129.12
466.189	2150.12
471.896	2130.12
477.596	2122.12
483.29	2094.12
488.978	2093.12
494.66	2089.12
500.335	2036.12
506.005	2020.12
511.668	1970.12
517.325	1959.12
522.977	1916.12
528.622	1900.12
534.261	1869.12
539.894	1861.12
545.521	1832.12
551.141	1820.12
556.756	1803.12
562.365	1804.12
567.968	1798.12
573.565	1766.12
579.155	1768.12
584.74	1764.12
590.319	1746.12
595.892	1740.12
601.459	1716.12
607.02	1717.12
612.575	1696.12
618.124	1674.12
623.667	1666.12
629.204	1656.12
634.735	1622.12
640.261	1622.12
645.781	1628.12
651.294	1600.12
656.802	1618.12
662.304	1599.12
667.8	1580.12
673.29	1592.12
678.775	1574.12
684.254	1575.12
689.726	1567.12
695.193	1548.12
700.655	1552.12
706.11	1545.12
711.56	1541.12
717.004	1515.12
722.442	1508.12
727.874	1507.12
733.301	1499.12
738.722	1483.12
744.137	1489.12
749.547	1469.12
754.951	1478.12
760.349	1474.12
765.741	1458.12
771.128	1458.12
776.509	1461.12
781.885	1468.12
787.254	1462.12
792.618	1460.12
797.977	1446.12
803.33	1423.12
808.677	1423.12
814.019	1418.12
819.355	1403.12
824.686	1383.12
830.011	1373.12
835.33	1369.12
840.644	1384.12
845.952	1364.12
851.255	1363.12
856.552	1357.12
861.844	1346.12
867.13	1331.12
872.41	1325.12
877.686	1323.12
882.955	1311.12
888.219	1300.12
893.478	1279.12
898.731	1243.12
903.979	1242.12
909.221	1198.12
914.458	1224.12
919.69	1197.12
924.916	1196.12
930.136	1188.12
935.351	1181.12
940.561	1182.12
945.766	1186.12
950.965	1177.12
956.158	1168.12
961.347	1139.12
966.529	1149.12
971.707	1114.12
976.879	1104.12
982.046	1098.12
987.208	1101.12
992.364	1114.12
997.515	1113.12
1002.66	1113.12
1007.801	1121.12
1012.936	1137.12
1018.066	1134.12
1023.19	1140.12
1028.309	1147.12
1033.423	1146.12
1038.532	1132.12
1043.636	1120.12
1048.734	1119.12
1053.827	1113.12
1058.915	1099.12
1063.998	1110.12
1069.075	1085.12
1074.147	1096.12
1079.214	1090.12
1084.276	1118.12
1089.333	1115.12
1094.385	1124.12
1099.431	1117.12
1104.472	1135.12
1109.509	1117.12
1114.54	1110.12
1119.565	1096.12
1124.586	1073.12
1129.602	1085.12
1134.613	1061.12
1139.618	1066.12
1144.619	1067.12
1149.614	1070.12
1154.604	1079.12
1159.589	1078.12
1164.57	1095.12
1169.545	1093.12
1174.515	1107.12
1179.48	1072.12
1184.44	1084.12
1189.395	1088.12
1194.345	1067.12
1199.29	1071.12
1204.23	1064.12
1209.165	1081.12
1214.095	1078.12
1219.021	1085.12
1223.941	1107.12
1228.856	1109.12
1233.766	1110.12
1238.672	1109.12
1243.572	1111.12
1248.467	1096.12
1253.358	1089.12
1258.244	1072.12
1263.124	1055.12
1268	1041.12
1272.871	1037.12
1277.737	1028.12
1282.599	1014.12
1287.455	1028.12
1292.306	1041.12
1297.153	1027.12
1301.995	1040.12
1306.832	1049.12
1311.664	1054.12
1316.491	1053.12
1321.314	1058.12
1326.132	1059.12
1330.945	1034.12
1335.753	1027.12
1340.556	1013.12
1345.354	1002.12
1350.148	998.12
1354.937	994.12
1359.722	967.12
1364.501	971.12
1369.276	955.12
1374.046	947.12
1378.811	958.12
1383.572	957.12
1388.327	949.12
1393.079	946.12
1397.825	946.12
1402.567	925.12
1407.304	925.12
1412.036	913.12
1416.764	915.12
1421.487	915.12
1426.205	919.12
1430.919	937.12
1435.628	943.12
1440.333	951.12
1445.032	962.12
1449.727	968.12
1454.418	972.12
1459.104	970.12
1463.785	977.12
1468.462	953.12
1473.134	959.12
1477.802	943.12
1482.465	949.12
1487.123	936.12
1491.777	932.12
1496.426	943.12
1501.071	959.12
1505.711	957.12
1510.347	980.12
1514.978	982.12
1519.604	975.12
1524.226	1000.12
1528.844	997.12
1533.457	978.12
1538.065	996.12
1542.669	995.12
1547.269	987.12
1551.864	988.12
1556.454	1000.12
1561.041	1006.12
1565.622	1012.12
1570.199	1032.12
1574.772	1031.12
1579.34	1053.12
1583.904	1078.12
1588.464	1100.12
1593.019	1119.12
1597.569	1124.12
1602.115	1140.12
1606.657	1151.12
1611.195	1160.12
1615.728	1167.12
1620.256	1171.12
1624.78	1203.12
1629.3	1201.12
1633.816	1239.12
1638.327	1241.12
1642.834	1256.12
1647.336	1271.12
1651.834	1264.12
1656.328	1269.12
1660.817	1262.12
1665.302	1250.12
1669.783	1230.12
1674.259	1184.12
1678.732	1170.12
1683.199	1126.12
1687.663	1099.12
1692.122	1040.12
1696.577	996.12
1701.028	964.12
1705.474	921.12
1709.917	898.12
1714.355	879.12
1718.788	872.12
1723.218	856.12
1727.643	829.12
1732.064	817.12
1736.481	806.12
1740.893	776.12
1745.301	756.12
1749.705	738.12
1754.105	722.12
1758.501	696.12
1762.893	692.12
1767.28	682.12
1771.663	683.12
1776.042	682.12
1780.417	681.12
1784.787	670.12
1789.154	682.12
1793.516	681.12
1797.874	680.12
1802.228	682.12
1806.578	648.12
1810.924	651.12
1815.266	637.12
1819.603	632.12
1823.937	612.12
1828.266	615.12
1832.591	605.12
1836.913	610.12
1841.23	610.12
1845.543	622.12
1849.852	616.12
1854.156	614.12
1858.457	614.12
1862.754	624.12
1867.047	631.12
1871.335	634.12
1875.62	626.12
1879.9	625.12
1884.177	634.12
1888.449	615.12
1892.718	631.12
1896.982	624.12
1901.243	638.12
1905.499	625.12
1909.752	620.12
1914	606.12
1918.245	608.12
1922.485	613.12
1926.722	619.12
1930.954	624.12
1935.183	621.12
1939.408	610.12
1943.628	626.12
1947.845	625.12
1952.058	625.12
1956.267	619.12
1960.472	622.12
1964.673	617.12
1968.87	598.12
1973.063	583.12
1977.252	592.12
1981.438	587.12
1985.619	587.12
1989.797	588.12
1993.971	589.12
1998.14	597.12
2002.306	593.12
2006.469	599.12
2010.627	603.12
2014.781	597.12
2018.932	598.12
2023.078	583.12
2027.221	584.12
2031.36	593.12
2035.495	591.12
2039.627	581.12
2043.754	583.12
2047.878	577.12
2051.998	577.12
2056.114	572.12
2060.226	579.12
2064.334	593.12
2068.439	592.12
2072.54	599.12
2076.637	581.12
2080.73	596.12
2084.82	605.12
2088.906	595.12
2092.988	609.12
2097.066	596.12
2101.14	597.12
2105.211	588.12
2109.278	586.12
2113.342	577.12
2117.401	588.12
2121.457	571.12
2125.509	571.12
2129.558	569.12
2133.602	571.12
2137.643	558.12
2141.681	562.12
2145.714	561.12
2149.744	566.12
2153.77	558.12
2157.793	554.12
2161.812	551.12
2165.827	535.12
2169.838	535.12
2173.846	510.12
2177.851	513.12
2181.851	511.12
2185.848	496.12
2189.841	495.12
2193.831	494.12
2197.817	497.12
2201.799	494.12
2205.778	483.12
2209.753	493.12
2213.725	471.12
2217.693	481.12
2221.657	489.12
2225.618	472.12
2229.575	486.12
2233.529	480.12
2237.479	473.12
2241.425	471.12
2245.368	460.12
2249.307	465.12
2253.243	460.12
2257.175	450.12
2261.104	434.12
2265.029	429.12
2268.95	428.12
2272.868	423.12
2276.783	409.12
2280.694	419.12
2284.601	406.12
2288.505	400.12
2292.405	383.12
2296.302	397.12
2300.195	396.12
2304.085	380.12
2307.971	375.12
2311.854	378.12
2315.734	368.12
2319.609	353.12
2323.482	345.12
2327.351	352.12
2331.216	359.12
2335.078	352.12
2338.937	342.12
2342.792	335.12
2346.643	331.12
2350.492	344.12
2354.336	340.12
2358.178	330.12
2362.015	326.12
2365.85	327.12
2369.681	328.12
2373.508	335.12
2377.333	334.12
2381.153	337.12
2384.971	336.12
2388.785	343.12
2392.595	330.12
2396.402	329.12
2400.206	335.12
2404.007	333.12
2407.804	328.12
2411.597	330.12
2415.388	328.12
2419.174	326.12
2422.958	326.12
2426.738	315.12
2430.515	326.12
2434.289	324.12
2438.059	314.12
2441.825	315.12
2445.589	308.12
2449.349	312.12
2453.106	311.12
2456.859	305.12
2460.61	303.12
2464.356	302.12
2468.1	296.12
2471.84	294.12
2475.577	295.12
2479.311	284.12
2483.041	289.12
2486.768	295.12
2490.492	281.12
2494.213	288.12
2497.93	295.12
2501.644	279.12
2505.355	284.12
2509.062	290.12
2512.766	285.12
2516.467	290.12
2520.165	295.12
2523.859	281.12
2527.551	281.12
2531.239	282.12
2534.923	280.12
2538.605	272.12
2542.283	274.12
2545.958	278.12
2549.63	266.12
2553.299	270.12
2556.964	276.12
2560.626	270.12
2564.285	273.12
2567.941	265.12
2571.594	268.12
2575.243	257.12
2578.89	268.12
2582.533	262.12
2586.173	247.12
2589.809	248.12
2593.443	238.12
2597.073	247.12
2600.701	242.12
2604.325	242.12
2607.946	245.12
2611.564	243.12
2615.178	234.12
2618.79	242.12
2622.398	241.12
2626.004	236.12
2629.606	241.12
2633.205	233.12
2636.801	236.12
2640.394	228.12
2643.983	219.12
2647.57	221.12
2651.153	225.12
2654.734	213.12
2658.311	212.12
2661.885	218.12
2665.456	217.12
2669.025	211.12
2672.589	207.12
2676.151	213.12
2679.71	204.12
2683.266	202.12
2686.819	197.12
2690.368	200.12
2693.915	196.12
2697.458	188.12
2700.999	195.12
2704.536	188.12
2708.071	201.12
2711.602	189.12
2715.13	187.12
2718.656	187.12
2722.178	190.12
2725.697	191.12
2729.214	193.12
2732.727	195.12
2736.237	191.12
2739.744	192.12
2743.249	200.12
2746.75	192.12
2750.248	198.12
2753.743	197.12
2757.236	186.12
2760.725	187.12
2764.211	187.12
2767.695	190.12
2771.175	181.12
2774.652	189.12
2778.127	184.12
2781.598	182.12
2785.067	184.12
2788.532	184.12
2791.995	183.12
2795.455	195.12
2798.911	184.12
2802.365	185.12
2805.816	185.12
2809.264	181.12
2812.709	180.12
2816.151	186.12
2819.59	190.12
2823.026	189.12
2826.46	194.12
2829.89	189.12
2833.318	191.12
2836.742	193.12
2840.164	190.12
2843.583	193.12
2846.999	197.12
2850.412	201.12
2853.822	189.12
2857.229	203.12
2860.634	200.12
2864.035	213.12
2867.434	207.12
2870.83	213.12
2874.223	214.12
2877.613	221.12
2881	216.12
2884.385	221.12
2887.766	222.12
2891.145	221.12
2894.521	223.12
2897.894	219.12
2901.264	221.12
2904.631	216.12
2907.996	225.12
2911.358	224.12
2914.717	230.12
2918.073	240.12
2921.426	231.12
2924.777	239.12
2928.124	252.12
2931.469	248.12
2934.811	254.12
2938.15	268.12
2941.487	264.12
2944.821	280.12
2948.152	281.12
2951.48	274.12
2954.805	281.12
2958.128	295.12
2961.447	290.12
2964.765	291.12
2968.079	299.12
2971.39	311.12
2974.699	310.12
2978.005	316.12
2981.308	332.12
2984.609	330.12
2987.907	336.12
2991.202	339.12
2994.494	369.12
2997.784	376.12
3001.07	385.12
3004.355	389.12
3007.636	397.12
3010.915	394.12
3014.191	415.12
3017.464	431.12
3020.734	435.12
3024.002	441.12
3027.267	443.12
3030.53	445.12
3033.789	461.12
3037.046	469.12
3040.301	483.12
3043.552	495.12
3046.801	515.12
3050.048	515.12
3053.291	537.12
3056.532	542.12
3059.771	570.12
3063.006	583.12
3066.239	605.12
3069.469	622.12
3072.697	628.12
3075.922	657.12
3079.144	666.12
3082.364	685.12
3085.581	693.12
3088.795	717.12
3092.007	729.12
3095.216	740.12
3098.423	759.12
3101.627	785.12
3104.828	805.12
3108.026	816.12
3111.222	831.12
3114.416	858.12
3117.607	878.12
3120.795	889.12
3123.98	919.12
3127.163	944.12
3130.344	962.12
3133.521	988.12
3136.696	996.12
3139.869	1003.12
3143.039	1032.12
3146.206	1046.12
3149.371	1059.12
3152.533	1066.12
3155.693	1081.12
3158.85	1086.12
3162.005	1088.12
3165.157	1110.12
3168.306	1111.12
3171.453	1121.12
3174.597	1121.12
3177.739	1125.12
3180.878	1119.12
3184.014	1125.12
3187.149	1147.12
3190.28	1125.12
3193.409	1139.12
3196.536	1136.12
3199.659	1141.12
3202.781	1147.12
3205.9	1154.12
3209.016	1155.12
3212.13	1148.12
3215.241	1139.12
3218.35	1136.12
3221.456	1112.12
3224.56	1113.12
3227.661	1101.12
3230.76	1083.12
3233.856	1081.12
3236.95	1070.12
3240.041	1045.12
3243.13	1052.12
3246.216	1041.12
3249.3	1033.12
3252.382	1036.12
3255.46	1033.12
3258.537	1025.12
3261.611	1014.12
3264.682	1018.12
3267.751	1020.12
3270.818	1007.12
3273.882	997.12
3276.943	995.12
3280.002	995.12
3283.059	977.12
3286.113	974.12
3289.165	958.12
3292.214	949.12
3295.261	924.12
3298.306	915.12
3301.348	908.12
3304.387	904.12
3307.425	879.12
3310.459	867.12
3313.492	860.12
3316.521	828.12
3319.549	839.12
3322.574	825.12
3325.597	820.12
3328.617	816.12
3331.635	817.12
3334.65	800.12
3337.663	808.12
3340.674	798.12
3343.682	799.12
3346.688	805.12
3349.691	796.12
3352.692	788.12
3355.691	784.12
3358.687	774.12
3361.681	767.12
3364.673	756.12
3367.662	753.12
3370.649	745.12
3373.633	741.12
3376.615	725.12
3379.595	712.12
3382.572	701.12
3385.547	686.12
3388.52	690.12
3391.49	662.12
3394.458	656.12
3397.424	646.12
3400.387	644.12
3403.348	640.12
3406.307	638.12
3409.263	632.12
3412.217	622.12
3415.168	624.12
3418.118	611.12
3421.065	604.12
3424.009	580.12
3426.951	578.12
3429.891	564.12
3432.829	556.12
3435.764	542.12
3438.697	544.12
3441.628	530.12
3444.557	519.12
3447.483	502.12
3450.407	490.12
3453.328	477.12
3456.247	464.12
3459.164	449.12
3462.079	436.12
3464.991	422.12
3467.902	409.12
3470.809	390.12
3473.715	381.12
3476.618	369.12
3479.519	363.12
3482.418	354.12
3485.315	339.12
3488.209	332.12
3491.101	321.12
3493.99	308.12
3496.878	300.12
3499.763	296.12
3502.646	281.12
3505.527	276.12
3508.405	266.12
3511.281	256.12
3514.155	246.12
3517.027	228.12
3519.897	217.12
3522.764	216.12
3525.629	203.12
3528.492	193.12
3531.352	168.12
3534.211	163.12
3537.067	152.12
3539.921	142.12
3542.773	132.12
3545.622	120.12
3548.469	125.12
3551.315	116.12
3554.157	104.12
3556.998	96.12
3559.837	102.12
3562.673	90.12
3565.507	79.12
3568.339	73.12
3571.169	71.12
3573.996	68.12
3576.822	63.12
3579.645	61.12
3582.466	48.12
3585.285	48.12
3588.101	38.12
3590.916	37.12
3593.728	35.12
3596.538	25.12
3599.346	16.12
3602.152	14.12
3604.956	6.12
3607.757	7.12
3610.556	3.12
3613.354	-4.88
3616.149	-4.88
3618.942	-6.88
3621.732	-6.88
3624.521	-17.88
3627.307	-24.88
3630.092	-19.88
3632.874	-18.88
3635.654	-30.88
3638.432	-25.88
3641.208	-29.88
3643.982	-27.88
3646.753	-31.88
3649.523	-32.88
3652.29	-36.88
3655.055	-36.88
3657.818	-42.88
3660.579	-40.88
3663.338	-49.88
3666.095	-47.88
3668.849	-54.88
3671.602	-51.88
3674.352	-59.88
3677.101	-58.88
3679.847	-61.88
3682.591	-62.88
3685.333	-66.88
3688.073	-68.88
3690.811	-67.88
3693.547	-69.88
3696.281	-72.88
3699.013	-71.88
3701.742	-76.88
3704.47	-74.88
3707.195	-78.88
3709.919	-74.88
3712.64	-80.88
3715.359	-76.88
3718.076	-76.88
3720.792	-76.88
3723.505	-79.88
3726.216	-82.88
3728.925	-75.88
3731.632	-83.88
3734.336	-85.88
3737.039	-84.88
3739.74	-88.88
3742.439	-85.88
3745.136	-83.88
3747.83	-88.88
3750.523	-85.88
3753.213	-83.88
3755.902	-87.88
3758.589	-85.88
3761.273	-88.88
3763.956	-92.88
3766.636	-92.88
3769.315	-90.88
3771.991	-92.88
3774.665	-92.88
3777.338	-94.88
3780.008	-95.88
3782.677	-94.88
3785.343	-91.88
3788.007	-93.88
3790.67	-92.88
3793.33	-92.88
3795.989	-95.88
3798.645	-92.88
3801.299	-93.88
3803.952	-92.88
3806.602	-93.88
3809.251	-89.88
3811.897	-96.88
3814.542	-96.88
3817.184	-94.88
3819.825	-91.88
3822.463	-93.88
3825.1	-94.88
3827.735	-95.88
3830.367	-97.88
3832.998	-98.88
3835.627	-100.88
3838.253	-97.88
3840.878	-101.88
3843.501	-100.88
3846.122	-101.88
3848.741	-99.88
3851.358	-100.88
3853.973	-95.88
3856.586	-103.88
3859.197	-104.88
3861.806	-102.88
3864.414	-102.88
3867.019	-109.88
3869.622	-103.88
3872.224	-100.88
3874.823	-99.88
3877.421	-93.88
3880.016	-95.88
3882.61	-87.88
3885.202	-88.88
3887.792	-92.88
3890.38	-95.88
3892.966	-99.88
3895.55	-100.88
3898.132	-102.88
3900.713	-102.88
3903.291	-98.88
3905.868	-100.88
3908.442	-105.88
3911.015	-102.88
3913.586	-101.88
3916.155	-100.88
3918.722	-104.88
3921.287	-103.88
3923.85	-105.88
3926.411	-104.88
3928.971	-106.88
3931.528	-105.88
3934.084	-107.88
3936.638	-103.88
3939.19	-103.88
3941.74	-98.88
3944.288	-103.88
3946.834	-104.88
3949.378	-103.88
3951.921	-104.88
3954.462	-103.88
3957	-107.88
3959.537	-105.88
3962.072	-105.88
3964.606	-102.88
3967.137	-101.88
3969.667	-104.88
3972.194	-100.88
3974.72	-100.88
3977.244	-102.88
3979.766	-103.88
3982.286	-101.88
3984.805	-106.88
3987.321	-107.88
3989.836	-103.88
3992.349	-104.88
3994.86	-102.88
3997.369	-109.88
3999.877	-103.88
4002.382	-103.88
4004.886	-102.88
4007.388	-103.88
4009.888	-104.88
4012.386	-102.88
4014.883	-104.88
4017.377	-103.88
4019.87	-106.88
4022.361	-101.88
4024.85	-104.88
4027.338	-102.88
4029.823	-106.88
4032.307	-103.88
4034.789	-103.88
4037.269	-104.88
4039.747	-104.88
4042.224	-98.88
4044.699	-100.88
4047.172	-103.88
4049.643	-105.88
4052.112	-103.88
4054.58	-105.88
4057.046	-108.88
4059.51	-104.88
4061.972	-106.88
4064.432	-105.88
4066.891	-104.88
4069.348	-104.88
4071.803	-99.88
4074.256	-104.88
4076.708	-102.88
4079.158	-104.88
4081.606	-101.88
4084.052	-103.88
4086.497	-103.88
4088.939	-103.88
4091.38	-103.88
4093.819	-104.88
4096.257	-106.88
4098.693	-107.88
4101.127	-112.88
4103.559	-107.88
4105.989	-68.88
4108.418	-65.88
4110.845	-61.88
4113.27	-57.88
4115.694	-56.88
4118.115	-47.88
4120.535	-102.88
4122.954	-102.88
4125.37	-101.88
4127.785	-100.88
4130.198	-100.88
4132.609	-99.88
4135.019	-106.88
4137.427	-109.88
4139.833	-109.88
4142.237	-109.88
