Data from 10000CFU3_A_RamanShift_1.txt Node
Date: Thu Jan 26 11:00:58 IST 2017
User: aro
Spectrometer: QEPB0276
Trigger mode: 0
Integration Time (sec): 5.000000E0
Scans to average: 1
Electric dark correction enabled: true
Nonlinearity correction enabled: false
Boxcar width: 0
XAxis mode: Raman Shifts
Number of Pixels in Spectrum: 1044
>>>>>Begin Spectral Data<<<<<
160.701	-34.62
166.742	-1.62
172.777	106.38
178.805	415.38
184.826	1156.38
190.841	2325.38
196.849	3614.38
202.85	4370.38
208.845	4506.38
214.833	4332.38
220.815	4227.38
226.789	4109.38
232.758	3996.38
238.719	3887.38
244.674	3756.38
250.623	3592.38
256.565	3467.38
262.5	3308.38
268.429	3194.38
274.351	3039.38
280.267	2954.38
286.176	2875.38
292.079	2782.38
297.975	2689.38
303.865	2604.38
309.748	2561.38
315.625	2492.38
321.495	2469.38
327.359	2417.38
333.217	2397.38
339.068	2388.38
344.912	2381.38
350.751	2364.38
356.583	2348.38
362.408	2354.38
368.227	2342.38
374.04	2364.38
379.847	2397.38
385.647	2388.38
391.44	2379.38
397.228	2420.38
403.009	2419.38
408.784	2444.38
414.553	2453.38
420.315	2439.38
426.071	2448.38
431.821	2434.38
437.565	2445.38
443.302	2460.38
449.033	2441.38
454.758	2425.38
460.477	2437.38
466.189	2430.38
471.896	2398.38
477.596	2385.38
483.29	2369.38
488.978	2378.38
494.66	2347.38
500.335	2339.38
506.005	2278.38
511.668	2233.38
517.325	2209.38
522.977	2192.38
528.622	2152.38
534.261	2132.38
539.894	2121.38
545.521	2094.38
551.141	2084.38
556.756	2075.38
562.365	2099.38
567.968	2061.38
573.565	2062.38
579.155	2049.38
584.74	2039.38
590.319	2018.38
595.892	2005.38
601.459	1990.38
607.02	1988.38
612.575	1981.38
618.124	1935.38
623.667	1926.38
629.204	1915.38
634.735	1889.38
640.261	1912.38
645.781	1911.38
651.294	1874.38
656.802	1871.38
662.304	1871.38
667.8	1863.38
673.29	1863.38
678.775	1836.38
684.254	1847.38
689.726	1824.38
695.193	1825.38
700.655	1821.38
706.11	1804.38
711.56	1792.38
717.004	1779.38
722.442	1800.38
727.874	1759.38
733.301	1762.38
738.722	1760.38
744.137	1734.38
749.547	1746.38
754.951	1734.38
760.349	1736.38
765.741	1738.38
771.128	1729.38
776.509	1725.38
781.885	1751.38
787.254	1727.38
792.618	1729.38
797.977	1722.38
803.33	1693.38
808.677	1695.38
814.019	1675.38
819.355	1666.38
824.686	1655.38
830.011	1647.38
835.33	1646.38
840.644	1623.38
845.952	1635.38
851.255	1615.38
856.552	1623.38
861.844	1613.38
867.13	1587.38
872.41	1606.38
877.686	1554.38
882.955	1540.38
888.219	1536.38
893.478	1515.38
898.731	1490.38
903.979	1485.38
909.221	1480.38
914.458	1480.38
919.69	1466.38
924.916	1466.38
930.136	1468.38
935.351	1474.38
940.561	1458.38
945.766	1466.38
950.965	1447.38
956.158	1427.38
961.347	1424.38
966.529	1418.38
971.707	1375.38
976.879	1377.38
982.046	1366.38
987.208	1352.38
992.364	1365.38
997.515	1368.38
1002.66	1378.38
1007.801	1379.38
1012.936	1406.38
1018.066	1401.38
1023.19	1408.38
1028.309	1429.38
1033.423	1425.38
1038.532	1404.38
1043.636	1392.38
1048.734	1383.38
1053.827	1375.38
1058.915	1359.38
1063.998	1366.38
1069.075	1352.38
1074.147	1356.38
1079.214	1379.38
1084.276	1379.38
1089.333	1390.38
1094.385	1387.38
1099.431	1404.38
1104.472	1405.38
1109.509	1398.38
1114.54	1388.38
1119.565	1365.38
1124.586	1377.38
1129.602	1342.38
1134.613	1329.38
1139.618	1319.38
1144.619	1332.38
1149.614	1348.38
1154.604	1335.38
1159.589	1362.38
1164.57	1374.38
1169.545	1364.38
1174.515	1343.38
1179.48	1352.38
1184.44	1354.38
1189.395	1346.38
1194.345	1325.38
1199.29	1331.38
1204.23	1338.38
1209.165	1340.38
1214.095	1340.38
1219.021	1348.38
1223.941	1352.38
1228.856	1389.38
1233.766	1370.38
1238.672	1394.38
1243.572	1381.38
1248.467	1369.38
1253.358	1362.38
1258.244	1333.38
1263.124	1310.38
1268	1305.38
1272.871	1295.38
1277.737	1281.38
1282.599	1281.38
1287.455	1280.38
1292.306	1277.38
1297.153	1303.38
1301.995	1317.38
1306.832	1324.38
1311.664	1325.38
1316.491	1336.38
1321.314	1327.38
1326.132	1327.38
1330.945	1304.38
1335.753	1287.38
1340.556	1281.38
1345.354	1266.38
1350.148	1248.38
1354.937	1236.38
1359.722	1232.38
1364.501	1201.38
1369.276	1203.38
1374.046	1186.38
1378.811	1197.38
1383.572	1189.38
1388.327	1187.38
1393.079	1194.38
1397.825	1186.38
1402.567	1172.38
1407.304	1161.38
1412.036	1164.38
1416.764	1157.38
1421.487	1158.38
1426.205	1155.38
1430.919	1187.38
1435.628	1188.38
1440.333	1203.38
1445.032	1214.38
1449.727	1223.38
1454.418	1227.38
1459.104	1225.38
1463.785	1210.38
1468.462	1198.38
1473.134	1193.38
1477.802	1188.38
1482.465	1169.38
1487.123	1181.38
1491.777	1188.38
1496.426	1187.38
1501.071	1197.38
1505.711	1198.38
1510.347	1205.38
1514.978	1215.38
1519.604	1222.38
1524.226	1234.38
1528.844	1227.38
1533.457	1233.38
1538.065	1220.38
1542.669	1212.38
1547.269	1201.38
1551.864	1221.38
1556.454	1229.38
1561.041	1226.38
1565.622	1245.38
1570.199	1266.38
1574.772	1279.38
1579.34	1302.38
1583.904	1317.38
1588.464	1339.38
1593.019	1351.38
1597.569	1381.38
1602.115	1370.38
1606.657	1389.38
1611.195	1391.38
1615.728	1407.38
1620.256	1420.38
1624.78	1431.38
1629.3	1440.38
1633.816	1468.38
1638.327	1482.38
1642.834	1506.38
1647.336	1510.38
1651.834	1519.38
1656.328	1509.38
1660.817	1486.38
1665.302	1483.38
1669.783	1447.38
1674.259	1417.38
1678.732	1393.38
1683.199	1338.38
1687.663	1300.38
1692.122	1258.38
1696.577	1200.38
1701.028	1176.38
1705.474	1141.38
1709.917	1094.38
1714.355	1095.38
1718.788	1058.38
1723.218	1059.38
1727.643	1046.38
1732.064	1018.38
1736.481	992.38
1740.893	982.38
1745.301	951.38
1749.705	931.38
1754.105	932.38
1758.501	901.38
1762.893	882.38
1767.28	894.38
1771.663	881.38
1776.042	867.38
1780.417	869.38
1784.787	878.38
1789.154	882.38
1793.516	875.38
1797.874	873.38
1802.228	871.38
1806.578	854.38
1810.924	842.38
1815.266	830.38
1819.603	822.38
1823.937	817.38
1828.266	810.38
1832.591	802.38
1836.913	804.38
1841.23	791.38
1845.543	804.38
1849.852	793.38
1854.156	795.38
1858.457	800.38
1862.754	811.38
1867.047	804.38
1871.335	812.38
1875.62	809.38
1879.9	807.38
1884.177	811.38
1888.449	811.38
1892.718	813.38
1896.982	795.38
1901.243	794.38
1905.499	803.38
1909.752	807.38
1914	791.38
1918.245	805.38
1922.485	787.38
1926.722	795.38
1930.954	795.38
1935.183	806.38
1939.408	818.38
1943.628	813.38
1947.845	807.38
1952.058	797.38
1956.267	799.38
1960.472	781.38
1964.673	776.38
1968.87	765.38
1973.063	764.38
1977.252	755.38
1981.438	755.38
1985.619	761.38
1989.797	755.38
1993.971	755.38
1998.14	761.38
2002.306	757.38
2006.469	781.38
2010.627	770.38
2014.781	762.38
2018.932	772.38
2023.078	759.38
2027.221	768.38
2031.36	761.38
2035.495	748.38
2039.627	736.38
2043.754	745.38
2047.878	753.38
2051.998	732.38
2056.114	730.38
2060.226	737.38
2064.334	743.38
2068.439	744.38
2072.54	748.38
2076.637	746.38
2080.73	754.38
2084.82	756.38
2088.906	763.38
2092.988	747.38
2097.066	743.38
2101.14	750.38
2105.211	738.38
2109.278	742.38
2113.342	737.38
2117.401	734.38
2121.457	727.38
2125.509	721.38
2129.558	711.38
2133.602	723.38
2137.643	714.38
2141.681	702.38
2145.714	712.38
2149.744	716.38
2153.77	696.38
2157.793	692.38
2161.812	686.38
2165.827	672.38
2169.838	681.38
2173.846	652.38
2177.851	657.38
2181.851	633.38
2185.848	626.38
2189.841	631.38
2193.831	621.38
2197.817	634.38
2201.799	636.38
2205.778	619.38
2209.753	626.38
2213.725	623.38
2217.693	625.38
2221.657	619.38
2225.618	603.38
2229.575	613.38
2233.529	612.38
2237.479	603.38
2241.425	587.38
2245.368	581.38
2249.307	578.38
2253.243	580.38
2257.175	570.38
2261.104	566.38
2265.029	559.38
2268.95	551.38
2272.868	537.38
2276.783	526.38
2280.694	525.38
2284.601	523.38
2288.505	517.38
2292.405	522.38
2296.302	502.38
2300.195	503.38
2304.085	511.38
2307.971	492.38
2311.854	482.38
2315.734	477.38
2319.609	462.38
2323.482	450.38
2327.351	448.38
2331.216	449.38
2335.078	445.38
2338.937	446.38
2342.792	448.38
2346.643	446.38
2350.492	443.38
2354.336	440.38
2358.178	452.38
2362.015	431.38
2365.85	442.38
2369.681	436.38
2373.508	439.38
2377.333	445.38
2381.153	451.38
2384.971	447.38
2388.785	444.38
2392.595	440.38
2396.402	427.38
2400.206	438.38
2404.007	432.38
2407.804	439.38
2411.597	423.38
2415.388	424.38
2419.174	423.38
2422.958	422.38
2426.738	421.38
2430.515	412.38
2434.289	425.38
2438.059	418.38
2441.825	420.38
2445.589	415.38
2449.349	413.38
2453.106	403.38
2456.859	394.38
2460.61	388.38
2464.356	400.38
2468.1	385.38
2471.84	397.38
2475.577	391.38
2479.311	388.38
2483.041	391.38
2486.768	394.38
2490.492	392.38
2494.213	384.38
2497.93	389.38
2501.644	390.38
2505.355	391.38
2509.062	392.38
2512.766	380.38
2516.467	387.38
2520.165	381.38
2523.859	371.38
2527.551	376.38
2531.239	372.38
2534.923	359.38
2538.605	366.38
2542.283	367.38
2545.958	361.38
2549.63	354.38
2553.299	361.38
2556.964	348.38
2560.626	351.38
2564.285	352.38
2567.941	353.38
2571.594	344.38
2575.243	348.38
2578.89	343.38
2582.533	345.38
2586.173	339.38
2589.809	337.38
2593.443	331.38
2597.073	320.38
2600.701	329.38
2604.325	333.38
2607.946	324.38
2611.564	319.38
2615.178	322.38
2618.79	324.38
2622.398	303.38
2626.004	316.38
2629.606	302.38
2633.205	306.38
2636.801	298.38
2640.394	308.38
2643.983	310.38
2647.57	298.38
2651.153	298.38
2654.734	296.38
2658.311	291.38
2661.885	293.38
2665.456	283.38
2669.025	284.38
2672.589	281.38
2676.151	277.38
2679.71	277.38
2683.266	274.38
2686.819	271.38
2690.368	263.38
2693.915	266.38
2697.458	260.38
2700.999	259.38
2704.536	264.38
2708.071	252.38
2711.602	260.38
2715.13	254.38
2718.656	251.38
2722.178	256.38
2725.697	241.38
2729.214	248.38
2732.727	254.38
2736.237	253.38
2739.744	248.38
2743.249	255.38
2746.75	259.38
2750.248	247.38
2753.743	252.38
2757.236	251.38
2760.725	252.38
2764.211	243.38
2767.695	236.38
2771.175	241.38
2774.652	239.38
2778.127	242.38
2781.598	238.38
2785.067	237.38
2788.532	234.38
2791.995	234.38
2795.455	248.38
2798.911	243.38
2802.365	251.38
2805.816	235.38
2809.264	237.38
2812.709	237.38
2816.151	243.38
2819.59	240.38
2823.026	238.38
2826.46	237.38
2829.89	248.38
2833.318	238.38
2836.742	239.38
2840.164	242.38
2843.583	248.38
2846.999	250.38
2850.412	259.38
2853.822	254.38
2857.229	246.38
2860.634	246.38
2864.035	254.38
2867.434	258.38
2870.83	266.38
2874.223	256.38
2877.613	268.38
2881	264.38
2884.385	268.38
2887.766	265.38
2891.145	255.38
2894.521	262.38
2897.894	262.38
2901.264	266.38
2904.631	267.38
2907.996	276.38
2911.358	273.38
2914.717	274.38
2918.073	276.38
2921.426	282.38
2924.777	283.38
2928.124	286.38
2931.469	285.38
2934.811	285.38
2938.15	301.38
2941.487	302.38
2944.821	312.38
2948.152	308.38
2951.48	314.38
2954.805	325.38
2958.128	318.38
2961.447	325.38
2964.765	328.38
2968.079	330.38
2971.39	344.38
2974.699	346.38
2978.005	348.38
2981.308	359.38
2984.609	367.38
2987.907	372.38
2991.202	385.38
2994.494	396.38
2997.784	403.38
3001.07	421.38
3004.355	423.38
3007.636	439.38
3010.915	452.38
3014.191	445.38
3017.464	471.38
3020.734	464.38
3024.002	466.38
3027.267	477.38
3030.53	473.38
3033.789	493.38
3037.046	510.38
3040.301	517.38
3043.552	519.38
3046.801	540.38
3050.048	550.38
3053.291	563.38
3056.532	580.38
3059.771	600.38
3063.006	597.38
3066.239	624.38
3069.469	645.38
3072.697	674.38
3075.922	682.38
3079.144	697.38
3082.364	711.38
3085.581	735.38
3088.795	747.38
3092.007	762.38
3095.216	774.38
3098.423	798.38
3101.627	808.38
3104.828	822.38
3108.026	851.38
3111.222	855.38
3114.416	882.38
3117.607	893.38
3120.795	919.38
3123.98	936.38
3127.163	963.38
3130.344	980.38
3133.521	991.38
3136.696	1021.38
3139.869	1036.38
3143.039	1068.38
3146.206	1067.38
3149.371	1082.38
3152.533	1092.38
3155.693	1101.38
3158.85	1111.38
3162.005	1113.38
3165.157	1129.38
3168.306	1129.38
3171.453	1138.38
3174.597	1138.38
3177.739	1142.38
3180.878	1128.38
3184.014	1135.38
3187.149	1154.38
3190.28	1161.38
3193.409	1153.38
3196.536	1145.38
3199.659	1152.38
3202.781	1172.38
3205.9	1163.38
3209.016	1169.38
3212.13	1161.38
3215.241	1157.38
3218.35	1157.38
3221.456	1143.38
3224.56	1123.38
3227.661	1124.38
3230.76	1098.38
3233.856	1097.38
3236.95	1085.38
3240.041	1083.38
3243.13	1059.38
3246.216	1057.38
3249.3	1049.38
3252.382	1035.38
3255.46	1045.38
3258.537	1041.38
3261.611	1035.38
3264.682	1043.38
3267.751	1021.38
3270.818	1022.38
3273.882	1028.38
3276.943	1018.38
3280.002	997.38
3283.059	985.38
3286.113	977.38
3289.165	974.38
3292.214	959.38
3295.261	936.38
3298.306	932.38
3301.348	923.38
3304.387	907.38
3307.425	876.38
3310.459	879.38
3313.492	866.38
3316.521	849.38
3319.549	848.38
3322.574	825.38
3325.597	824.38
3328.617	826.38
3331.635	822.38
3334.65	812.38
3337.663	814.38
3340.674	821.38
3343.682	804.38
3346.688	809.38
3349.691	801.38
3352.692	794.38
3355.691	792.38
3358.687	777.38
3361.681	774.38
3364.673	768.38
3367.662	760.38
3370.649	757.38
3373.633	728.38
3376.615	726.38
3379.595	718.38
3382.572	696.38
3385.547	697.38
3388.52	694.38
3391.49	681.38
3394.458	669.38
3397.424	663.38
3400.387	658.38
3403.348	648.38
3406.307	638.38
3409.263	627.38
3412.217	624.38
3415.168	623.38
3418.118	619.38
3421.065	602.38
3424.009	597.38
3426.951	595.38
3429.891	577.38
3432.829	565.38
3435.764	558.38
3438.697	541.38
3441.628	525.38
3444.557	512.38
3447.483	506.38
3450.407	484.38
3453.328	474.38
3456.247	462.38
3459.164	456.38
3462.079	435.38
3464.991	417.38
3467.902	403.38
3470.809	396.38
3473.715	383.38
3476.618	371.38
3479.519	368.38
3482.418	347.38
3485.315	339.38
3488.209	322.38
3491.101	324.38
3493.99	313.38
3496.878	305.38
3499.763	289.38
3502.646	274.38
3505.527	276.38
3508.405	256.38
3511.281	249.38
3514.155	238.38
3517.027	225.38
3519.897	219.38
3522.764	203.38
3525.629	191.38
3528.492	178.38
3531.352	171.38
3534.211	154.38
3537.067	151.38
3539.921	146.38
3542.773	131.38
3545.622	126.38
3548.469	115.38
3551.315	114.38
3554.157	99.38
3556.998	94.38
3559.837	93.38
3562.673	89.38
3565.507	74.38
3568.339	69.38
3571.169	59.38
3573.996	53.38
3576.822	61.38
3579.645	48.38
3582.466	42.38
3585.285	37.38
3588.101	33.38
3590.916	29.38
3593.728	22.38
3596.538	19.38
3599.346	12.38
3602.152	6.38
3604.956	3.38
3607.757	-0.62
3610.556	-5.62
3613.354	-7.62
3616.149	-11.62
3618.942	-12.62
3621.732	-13.62
3624.521	-20.62
3627.307	-19.62
3630.092	-26.62
3632.874	-29.62
3635.654	-34.62
3638.432	-34.62
3641.208	-38.62
3643.982	-34.62
3646.753	-41.62
3649.523	-46.62
3652.29	-47.62
3655.055	-48.62
3657.818	-55.62
3660.579	-52.62
3663.338	-62.62
3666.095	-64.62
3668.849	-64.62
3671.602	-64.62
3674.352	-64.62
3677.101	-68.62
3679.847	-66.62
3682.591	-71.62
3685.333	-71.62
3688.073	-74.62
3690.811	-72.62
3693.547	-76.62
3696.281	-82.62
3699.013	-83.62
3701.742	-83.62
3704.47	-82.62
3707.195	-84.62
3709.919	-87.62
3712.64	-84.62
3715.359	-88.62
3718.076	-91.62
3720.792	-90.62
3723.505	-92.62
3726.216	-92.62
3728.925	-93.62
3731.632	-93.62
3734.336	-95.62
3737.039	-97.62
3739.74	-95.62
3742.439	-96.62
3745.136	-94.62
3747.83	-96.62
3750.523	-96.62
3753.213	-94.62
3755.902	-93.62
3758.589	-91.62
3761.273	-97.62
3763.956	-101.62
3766.636	-101.62
3769.315	-100.62
3771.991	-103.62
3774.665	-101.62
3777.338	-104.62
3780.008	-102.62
3782.677	-105.62
3785.343	-102.62
3788.007	-103.62
3790.67	-103.62
3793.33	-103.62
3795.989	-105.62
3798.645	-103.62
3801.299	-102.62
3803.952	-104.62
3806.602	-102.62
3809.251	-100.62
3811.897	-105.62
3814.542	-107.62
3817.184	-106.62
3819.825	-101.62
3822.463	-105.62
3825.1	-109.62
3827.735	-107.62
3830.367	-110.62
3832.998	-107.62
3835.627	-113.62
3838.253	-112.62
3840.878	-112.62
3843.501	-110.62
3846.122	-110.62
3848.741	-110.62
3851.358	-112.62
3853.973	-106.62
3856.586	-111.62
3859.197	-112.62
3861.806	-113.62
3864.414	-109.62
3867.019	-114.62
3869.622	-109.62
3872.224	-111.62
3874.823	-107.62
3877.421	-102.62
3880.016	-107.62
3882.61	-101.62
3885.202	-98.62
3887.792	-101.62
3890.38	-106.62
3892.966	-108.62
3895.55	-111.62
3898.132	-118.62
3900.713	-117.62
3903.291	-114.62
3905.868	-112.62
3908.442	-114.62
3911.015	-112.62
3913.586	-114.62
3916.155	-111.62
3918.722	-114.62
3921.287	-113.62
3923.85	-112.62
3926.411	-111.62
3928.971	-113.62
3931.528	-112.62
3934.084	-116.62
3936.638	-115.62
3939.19	-110.62
3941.74	-109.62
3944.288	-113.62
3946.834	-114.62
3949.378	-113.62
3951.921	-116.62
3954.462	-113.62
3957	-118.62
3959.537	-120.62
3962.072	-115.62
3964.606	-117.62
3967.137	-113.62
3969.667	-117.62
3972.194	-109.62
3974.72	-112.62
3977.244	-112.62
3979.766	-111.62
3982.286	-111.62
3984.805	-115.62
3987.321	-114.62
3989.836	-113.62
3992.349	-112.62
3994.86	-111.62
3997.369	-119.62
3999.877	-111.62
4002.382	-109.62
4004.886	-113.62
4007.388	-111.62
4009.888	-116.62
4012.386	-113.62
4014.883	-112.62
4017.377	-113.62
4019.87	-114.62
4022.361	-115.62
4024.85	-113.62
4027.338	-114.62
4029.823	-118.62
4032.307	-114.62
4034.789	-111.62
4037.269	-114.62
4039.747	-114.62
4042.224	-108.62
4044.699	-111.62
4047.172	-113.62
4049.643	-112.62
4052.112	-113.62
4054.58	-116.62
4057.046	-115.62
4059.51	-113.62
4061.972	-116.62
4064.432	-113.62
4066.891	-114.62
4069.348	-112.62
4071.803	-109.62
4074.256	-116.62
4076.708	-114.62
4079.158	-114.62
4081.606	-116.62
4084.052	-115.62
4086.497	-110.62
4088.939	-112.62
4091.38	-112.62
4093.819	-113.62
4096.257	-121.62
4098.693	-120.62
4101.127	-120.62
4103.559	-118.62
4105.989	-77.62
4108.418	-73.62
4110.845	-70.62
4113.27	-65.62
4115.694	-61.62
4118.115	-50.62
4120.535	-114.62
4122.954	-110.62
4125.37	-111.62
4127.785	-108.62
4130.198	-113.62
4132.609	-114.62
4135.019	-118.62
4137.427	-124.62
4139.833	-122.62
4142.237	-119.62
