Data from 10000000CFU2_B_RamanShift_1.txt Node
Date: Thu Jan 26 11:43:48 IST 2017
User: aro
Spectrometer: QEPB0276
Trigger mode: 0
Integration Time (sec): 5.000000E0
Scans to average: 1
Electric dark correction enabled: true
Nonlinearity correction enabled: false
Boxcar width: 0
XAxis mode: Raman Shifts
Number of Pixels in Spectrum: 1044
>>>>>Begin Spectral Data<<<<<
160.701	-32.75
166.742	1.25
172.777	103.25
178.805	388.25
184.826	1113.25
190.841	2252.25
196.849	3521.25
202.85	4286.25
208.845	4442.25
214.833	4312.25
220.815	4160.25
226.789	4044.25
232.758	3929.25
238.719	3800.25
244.674	3657.25
250.623	3500.25
256.565	3353.25
262.5	3184.25
268.429	3077.25
274.351	2961.25
280.267	2819.25
286.176	2724.25
292.079	2660.25
297.975	2548.25
303.865	2498.25
309.748	2430.25
315.625	2368.25
321.495	2320.25
327.359	2279.25
333.217	2266.25
339.068	2220.25
344.912	2235.25
350.751	2221.25
356.583	2201.25
362.408	2208.25
368.227	2216.25
374.04	2213.25
379.847	2226.25
385.647	2251.25
391.44	2254.25
397.228	2259.25
403.009	2265.25
408.784	2295.25
414.553	2290.25
420.315	2302.25
426.071	2291.25
431.821	2299.25
437.565	2305.25
443.302	2291.25
449.033	2284.25
454.758	2272.25
460.477	2261.25
466.189	2245.25
471.896	2241.25
477.596	2235.25
483.29	2218.25
488.978	2203.25
494.66	2201.25
500.335	2169.25
506.005	2122.25
511.668	2089.25
517.325	2044.25
522.977	2015.25
528.622	1997.25
534.261	1967.25
539.894	1956.25
545.521	1934.25
551.141	1929.25
556.756	1920.25
562.365	1910.25
567.968	1882.25
573.565	1878.25
579.155	1845.25
584.74	1861.25
590.319	1846.25
595.892	1830.25
601.459	1816.25
607.02	1813.25
612.575	1799.25
618.124	1787.25
623.667	1757.25
629.204	1747.25
634.735	1743.25
640.261	1728.25
645.781	1702.25
651.294	1695.25
656.802	1704.25
662.304	1699.25
667.8	1671.25
673.29	1670.25
678.775	1658.25
684.254	1677.25
689.726	1636.25
695.193	1661.25
700.655	1632.25
706.11	1617.25
711.56	1604.25
717.004	1599.25
722.442	1588.25
727.874	1594.25
733.301	1582.25
738.722	1576.25
744.137	1581.25
749.547	1557.25
754.951	1554.25
760.349	1538.25
765.741	1549.25
771.128	1570.25
776.509	1565.25
781.885	1539.25
787.254	1559.25
792.618	1534.25
797.977	1528.25
803.33	1518.25
808.677	1506.25
814.019	1487.25
819.355	1484.25
824.686	1463.25
830.011	1448.25
835.33	1446.25
840.644	1443.25
845.952	1441.25
851.255	1437.25
856.552	1417.25
861.844	1409.25
867.13	1415.25
872.41	1404.25
877.686	1376.25
882.955	1382.25
888.219	1340.25
893.478	1308.25
898.731	1316.25
903.979	1275.25
909.221	1262.25
914.458	1280.25
919.69	1255.25
924.916	1261.25
930.136	1255.25
935.351	1257.25
940.561	1260.25
945.766	1252.25
950.965	1233.25
956.158	1231.25
961.347	1225.25
966.529	1201.25
971.707	1179.25
976.879	1164.25
982.046	1154.25
987.208	1174.25
992.364	1156.25
997.515	1169.25
1002.66	1169.25
1007.801	1187.25
1012.936	1197.25
1018.066	1189.25
1023.19	1192.25
1028.309	1201.25
1033.423	1204.25
1038.532	1194.25
1043.636	1178.25
1048.734	1185.25
1053.827	1160.25
1058.915	1162.25
1063.998	1146.25
1069.075	1144.25
1074.147	1161.25
1079.214	1168.25
1084.276	1163.25
1089.333	1169.25
1094.385	1178.25
1099.431	1186.25
1104.472	1184.25
1109.509	1179.25
1114.54	1155.25
1119.565	1148.25
1124.586	1138.25
1129.602	1134.25
1134.613	1122.25
1139.618	1123.25
1144.619	1118.25
1149.614	1125.25
1154.604	1138.25
1159.589	1132.25
1164.57	1143.25
1169.545	1149.25
1174.515	1150.25
1179.48	1144.25
1184.44	1121.25
1189.395	1130.25
1194.345	1127.25
1199.29	1136.25
1204.23	1104.25
1209.165	1122.25
1214.095	1137.25
1219.021	1139.25
1223.941	1150.25
1228.856	1163.25
1233.766	1155.25
1238.672	1176.25
1243.572	1151.25
1248.467	1150.25
1253.358	1135.25
1258.244	1133.25
1263.124	1104.25
1268	1096.25
1272.871	1086.25
1277.737	1075.25
1282.599	1078.25
1287.455	1070.25
1292.306	1078.25
1297.153	1084.25
1301.995	1094.25
1306.832	1114.25
1311.664	1103.25
1316.491	1109.25
1321.314	1106.25
1326.132	1082.25
1330.945	1087.25
1335.753	1080.25
1340.556	1053.25
1345.354	1056.25
1350.148	1055.25
1354.937	1030.25
1359.722	1021.25
1364.501	1025.25
1369.276	1015.25
1374.046	992.25
1378.811	1002.25
1383.572	1004.25
1388.327	992.25
1393.079	991.25
1397.825	991.25
1402.567	982.25
1407.304	972.25
1412.036	966.25
1416.764	968.25
1421.487	962.25
1426.205	950.25
1430.919	987.25
1435.628	998.25
1440.333	1003.25
1445.032	1002.25
1449.727	1018.25
1454.418	1029.25
1459.104	1018.25
1463.785	1007.25
1468.462	1003.25
1473.134	989.25
1477.802	979.25
1482.465	980.25
1487.123	977.25
1491.777	981.25
1496.426	995.25
1501.071	989.25
1505.711	994.25
1510.347	1004.25
1514.978	1038.25
1519.604	1032.25
1524.226	1042.25
1528.844	1038.25
1533.457	1040.25
1538.065	1032.25
1542.669	1033.25
1547.269	1033.25
1551.864	1025.25
1556.454	1029.25
1561.041	1065.25
1565.622	1054.25
1570.199	1076.25
1574.772	1088.25
1579.34	1107.25
1583.904	1132.25
1588.464	1142.25
1593.019	1165.25
1597.569	1181.25
1602.115	1188.25
1606.657	1205.25
1611.195	1221.25
1615.728	1213.25
1620.256	1243.25
1624.78	1261.25
1629.3	1272.25
1633.816	1299.25
1638.327	1309.25
1642.834	1321.25
1647.336	1326.25
1651.834	1334.25
1656.328	1336.25
1660.817	1331.25
1665.302	1307.25
1669.783	1281.25
1674.259	1251.25
1678.732	1215.25
1683.199	1175.25
1687.663	1156.25
1692.122	1096.25
1696.577	1061.25
1701.028	999.25
1705.474	970.25
1709.917	948.25
1714.355	935.25
1718.788	912.25
1723.218	900.25
1727.643	872.25
1732.064	863.25
1736.481	859.25
1740.893	819.25
1745.301	794.25
1749.705	770.25
1754.105	751.25
1758.501	740.25
1762.893	732.25
1767.28	710.25
1771.663	707.25
1776.042	716.25
1780.417	716.25
1784.787	712.25
1789.154	714.25
1793.516	714.25
1797.874	716.25
1802.228	692.25
1806.578	688.25
1810.924	683.25
1815.266	673.25
1819.603	667.25
1823.937	654.25
1828.266	656.25
1832.591	637.25
1836.913	641.25
1841.23	639.25
1845.543	646.25
1849.852	650.25
1854.156	643.25
1858.457	639.25
1862.754	652.25
1867.047	655.25
1871.335	653.25
1875.62	655.25
1879.9	649.25
1884.177	654.25
1888.449	656.25
1892.718	646.25
1896.982	652.25
1901.243	645.25
1905.499	653.25
1909.752	644.25
1914	637.25
1918.245	638.25
1922.485	646.25
1926.722	647.25
1930.954	643.25
1935.183	658.25
1939.408	660.25
1943.628	662.25
1947.845	647.25
1952.058	659.25
1956.267	644.25
1960.472	648.25
1964.673	637.25
1968.87	623.25
1973.063	629.25
1977.252	616.25
1981.438	620.25
1985.619	610.25
1989.797	618.25
1993.971	622.25
1998.14	616.25
2002.306	615.25
2006.469	629.25
2010.627	621.25
2014.781	619.25
2018.932	619.25
2023.078	626.25
2027.221	629.25
2031.36	626.25
2035.495	623.25
2039.627	620.25
2043.754	611.25
2047.878	617.25
2051.998	604.25
2056.114	609.25
2060.226	612.25
2064.334	618.25
2068.439	616.25
2072.54	634.25
2076.637	616.25
2080.73	631.25
2084.82	633.25
2088.906	634.25
2092.988	628.25
2097.066	630.25
2101.14	629.25
2105.211	621.25
2109.278	613.25
2113.342	604.25
2117.401	610.25
2121.457	591.25
2125.509	593.25
2129.558	589.25
2133.602	592.25
2137.643	608.25
2141.681	599.25
2145.714	588.25
2149.744	588.25
2153.77	579.25
2157.793	577.25
2161.812	577.25
2165.827	561.25
2169.838	558.25
2173.846	548.25
2177.851	540.25
2181.851	532.25
2185.848	534.25
2189.841	521.25
2193.831	514.25
2197.817	518.25
2201.799	511.25
2205.778	506.25
2209.753	512.25
2213.725	502.25
2217.693	515.25
2221.657	514.25
2225.618	509.25
2229.575	498.25
2233.529	494.25
2237.479	492.25
2241.425	488.25
2245.368	477.25
2249.307	471.25
2253.243	471.25
2257.175	466.25
2261.104	460.25
2265.029	454.25
2268.95	442.25
2272.868	441.25
2276.783	432.25
2280.694	432.25
2284.601	419.25
2288.505	419.25
2292.405	413.25
2296.302	412.25
2300.195	407.25
2304.085	398.25
2307.971	378.25
2311.854	383.25
2315.734	369.25
2319.609	375.25
2323.482	369.25
2327.351	353.25
2331.216	358.25
2335.078	354.25
2338.937	347.25
2342.792	357.25
2346.643	350.25
2350.492	351.25
2354.336	350.25
2358.178	360.25
2362.015	355.25
2365.85	344.25
2369.681	351.25
2373.508	355.25
2377.333	342.25
2381.153	347.25
2384.971	344.25
2388.785	345.25
2392.595	352.25
2396.402	337.25
2400.206	344.25
2404.007	342.25
2407.804	337.25
2411.597	344.25
2415.388	328.25
2419.174	330.25
2422.958	328.25
2426.738	326.25
2430.515	323.25
2434.289	325.25
2438.059	321.25
2441.825	330.25
2445.589	323.25
2449.349	320.25
2453.106	325.25
2456.859	318.25
2460.61	310.25
2464.356	306.25
2468.1	297.25
2471.84	304.25
2475.577	309.25
2479.311	305.25
2483.041	310.25
2486.768	300.25
2490.492	305.25
2494.213	308.25
2497.93	301.25
2501.644	307.25
2505.355	303.25
2509.062	288.25
2512.766	299.25
2516.467	295.25
2520.165	296.25
2523.859	290.25
2527.551	293.25
2531.239	289.25
2534.923	287.25
2538.605	282.25
2542.283	277.25
2545.958	284.25
2549.63	278.25
2553.299	279.25
2556.964	276.25
2560.626	271.25
2564.285	274.25
2567.941	282.25
2571.594	269.25
2575.243	270.25
2578.89	260.25
2582.533	260.25
2586.173	257.25
2589.809	254.25
2593.443	251.25
2597.073	263.25
2600.701	251.25
2604.325	252.25
2607.946	252.25
2611.564	252.25
2615.178	252.25
2618.79	240.25
2622.398	245.25
2626.004	249.25
2629.606	240.25
2633.205	238.25
2636.801	230.25
2640.394	236.25
2643.983	229.25
2647.57	225.25
2651.153	223.25
2654.734	229.25
2658.311	219.25
2661.885	227.25
2665.456	220.25
2669.025	216.25
2672.589	220.25
2676.151	216.25
2679.71	210.25
2683.266	205.25
2686.819	198.25
2690.368	205.25
2693.915	206.25
2697.458	199.25
2700.999	195.25
2704.536	196.25
2708.071	197.25
2711.602	198.25
2715.13	184.25
2718.656	195.25
2722.178	195.25
2725.697	196.25
2729.214	194.25
2732.727	201.25
2736.237	194.25
2739.744	199.25
2743.249	205.25
2746.75	197.25
2750.248	202.25
2753.743	201.25
2757.236	197.25
2760.725	193.25
2764.211	196.25
2767.695	190.25
2771.175	182.25
2774.652	192.25
2778.127	177.25
2781.598	191.25
2785.067	188.25
2788.532	189.25
2791.995	194.25
2795.455	192.25
2798.911	185.25
2802.365	195.25
2805.816	197.25
2809.264	194.25
2812.709	199.25
2816.151	195.25
2819.59	193.25
2823.026	188.25
2826.46	199.25
2829.89	198.25
2833.318	198.25
2836.742	195.25
2840.164	202.25
2843.583	202.25
2846.999	193.25
2850.412	202.25
2853.822	210.25
2857.229	215.25
2860.634	209.25
2864.035	222.25
2867.434	218.25
2870.83	221.25
2874.223	219.25
2877.613	225.25
2881	225.25
2884.385	223.25
2887.766	223.25
2891.145	233.25
2894.521	223.25
2897.894	225.25
2901.264	226.25
2904.631	238.25
2907.996	225.25
2911.358	235.25
2914.717	243.25
2918.073	247.25
2921.426	241.25
2924.777	253.25
2928.124	253.25
2931.469	252.25
2934.811	262.25
2938.15	266.25
2941.487	273.25
2944.821	279.25
2948.152	281.25
2951.48	288.25
2954.805	285.25
2958.128	298.25
2961.447	298.25
2964.765	304.25
2968.079	317.25
2971.39	318.25
2974.699	314.25
2978.005	337.25
2981.308	337.25
2984.609	351.25
2987.907	355.25
2991.202	365.25
2994.494	380.25
2997.784	392.25
3001.07	407.25
3004.355	408.25
3007.636	415.25
3010.915	428.25
3014.191	439.25
3017.464	446.25
3020.734	447.25
3024.002	453.25
3027.267	464.25
3030.53	474.25
3033.789	498.25
3037.046	487.25
3040.301	511.25
3043.552	518.25
3046.801	530.25
3050.048	541.25
3053.291	557.25
3056.532	585.25
3059.771	592.25
3063.006	610.25
3066.239	631.25
3069.469	645.25
3072.697	659.25
3075.922	690.25
3079.144	694.25
3082.364	712.25
3085.581	729.25
3088.795	746.25
3092.007	778.25
3095.216	790.25
3098.423	811.25
3101.627	821.25
3104.828	853.25
3108.026	865.25
3111.222	883.25
3114.416	898.25
3117.607	916.25
3120.795	931.25
3123.98	968.25
3127.163	983.25
3130.344	1016.25
3133.521	1039.25
3136.696	1032.25
3139.869	1064.25
3143.039	1079.25
3146.206	1091.25
3149.371	1115.25
3152.533	1133.25
3155.693	1148.25
3158.85	1137.25
3162.005	1152.25
3165.157	1158.25
3168.306	1154.25
3171.453	1177.25
3174.597	1157.25
3177.739	1162.25
3180.878	1178.25
3184.014	1178.25
3187.149	1190.25
3190.28	1184.25
3193.409	1192.25
3196.536	1195.25
3199.659	1194.25
3202.781	1212.25
3205.9	1217.25
3209.016	1198.25
3212.13	1199.25
3215.241	1203.25
3218.35	1195.25
3221.456	1176.25
3224.56	1164.25
3227.661	1168.25
3230.76	1130.25
3233.856	1131.25
3236.95	1113.25
3240.041	1118.25
3243.13	1114.25
3246.216	1098.25
3249.3	1082.25
3252.382	1096.25
3255.46	1080.25
3258.537	1081.25
3261.611	1087.25
3264.682	1064.25
3267.751	1064.25
3270.818	1068.25
3273.882	1066.25
3276.943	1039.25
3280.002	1029.25
3283.059	1024.25
3286.113	1018.25
3289.165	997.25
3292.214	983.25
3295.261	978.25
3298.306	968.25
3301.348	949.25
3304.387	939.25
3307.425	933.25
3310.459	901.25
3313.492	894.25
3316.521	884.25
3319.549	883.25
3322.574	869.25
3325.597	873.25
3328.617	860.25
3331.635	856.25
3334.65	849.25
3337.663	848.25
3340.674	844.25
3343.682	829.25
3346.688	838.25
3349.691	827.25
3352.692	823.25
3355.691	824.25
3358.687	810.25
3361.681	811.25
3364.673	795.25
3367.662	783.25
3370.649	770.25
3373.633	763.25
3376.615	751.25
3379.595	750.25
3382.572	739.25
3385.547	725.25
3388.52	732.25
3391.49	711.25
3394.458	710.25
3397.424	691.25
3400.387	679.25
3403.348	671.25
3406.307	671.25
3409.263	658.25
3412.217	655.25
3415.168	655.25
3418.118	645.25
3421.065	621.25
3424.009	623.25
3426.951	605.25
3429.891	609.25
3432.829	587.25
3435.764	578.25
3438.697	563.25
3441.628	561.25
3444.557	543.25
3447.483	519.25
3450.407	506.25
3453.328	505.25
3456.247	489.25
3459.164	475.25
3462.079	447.25
3464.991	440.25
3467.902	430.25
3470.809	415.25
3473.715	406.25
3476.618	395.25
3479.519	387.25
3482.418	373.25
3485.315	365.25
3488.209	353.25
3491.101	342.25
3493.99	335.25
3496.878	315.25
3499.763	306.25
3502.646	298.25
3505.527	283.25
3508.405	274.25
3511.281	270.25
3514.155	256.25
3517.027	239.25
3519.897	242.25
3522.764	224.25
3525.629	217.25
3528.492	198.25
3531.352	184.25
3534.211	173.25
3537.067	159.25
3539.921	154.25
3542.773	149.25
3545.622	139.25
3548.469	130.25
3551.315	126.25
3554.157	117.25
3556.998	106.25
3559.837	103.25
3562.673	98.25
3565.507	81.25
3568.339	78.25
3571.169	71.25
3573.996	71.25
3576.822	58.25
3579.645	59.25
3582.466	51.25
3585.285	47.25
3588.101	44.25
3590.916	34.25
3593.728	33.25
3596.538	24.25
3599.346	20.25
3602.152	12.25
3604.956	5.25
3607.757	6.25
3610.556	7.25
3613.354	-3.75
3616.149	-1.75
3618.942	-4.75
3621.732	-6.75
3624.521	-6.75
3627.307	-13.75
3630.092	-19.75
3632.874	-21.75
3635.654	-26.75
3638.432	-25.75
3641.208	-26.75
3643.982	-29.75
3646.753	-37.75
3649.523	-41.75
3652.29	-40.75
3655.055	-44.75
3657.818	-47.75
3660.579	-50.75
3663.338	-52.75
3666.095	-56.75
3668.849	-61.75
3671.602	-60.75
3674.352	-63.75
3677.101	-61.75
3679.847	-64.75
3682.591	-60.75
3685.333	-63.75
3688.073	-69.75
3690.811	-71.75
3693.547	-69.75
3696.281	-74.75
3699.013	-74.75
3701.742	-76.75
3704.47	-80.75
3707.195	-79.75
3709.919	-78.75
3712.64	-83.75
3715.359	-83.75
3718.076	-85.75
3720.792	-80.75
3723.505	-85.75
3726.216	-85.75
3728.925	-88.75
3731.632	-89.75
3734.336	-92.75
3737.039	-92.75
3739.74	-93.75
3742.439	-90.75
3745.136	-91.75
3747.83	-91.75
3750.523	-89.75
3753.213	-86.75
3755.902	-88.75
3758.589	-87.75
3761.273	-91.75
3763.956	-94.75
3766.636	-93.75
3769.315	-97.75
3771.991	-94.75
3774.665	-90.75
3777.338	-103.75
3780.008	-97.75
3782.677	-96.75
3785.343	-99.75
3788.007	-99.75
3790.67	-98.75
3793.33	-98.75
3795.989	-99.75
3798.645	-100.75
3801.299	-101.75
3803.952	-102.75
3806.602	-93.75
3809.251	-98.75
3811.897	-103.75
3814.542	-103.75
3817.184	-97.75
3819.825	-94.75
3822.463	-98.75
3825.1	-101.75
3827.735	-100.75
3830.367	-99.75
3832.998	-98.75
3835.627	-103.75
3838.253	-102.75
3840.878	-107.75
3843.501	-103.75
3846.122	-103.75
3848.741	-102.75
3851.358	-103.75
3853.973	-103.75
3856.586	-107.75
3859.197	-108.75
3861.806	-107.75
3864.414	-106.75
3867.019	-112.75
3869.622	-108.75
3872.224	-105.75
3874.823	-100.75
3877.421	-96.75
3880.016	-100.75
3882.61	-96.75
3885.202	-94.75
3887.792	-94.75
3890.38	-99.75
3892.966	-102.75
3895.55	-106.75
3898.132	-111.75
3900.713	-109.75
3903.291	-105.75
3905.868	-103.75
3908.442	-107.75
3911.015	-104.75
3913.586	-103.75
3916.155	-107.75
3918.722	-108.75
3921.287	-108.75
3923.85	-108.75
3926.411	-109.75
3928.971	-113.75
3931.528	-112.75
3934.084	-111.75
3936.638	-107.75
3939.19	-106.75
3941.74	-102.75
3944.288	-104.75
3946.834	-107.75
3949.378	-107.75
3951.921	-110.75
3954.462	-106.75
3957	-108.75
3959.537	-110.75
3962.072	-107.75
3964.606	-107.75
3967.137	-103.75
3969.667	-108.75
3972.194	-104.75
3974.72	-104.75
3977.244	-106.75
3979.766	-106.75
3982.286	-106.75
3984.805	-111.75
3987.321	-110.75
3989.836	-107.75
3992.349	-110.75
3994.86	-107.75
3997.369	-112.75
3999.877	-108.75
4002.382	-105.75
4004.886	-107.75
4007.388	-108.75
4009.888	-109.75
4012.386	-106.75
4014.883	-106.75
4017.377	-104.75
4019.87	-107.75
4022.361	-106.75
4024.85	-105.75
4027.338	-107.75
4029.823	-107.75
4032.307	-109.75
4034.789	-109.75
4037.269	-108.75
4039.747	-105.75
4042.224	-102.75
4044.699	-108.75
4047.172	-109.75
4049.643	-108.75
4052.112	-109.75
4054.58	-110.75
4057.046	-109.75
4059.51	-106.75
4061.972	-109.75
4064.432	-110.75
4066.891	-108.75
4069.348	-107.75
4071.803	-105.75
4074.256	-106.75
4076.708	-108.75
4079.158	-106.75
4081.606	-107.75
4084.052	-107.75
4086.497	-107.75
4088.939	-106.75
4091.38	-108.75
4093.819	-111.75
4096.257	-113.75
4098.693	-115.75
4101.127	-114.75
4103.559	-112.75
4105.989	-71.75
4108.418	-71.75
4110.845	-65.75
4113.27	-63.75
4115.694	-53.75
4118.115	-52.75
4120.535	-112.75
4122.954	-107.75
4125.37	-105.75
4127.785	-105.75
4130.198	-104.75
4132.609	-106.75
4135.019	-112.75
4137.427	-115.75
4139.833	-116.75
4142.237	-114.75
