Data from 100000000CFU2_B_RamanShift_1.txt Node
Date: Thu Jan 26 11:47:18 IST 2017
User: aro
Spectrometer: QEPB0276
Trigger mode: 0
Integration Time (sec): 5.000000E0
Scans to average: 1
Electric dark correction enabled: true
Nonlinearity correction enabled: false
Boxcar width: 0
XAxis mode: Raman Shifts
Number of Pixels in Spectrum: 1044
>>>>>Begin Spectral Data<<<<<
160.701	-24.38
166.742	-2.38
172.777	71.62
178.805	298.62
184.826	818.62
190.841	1657.62
196.849	2588.62
202.85	3154.62
208.845	3263.62
214.833	3176.62
220.815	3045.62
226.789	2993.62
232.758	2894.62
238.719	2813.62
244.674	2704.62
250.623	2592.62
256.565	2467.62
262.5	2376.62
268.429	2243.62
274.351	2182.62
280.267	2104.62
286.176	2031.62
292.079	1961.62
297.975	1881.62
303.865	1865.62
309.748	1805.62
315.625	1760.62
321.495	1722.62
327.359	1705.62
333.217	1700.62
339.068	1691.62
344.912	1655.62
350.751	1663.62
356.583	1660.62
362.408	1670.62
368.227	1669.62
374.04	1674.62
379.847	1677.62
385.647	1663.62
391.44	1697.62
397.228	1698.62
403.009	1694.62
408.784	1719.62
414.553	1716.62
420.315	1725.62
426.071	1743.62
431.821	1745.62
437.565	1728.62
443.302	1702.62
449.033	1724.62
454.758	1703.62
460.477	1697.62
466.189	1692.62
471.896	1685.62
477.596	1675.62
483.29	1662.62
488.978	1649.62
494.66	1626.62
500.335	1624.62
506.005	1574.62
511.668	1547.62
517.325	1514.62
522.977	1508.62
528.622	1483.62
534.261	1443.62
539.894	1452.62
545.521	1428.62
551.141	1427.62
556.756	1419.62
562.365	1396.62
567.968	1399.62
573.565	1376.62
579.155	1375.62
584.74	1360.62
590.319	1357.62
595.892	1358.62
601.459	1341.62
607.02	1327.62
612.575	1319.62
618.124	1288.62
623.667	1285.62
629.204	1256.62
634.735	1271.62
640.261	1265.62
645.781	1257.62
651.294	1240.62
656.802	1244.62
662.304	1235.62
667.8	1224.62
673.29	1224.62
678.775	1223.62
684.254	1213.62
689.726	1206.62
695.193	1191.62
700.655	1190.62
706.11	1189.62
711.56	1180.62
717.004	1162.62
722.442	1173.62
727.874	1163.62
733.301	1146.62
738.722	1153.62
744.137	1151.62
749.547	1139.62
754.951	1127.62
760.349	1133.62
765.741	1148.62
771.128	1127.62
776.509	1127.62
781.885	1135.62
787.254	1130.62
792.618	1132.62
797.977	1118.62
803.33	1088.62
808.677	1095.62
814.019	1082.62
819.355	1085.62
824.686	1073.62
830.011	1047.62
835.33	1055.62
840.644	1030.62
845.952	1040.62
851.255	1045.62
856.552	1042.62
861.844	1007.62
867.13	1007.62
872.41	1013.62
877.686	1009.62
882.955	994.62
888.219	954.62
893.478	956.62
898.731	932.62
903.979	927.62
909.221	929.62
914.458	915.62
919.69	897.62
924.916	902.62
930.136	914.62
935.351	894.62
940.561	885.62
945.766	897.62
950.965	879.62
956.158	878.62
961.347	860.62
966.529	864.62
971.707	854.62
976.879	842.62
982.046	822.62
987.208	823.62
992.364	821.62
997.515	827.62
1002.66	825.62
1007.801	834.62
1012.936	846.62
1018.066	850.62
1023.19	852.62
1028.309	854.62
1033.423	851.62
1038.532	850.62
1043.636	835.62
1048.734	842.62
1053.827	831.62
1058.915	827.62
1063.998	820.62
1069.075	808.62
1074.147	813.62
1079.214	819.62
1084.276	826.62
1089.333	823.62
1094.385	829.62
1099.431	833.62
1104.472	838.62
1109.509	822.62
1114.54	812.62
1119.565	812.62
1124.586	794.62
1129.602	792.62
1134.613	788.62
1139.618	789.62
1144.619	784.62
1149.614	786.62
1154.604	789.62
1159.589	790.62
1164.57	803.62
1169.545	806.62
1174.515	799.62
1179.48	798.62
1184.44	795.62
1189.395	797.62
1194.345	782.62
1199.29	784.62
1204.23	785.62
1209.165	785.62
1214.095	795.62
1219.021	799.62
1223.941	803.62
1228.856	817.62
1233.766	804.62
1238.672	826.62
1243.572	802.62
1248.467	800.62
1253.358	802.62
1258.244	775.62
1263.124	762.62
1268	745.62
1272.871	756.62
1277.737	740.62
1282.599	754.62
1287.455	748.62
1292.306	747.62
1297.153	757.62
1301.995	755.62
1306.832	772.62
1311.664	754.62
1316.491	764.62
1321.314	758.62
1326.132	743.62
1330.945	751.62
1335.753	737.62
1340.556	717.62
1345.354	731.62
1350.148	715.62
1354.937	699.62
1359.722	713.62
1364.501	705.62
1369.276	694.62
1374.046	685.62
1378.811	689.62
1383.572	680.62
1388.327	690.62
1393.079	684.62
1397.825	684.62
1402.567	664.62
1407.304	668.62
1412.036	661.62
1416.764	659.62
1421.487	668.62
1426.205	666.62
1430.919	678.62
1435.628	689.62
1440.333	692.62
1445.032	685.62
1449.727	697.62
1454.418	699.62
1459.104	699.62
1463.785	691.62
1468.462	680.62
1473.134	689.62
1477.802	693.62
1482.465	679.62
1487.123	678.62
1491.777	674.62
1496.426	682.62
1501.071	685.62
1505.711	684.62
1510.347	690.62
1514.978	714.62
1519.604	701.62
1524.226	708.62
1528.844	704.62
1533.457	712.62
1538.065	716.62
1542.669	716.62
1547.269	697.62
1551.864	716.62
1556.454	715.62
1561.041	718.62
1565.622	735.62
1570.199	740.62
1574.772	766.62
1579.34	777.62
1583.904	784.62
1588.464	800.62
1593.019	804.62
1597.569	826.62
1602.115	818.62
1606.657	840.62
1611.195	849.62
1615.728	850.62
1620.256	855.62
1624.78	871.62
1629.3	884.62
1633.816	898.62
1638.327	909.62
1642.834	919.62
1647.336	931.62
1651.834	935.62
1656.328	921.62
1660.817	925.62
1665.302	906.62
1669.783	886.62
1674.259	862.62
1678.732	850.62
1683.199	815.62
1687.663	788.62
1692.122	746.62
1696.577	713.62
1701.028	702.62
1705.474	661.62
1709.917	634.62
1714.355	625.62
1718.788	619.62
1723.218	597.62
1727.643	591.62
1732.064	579.62
1736.481	567.62
1740.893	547.62
1745.301	532.62
1749.705	518.62
1754.105	498.62
1758.501	490.62
1762.893	473.62
1767.28	474.62
1771.663	464.62
1776.042	463.62
1780.417	476.62
1784.787	465.62
1789.154	464.62
1793.516	463.62
1797.874	468.62
1802.228	454.62
1806.578	450.62
1810.924	441.62
1815.266	447.62
1819.603	426.62
1823.937	421.62
1828.266	427.62
1832.591	424.62
1836.913	418.62
1841.23	410.62
1845.543	410.62
1849.852	419.62
1854.156	432.62
1858.457	418.62
1862.754	420.62
1867.047	422.62
1871.335	423.62
1875.62	424.62
1879.9	430.62
1884.177	428.62
1888.449	430.62
1892.718	419.62
1896.982	415.62
1901.243	418.62
1905.499	414.62
1909.752	421.62
1914	421.62
1918.245	425.62
1922.485	410.62
1926.722	426.62
1930.954	416.62
1935.183	416.62
1939.408	428.62
1943.628	431.62
1947.845	432.62
1952.058	436.62
1956.267	432.62
1960.472	416.62
1964.673	425.62
1968.87	406.62
1973.063	398.62
1977.252	408.62
1981.438	398.62
1985.619	392.62
1989.797	396.62
1993.971	401.62
1998.14	402.62
2002.306	405.62
2006.469	402.62
2010.627	407.62
2014.781	407.62
2018.932	407.62
2023.078	407.62
2027.221	406.62
2031.36	401.62
2035.495	397.62
2039.627	400.62
2043.754	397.62
2047.878	397.62
2051.998	389.62
2056.114	395.62
2060.226	398.62
2064.334	405.62
2068.439	401.62
2072.54	407.62
2076.637	404.62
2080.73	400.62
2084.82	419.62
2088.906	414.62
2092.988	415.62
2097.066	405.62
2101.14	415.62
2105.211	400.62
2109.278	407.62
2113.342	398.62
2117.401	394.62
2121.457	390.62
2125.509	388.62
2129.558	390.62
2133.602	379.62
2137.643	392.62
2141.681	390.62
2145.714	380.62
2149.744	388.62
2153.77	380.62
2157.793	376.62
2161.812	370.62
2165.827	364.62
2169.838	370.62
2173.846	364.62
2177.851	348.62
2181.851	347.62
2185.848	346.62
2189.841	332.62
2193.831	329.62
2197.817	331.62
2201.799	332.62
2205.778	336.62
2209.753	329.62
2213.725	338.62
2217.693	329.62
2221.657	317.62
2225.618	322.62
2229.575	325.62
2233.529	321.62
2237.479	309.62
2241.425	313.62
2245.368	304.62
2249.307	307.62
2253.243	300.62
2257.175	299.62
2261.104	289.62
2265.029	280.62
2268.95	280.62
2272.868	284.62
2276.783	281.62
2280.694	273.62
2284.601	272.62
2288.505	266.62
2292.405	256.62
2296.302	256.62
2300.195	263.62
2304.085	248.62
2307.971	244.62
2311.854	239.62
2315.734	236.62
2319.609	238.62
2323.482	226.62
2327.351	220.62
2331.216	226.62
2335.078	226.62
2338.937	218.62
2342.792	226.62
2346.643	221.62
2350.492	215.62
2354.336	212.62
2358.178	222.62
2362.015	212.62
2365.85	216.62
2369.681	220.62
2373.508	221.62
2377.333	215.62
2381.153	222.62
2384.971	224.62
2388.785	226.62
2392.595	210.62
2396.402	206.62
2400.206	207.62
2404.007	208.62
2407.804	214.62
2411.597	208.62
2415.388	211.62
2419.174	203.62
2422.958	205.62
2426.738	205.62
2430.515	203.62
2434.289	206.62
2438.059	195.62
2441.825	200.62
2445.589	198.62
2449.349	198.62
2453.106	190.62
2456.859	195.62
2460.61	199.62
2464.356	194.62
2468.1	186.62
2471.84	186.62
2475.577	194.62
2479.311	196.62
2483.041	195.62
2486.768	192.62
2490.492	184.62
2494.213	184.62
2497.93	183.62
2501.644	193.62
2505.355	182.62
2509.062	181.62
2512.766	181.62
2516.467	179.62
2520.165	182.62
2523.859	182.62
2527.551	180.62
2531.239	178.62
2534.923	178.62
2538.605	177.62
2542.283	169.62
2545.958	168.62
2549.63	167.62
2553.299	161.62
2556.964	171.62
2560.626	165.62
2564.285	166.62
2567.941	168.62
2571.594	174.62
2575.243	166.62
2578.89	160.62
2582.533	163.62
2586.173	157.62
2589.809	153.62
2593.443	150.62
2597.073	155.62
2600.701	161.62
2604.325	154.62
2607.946	141.62
2611.564	157.62
2615.178	151.62
2618.79	148.62
2622.398	151.62
2626.004	147.62
2629.606	141.62
2633.205	139.62
2636.801	141.62
2640.394	142.62
2643.983	131.62
2647.57	145.62
2651.153	139.62
2654.734	140.62
2658.311	132.62
2661.885	140.62
2665.456	134.62
2669.025	136.62
2672.589	131.62
2676.151	125.62
2679.71	127.62
2683.266	123.62
2686.819	125.62
2690.368	122.62
2693.915	121.62
2697.458	123.62
2700.999	123.62
2704.536	120.62
2708.071	116.62
2711.602	122.62
2715.13	109.62
2718.656	113.62
2722.178	116.62
2725.697	114.62
2729.214	114.62
2732.727	117.62
2736.237	117.62
2739.744	117.62
2743.249	123.62
2746.75	119.62
2750.248	119.62
2753.743	119.62
2757.236	118.62
2760.725	117.62
2764.211	117.62
2767.695	116.62
2771.175	121.62
2774.652	116.62
2778.127	116.62
2781.598	122.62
2785.067	114.62
2788.532	121.62
2791.995	116.62
2795.455	122.62
2798.911	119.62
2802.365	122.62
2805.816	116.62
2809.264	115.62
2812.709	120.62
2816.151	118.62
2819.59	116.62
2823.026	118.62
2826.46	122.62
2829.89	124.62
2833.318	127.62
2836.742	122.62
2840.164	127.62
2843.583	129.62
2846.999	125.62
2850.412	133.62
2853.822	127.62
2857.229	134.62
2860.634	129.62
2864.035	139.62
2867.434	135.62
2870.83	150.62
2874.223	145.62
2877.613	152.62
2881	147.62
2884.385	149.62
2887.766	158.62
2891.145	147.62
2894.521	147.62
2897.894	155.62
2901.264	147.62
2904.631	151.62
2907.996	158.62
2911.358	158.62
2914.717	165.62
2918.073	162.62
2921.426	160.62
2924.777	176.62
2928.124	169.62
2931.469	172.62
2934.811	184.62
2938.15	183.62
2941.487	188.62
2944.821	193.62
2948.152	193.62
2951.48	194.62
2954.805	201.62
2958.128	207.62
2961.447	209.62
2964.765	208.62
2968.079	220.62
2971.39	218.62
2974.699	227.62
2978.005	238.62
2981.308	240.62
2984.609	244.62
2987.907	248.62
2991.202	260.62
2994.494	258.62
2997.784	283.62
3001.07	285.62
3004.355	294.62
3007.636	301.62
3010.915	297.62
3014.191	321.62
3017.464	313.62
3020.734	313.62
3024.002	331.62
3027.267	332.62
3030.53	335.62
3033.789	348.62
3037.046	350.62
3040.301	375.62
3043.552	369.62
3046.801	380.62
3050.048	398.62
3053.291	405.62
3056.532	429.62
3059.771	425.62
3063.006	445.62
3066.239	455.62
3069.469	477.62
3072.697	490.62
3075.922	506.62
3079.144	514.62
3082.364	524.62
3085.581	540.62
3088.795	551.62
3092.007	561.62
3095.216	587.62
3098.423	601.62
3101.627	612.62
3104.828	615.62
3108.026	634.62
3111.222	658.62
3114.416	662.62
3117.607	677.62
3120.795	690.62
3123.98	714.62
3127.163	738.62
3130.344	741.62
3133.521	763.62
3136.696	791.62
3139.869	800.62
3143.039	812.62
3146.206	809.62
3149.371	836.62
3152.533	835.62
3155.693	832.62
3158.85	845.62
3162.005	856.62
3165.157	849.62
3168.306	863.62
3171.453	873.62
3174.597	866.62
3177.739	872.62
3180.878	878.62
3184.014	874.62
3187.149	869.62
3190.28	880.62
3193.409	886.62
3196.536	902.62
3199.659	890.62
3202.781	878.62
3205.9	894.62
3209.016	894.62
3212.13	906.62
3215.241	893.62
3218.35	883.62
3221.456	887.62
3224.56	864.62
3227.661	868.62
3230.76	846.62
3233.856	851.62
3236.95	848.62
3240.041	828.62
3243.13	813.62
3246.216	816.62
3249.3	816.62
3252.382	808.62
3255.46	803.62
3258.537	801.62
3261.611	811.62
3264.682	794.62
3267.751	793.62
3270.818	783.62
3273.882	784.62
3276.943	779.62
3280.002	778.62
3283.059	775.62
3286.113	757.62
3289.165	754.62
3292.214	731.62
3295.261	728.62
3298.306	714.62
3301.348	703.62
3304.387	694.62
3307.425	685.62
3310.459	670.62
3313.492	676.62
3316.521	661.62
3319.549	651.62
3322.574	653.62
3325.597	651.62
3328.617	645.62
3331.635	650.62
3334.65	636.62
3337.663	630.62
3340.674	638.62
3343.682	621.62
3346.688	623.62
3349.691	621.62
3352.692	617.62
3355.691	606.62
3358.687	611.62
3361.681	611.62
3364.673	592.62
3367.662	592.62
3370.649	583.62
3373.633	574.62
3376.615	560.62
3379.595	563.62
3382.572	546.62
3385.547	533.62
3388.52	530.62
3391.49	518.62
3394.458	517.62
3397.424	512.62
3400.387	504.62
3403.348	504.62
3406.307	493.62
3409.263	497.62
3412.217	497.62
3415.168	479.62
3418.118	485.62
3421.065	471.62
3424.009	462.62
3426.951	463.62
3429.891	455.62
3432.829	440.62
3435.764	443.62
3438.697	425.62
3441.628	422.62
3444.557	406.62
3447.483	392.62
3450.407	378.62
3453.328	367.62
3456.247	362.62
3459.164	347.62
3462.079	341.62
3464.991	330.62
3467.902	315.62
3470.809	309.62
3473.715	302.62
3476.618	293.62
3479.519	289.62
3482.418	271.62
3485.315	268.62
3488.209	262.62
3491.101	255.62
3493.99	247.62
3496.878	238.62
3499.763	234.62
3502.646	223.62
3505.527	218.62
3508.405	205.62
3511.281	196.62
3514.155	188.62
3517.027	180.62
3519.897	171.62
3522.764	161.62
3525.629	159.62
3528.492	154.62
3531.352	132.62
3534.211	123.62
3537.067	122.62
3539.921	114.62
3542.773	105.62
3545.622	100.62
3548.469	91.62
3551.315	87.62
3554.157	84.62
3556.998	75.62
3559.837	79.62
3562.673	72.62
3565.507	63.62
3568.339	62.62
3571.169	53.62
3573.996	55.62
3576.822	51.62
3579.645	44.62
3582.466	40.62
3585.285	35.62
3588.101	33.62
3590.916	21.62
3593.728	24.62
3596.538	15.62
3599.346	10.62
3602.152	7.62
3604.956	2.62
3607.757	1.62
3610.556	-2.38
3613.354	-3.38
3616.149	-7.38
3618.942	-6.38
3621.732	-5.38
3624.521	-8.38
3627.307	-10.38
3630.092	-13.38
3632.874	-17.38
3635.654	-19.38
3638.432	-23.38
3641.208	-22.38
3643.982	-26.38
3646.753	-31.38
3649.523	-26.38
3652.29	-29.38
3655.055	-29.38
3657.818	-33.38
3660.579	-32.38
3663.338	-38.38
3666.095	-36.38
3668.849	-45.38
3671.602	-46.38
3674.352	-49.38
3677.101	-44.38
3679.847	-47.38
3682.591	-51.38
3685.333	-52.38
3688.073	-53.38
3690.811	-55.38
3693.547	-52.38
3696.281	-56.38
3699.013	-59.38
3701.742	-55.38
3704.47	-57.38
3707.195	-60.38
3709.919	-59.38
3712.64	-62.38
3715.359	-55.38
3718.076	-60.38
3720.792	-58.38
3723.505	-61.38
3726.216	-67.38
3728.925	-66.38
3731.632	-64.38
3734.336	-69.38
3737.039	-68.38
3739.74	-68.38
3742.439	-72.38
3745.136	-69.38
3747.83	-70.38
3750.523	-71.38
3753.213	-66.38
3755.902	-69.38
3758.589	-67.38
3761.273	-68.38
3763.956	-72.38
3766.636	-70.38
3769.315	-71.38
3771.991	-70.38
3774.665	-71.38
3777.338	-71.38
3780.008	-70.38
3782.677	-71.38
3785.343	-71.38
3788.007	-70.38
3790.67	-70.38
3793.33	-72.38
3795.989	-73.38
3798.645	-70.38
3801.299	-73.38
3803.952	-77.38
3806.602	-71.38
3809.251	-73.38
3811.897	-77.38
3814.542	-80.38
3817.184	-73.38
3819.825	-75.38
3822.463	-75.38
3825.1	-76.38
3827.735	-78.38
3830.367	-76.38
3832.998	-78.38
3835.627	-78.38
3838.253	-75.38
3840.878	-77.38
3843.501	-76.38
3846.122	-76.38
3848.741	-75.38
3851.358	-75.38
3853.973	-74.38
3856.586	-81.38
3859.197	-79.38
3861.806	-79.38
3864.414	-78.38
3867.019	-84.38
3869.622	-80.38
3872.224	-77.38
3874.823	-74.38
3877.421	-73.38
3880.016	-75.38
3882.61	-71.38
3885.202	-70.38
3887.792	-70.38
3890.38	-74.38
3892.966	-79.38
3895.55	-79.38
3898.132	-83.38
3900.713	-78.38
3903.291	-78.38
3905.868	-76.38
3908.442	-79.38
3911.015	-77.38
3913.586	-79.38
3916.155	-77.38
3918.722	-77.38
3921.287	-78.38
3923.85	-80.38
3926.411	-77.38
3928.971	-82.38
3931.528	-81.38
3934.084	-81.38
3936.638	-83.38
3939.19	-80.38
3941.74	-76.38
3944.288	-83.38
3946.834	-79.38
3949.378	-80.38
3951.921	-83.38
3954.462	-81.38
3957	-84.38
3959.537	-87.38
3962.072	-85.38
3964.606	-82.38
3967.137	-81.38
3969.667	-81.38
3972.194	-76.38
3974.72	-78.38
3977.244	-78.38
3979.766	-77.38
3982.286	-80.38
3984.805	-80.38
3987.321	-80.38
3989.836	-79.38
3992.349	-80.38
3994.86	-78.38
3997.369	-82.38
3999.877	-79.38
4002.382	-76.38
4004.886	-77.38
4007.388	-79.38
4009.888	-81.38
4012.386	-77.38
4014.883	-80.38
4017.377	-80.38
4019.87	-81.38
4022.361	-81.38
4024.85	-80.38
4027.338	-81.38
4029.823	-84.38
4032.307	-85.38
4034.789	-82.38
4037.269	-84.38
4039.747	-80.38
4042.224	-77.38
4044.699	-80.38
4047.172	-82.38
4049.643	-81.38
4052.112	-80.38
4054.58	-82.38
4057.046	-83.38
4059.51	-80.38
4061.972	-78.38
4064.432	-78.38
4066.891	-77.38
4069.348	-75.38
4071.803	-76.38
4074.256	-75.38
4076.708	-79.38
4079.158	-79.38
4081.606	-78.38
4084.052	-80.38
4086.497	-76.38
4088.939	-81.38
4091.38	-81.38
4093.819	-84.38
4096.257	-82.38
4098.693	-86.38
4101.127	-86.38
4103.559	-84.38
4105.989	-51.38
4108.418	-51.38
4110.845	-49.38
4113.27	-42.38
4115.694	-40.38
4118.115	-34.38
4120.535	-81.38
4122.954	-80.38
4125.37	-79.38
4127.785	-80.38
4130.198	-78.38
4132.609	-79.38
4135.019	-83.38
4137.427	-86.38
4139.833	-87.38
4142.237	-86.38
