Data from 10CFU1_B_RamanShift_1.txt Node
Date: Thu Jan 26 11:22:58 IST 2017
User: aro
Spectrometer: QEPB0276
Trigger mode: 0
Integration Time (sec): 5.000000E0
Scans to average: 1
Electric dark correction enabled: true
Nonlinearity correction enabled: false
Boxcar width: 0
XAxis mode: Raman Shifts
Number of Pixels in Spectrum: 1044
>>>>>Begin Spectral Data<<<<<
160.701	-27.88
166.742	0.12
172.777	96.12
178.805	374.12
184.826	1060.12
190.841	2178.12
196.849	3376.12
202.85	4135.12
208.845	4271.12
214.833	4154.12
220.815	3995.12
226.789	3886.12
232.758	3785.12
238.719	3649.12
244.674	3516.12
250.623	3358.12
256.565	3226.12
262.5	3079.12
268.429	2957.12
274.351	2809.12
280.267	2705.12
286.176	2640.12
292.079	2547.12
297.975	2480.12
303.865	2403.12
309.748	2307.12
315.625	2282.12
321.495	2249.12
327.359	2205.12
333.217	2189.12
339.068	2160.12
344.912	2154.12
350.751	2143.12
356.583	2138.12
362.408	2149.12
368.227	2134.12
374.04	2114.12
379.847	2154.12
385.647	2166.12
391.44	2179.12
397.228	2178.12
403.009	2190.12
408.784	2213.12
414.553	2208.12
420.315	2201.12
426.071	2227.12
431.821	2231.12
437.565	2208.12
443.302	2208.12
449.033	2204.12
454.758	2197.12
460.477	2199.12
466.189	2192.12
471.896	2173.12
477.596	2144.12
483.29	2155.12
488.978	2127.12
494.66	2127.12
500.335	2094.12
506.005	2045.12
511.668	2014.12
517.325	1988.12
522.977	1966.12
528.622	1915.12
534.261	1906.12
539.894	1905.12
545.521	1864.12
551.141	1843.12
556.756	1847.12
562.365	1831.12
567.968	1826.12
573.565	1804.12
579.155	1792.12
584.74	1799.12
590.319	1807.12
595.892	1759.12
601.459	1762.12
607.02	1734.12
612.575	1738.12
618.124	1714.12
623.667	1693.12
629.204	1692.12
634.735	1667.12
640.261	1649.12
645.781	1656.12
651.294	1646.12
656.802	1647.12
662.304	1642.12
667.8	1631.12
673.29	1638.12
678.775	1621.12
684.254	1602.12
689.726	1602.12
695.193	1595.12
700.655	1572.12
706.11	1561.12
711.56	1557.12
717.004	1546.12
722.442	1534.12
727.874	1527.12
733.301	1531.12
738.722	1509.12
744.137	1520.12
749.547	1484.12
754.951	1499.12
760.349	1494.12
765.741	1496.12
771.128	1473.12
776.509	1495.12
781.885	1508.12
787.254	1496.12
792.618	1498.12
797.977	1481.12
803.33	1477.12
808.677	1457.12
814.019	1429.12
819.355	1418.12
824.686	1417.12
830.011	1420.12
835.33	1388.12
840.644	1413.12
845.952	1384.12
851.255	1386.12
856.552	1375.12
861.844	1372.12
867.13	1361.12
872.41	1355.12
877.686	1343.12
882.955	1319.12
888.219	1316.12
893.478	1283.12
898.731	1269.12
903.979	1261.12
909.221	1237.12
914.458	1239.12
919.69	1228.12
924.916	1217.12
930.136	1231.12
935.351	1232.12
940.561	1222.12
945.766	1224.12
950.965	1223.12
956.158	1197.12
961.347	1174.12
966.529	1169.12
971.707	1159.12
976.879	1134.12
982.046	1128.12
987.208	1126.12
992.364	1141.12
997.515	1146.12
1002.66	1153.12
1007.801	1140.12
1012.936	1153.12
1018.066	1168.12
1023.19	1168.12
1028.309	1185.12
1033.423	1166.12
1038.532	1168.12
1043.636	1166.12
1048.734	1166.12
1053.827	1140.12
1058.915	1136.12
1063.998	1122.12
1069.075	1124.12
1074.147	1134.12
1079.214	1147.12
1084.276	1125.12
1089.333	1153.12
1094.385	1151.12
1099.431	1158.12
1104.472	1166.12
1109.509	1162.12
1114.54	1130.12
1119.565	1140.12
1124.586	1108.12
1129.602	1111.12
1134.613	1103.12
1139.618	1090.12
1144.619	1092.12
1149.614	1099.12
1154.604	1101.12
1159.589	1108.12
1164.57	1116.12
1169.545	1132.12
1174.515	1127.12
1179.48	1114.12
1184.44	1101.12
1189.395	1104.12
1194.345	1095.12
1199.29	1104.12
1204.23	1104.12
1209.165	1111.12
1214.095	1108.12
1219.021	1121.12
1223.941	1127.12
1228.856	1135.12
1233.766	1131.12
1238.672	1146.12
1243.572	1136.12
1248.467	1139.12
1253.358	1123.12
1258.244	1099.12
1263.124	1089.12
1268	1078.12
1272.871	1063.12
1277.737	1059.12
1282.599	1060.12
1287.455	1054.12
1292.306	1052.12
1297.153	1061.12
1301.995	1072.12
1306.832	1078.12
1311.664	1085.12
1316.491	1076.12
1321.314	1081.12
1326.132	1072.12
1330.945	1070.12
1335.753	1046.12
1340.556	1034.12
1345.354	1029.12
1350.148	1012.12
1354.937	1004.12
1359.722	998.12
1364.501	987.12
1369.276	1002.12
1374.046	992.12
1378.811	986.12
1383.572	996.12
1388.327	1003.12
1393.079	982.12
1397.825	967.12
1402.567	947.12
1407.304	950.12
1412.036	960.12
1416.764	955.12
1421.487	941.12
1426.205	944.12
1430.919	960.12
1435.628	974.12
1440.333	984.12
1445.032	986.12
1449.727	993.12
1454.418	1011.12
1459.104	988.12
1463.785	985.12
1468.462	979.12
1473.134	980.12
1477.802	970.12
1482.465	965.12
1487.123	965.12
1491.777	966.12
1496.426	961.12
1501.071	984.12
1505.711	995.12
1510.347	1012.12
1514.978	1011.12
1519.604	1020.12
1524.226	1041.12
1528.844	1034.12
1533.457	1026.12
1538.065	1033.12
1542.669	1023.12
1547.269	1026.12
1551.864	1028.12
1556.454	1030.12
1561.041	1049.12
1565.622	1035.12
1570.199	1061.12
1574.772	1072.12
1579.34	1097.12
1583.904	1114.12
1588.464	1123.12
1593.019	1147.12
1597.569	1155.12
1602.115	1180.12
1606.657	1187.12
1611.195	1206.12
1615.728	1217.12
1620.256	1215.12
1624.78	1237.12
1629.3	1258.12
1633.816	1269.12
1638.327	1290.12
1642.834	1308.12
1647.336	1316.12
1651.834	1310.12
1656.328	1319.12
1660.817	1300.12
1665.302	1278.12
1669.783	1268.12
1674.259	1228.12
1678.732	1169.12
1683.199	1150.12
1687.663	1125.12
1692.122	1072.12
1696.577	1032.12
1701.028	1000.12
1705.474	969.12
1709.917	943.12
1714.355	927.12
1718.788	906.12
1723.218	897.12
1727.643	881.12
1732.064	844.12
1736.481	828.12
1740.893	807.12
1745.301	799.12
1749.705	763.12
1754.105	754.12
1758.501	733.12
1762.893	719.12
1767.28	718.12
1771.663	702.12
1776.042	700.12
1780.417	702.12
1784.787	711.12
1789.154	709.12
1793.516	712.12
1797.874	715.12
1802.228	705.12
1806.578	705.12
1810.924	693.12
1815.266	673.12
1819.603	670.12
1823.937	669.12
1828.266	655.12
1832.591	643.12
1836.913	642.12
1841.23	637.12
1845.543	647.12
1849.852	631.12
1854.156	642.12
1858.457	634.12
1862.754	651.12
1867.047	648.12
1871.335	658.12
1875.62	660.12
1879.9	650.12
1884.177	654.12
1888.449	653.12
1892.718	657.12
1896.982	654.12
1901.243	649.12
1905.499	657.12
1909.752	646.12
1914	645.12
1918.245	645.12
1922.485	653.12
1926.722	638.12
1930.954	643.12
1935.183	649.12
1939.408	659.12
1943.628	653.12
1947.845	657.12
1952.058	663.12
1956.267	663.12
1960.472	651.12
1964.673	646.12
1968.87	632.12
1973.063	624.12
1977.252	624.12
1981.438	623.12
1985.619	612.12
1989.797	626.12
1993.971	621.12
1998.14	631.12
2002.306	639.12
2006.469	635.12
2010.627	631.12
2014.781	633.12
2018.932	641.12
2023.078	636.12
2027.221	626.12
2031.36	637.12
2035.495	625.12
2039.627	617.12
2043.754	609.12
2047.878	609.12
2051.998	610.12
2056.114	611.12
2060.226	603.12
2064.334	610.12
2068.439	621.12
2072.54	618.12
2076.637	623.12
2080.73	627.12
2084.82	634.12
2088.906	628.12
2092.988	630.12
2097.066	617.12
2101.14	621.12
2105.211	625.12
2109.278	617.12
2113.342	599.12
2117.401	607.12
2121.457	608.12
2125.509	623.12
2129.558	610.12
2133.602	604.12
2137.643	617.12
2141.681	598.12
2145.714	591.12
2149.744	590.12
2153.77	599.12
2157.793	583.12
2161.812	584.12
2165.827	573.12
2169.838	567.12
2173.846	553.12
2177.851	547.12
2181.851	541.12
2185.848	537.12
2189.841	525.12
2193.831	513.12
2197.817	520.12
2201.799	520.12
2205.778	521.12
2209.753	510.12
2213.725	511.12
2217.693	515.12
2221.657	509.12
2225.618	521.12
2229.575	512.12
2233.529	499.12
2237.479	506.12
2241.425	497.12
2245.368	492.12
2249.307	486.12
2253.243	479.12
2257.175	479.12
2261.104	461.12
2265.029	454.12
2268.95	445.12
2272.868	445.12
2276.783	446.12
2280.694	440.12
2284.601	425.12
2288.505	431.12
2292.405	421.12
2296.302	424.12
2300.195	412.12
2304.085	408.12
2307.971	404.12
2311.854	393.12
2315.734	397.12
2319.609	387.12
2323.482	383.12
2327.351	373.12
2331.216	376.12
2335.078	374.12
2338.937	367.12
2342.792	372.12
2346.643	354.12
2350.492	361.12
2354.336	362.12
2358.178	356.12
2362.015	356.12
2365.85	365.12
2369.681	363.12
2373.508	366.12
2377.333	360.12
2381.153	362.12
2384.971	362.12
2388.785	370.12
2392.595	360.12
2396.402	353.12
2400.206	352.12
2404.007	358.12
2407.804	352.12
2411.597	349.12
2415.388	344.12
2419.174	343.12
2422.958	337.12
2426.738	342.12
2430.515	342.12
2434.289	336.12
2438.059	336.12
2441.825	342.12
2445.589	333.12
2449.349	334.12
2453.106	325.12
2456.859	322.12
2460.61	326.12
2464.356	317.12
2468.1	310.12
2471.84	317.12
2475.577	313.12
2479.311	319.12
2483.041	316.12
2486.768	318.12
2490.492	312.12
2494.213	310.12
2497.93	307.12
2501.644	314.12
2505.355	309.12
2509.062	310.12
2512.766	306.12
2516.467	310.12
2520.165	310.12
2523.859	299.12
2527.551	294.12
2531.239	297.12
2534.923	296.12
2538.605	285.12
2542.283	290.12
2545.958	294.12
2549.63	290.12
2553.299	291.12
2556.964	290.12
2560.626	284.12
2564.285	274.12
2567.941	283.12
2571.594	284.12
2575.243	280.12
2578.89	277.12
2582.533	279.12
2586.173	267.12
2589.809	266.12
2593.443	264.12
2597.073	263.12
2600.701	269.12
2604.325	266.12
2607.946	265.12
2611.564	259.12
2615.178	257.12
2618.79	256.12
2622.398	259.12
2626.004	257.12
2629.606	249.12
2633.205	242.12
2636.801	241.12
2640.394	240.12
2643.983	234.12
2647.57	245.12
2651.153	244.12
2654.734	227.12
2658.311	236.12
2661.885	237.12
2665.456	230.12
2669.025	223.12
2672.589	223.12
2676.151	225.12
2679.71	226.12
2683.266	219.12
2686.819	213.12
2690.368	223.12
2693.915	213.12
2697.458	219.12
2700.999	215.12
2704.536	211.12
2708.071	211.12
2711.602	205.12
2715.13	196.12
2718.656	205.12
2722.178	204.12
2725.697	197.12
2729.214	195.12
2732.727	202.12
2736.237	203.12
2739.744	201.12
2743.249	207.12
2746.75	202.12
2750.248	209.12
2753.743	207.12
2757.236	212.12
2760.725	198.12
2764.211	206.12
2767.695	199.12
2771.175	208.12
2774.652	209.12
2778.127	201.12
2781.598	200.12
2785.067	197.12
2788.532	209.12
2791.995	201.12
2795.455	202.12
2798.911	204.12
2802.365	206.12
2805.816	194.12
2809.264	207.12
2812.709	198.12
2816.151	204.12
2819.59	200.12
2823.026	184.12
2826.46	199.12
2829.89	198.12
2833.318	199.12
2836.742	202.12
2840.164	208.12
2843.583	208.12
2846.999	214.12
2850.412	211.12
2853.822	207.12
2857.229	216.12
2860.634	219.12
2864.035	216.12
2867.434	229.12
2870.83	228.12
2874.223	229.12
2877.613	228.12
2881	237.12
2884.385	228.12
2887.766	238.12
2891.145	227.12
2894.521	231.12
2897.894	243.12
2901.264	238.12
2904.631	239.12
2907.996	228.12
2911.358	240.12
2914.717	241.12
2918.073	253.12
2921.426	251.12
2924.777	257.12
2928.124	264.12
2931.469	265.12
2934.811	266.12
2938.15	272.12
2941.487	275.12
2944.821	285.12
2948.152	279.12
2951.48	286.12
2954.805	289.12
2958.128	294.12
2961.447	300.12
2964.765	309.12
2968.079	310.12
2971.39	315.12
2974.699	323.12
2978.005	337.12
2981.308	341.12
2984.609	357.12
2987.907	360.12
2991.202	362.12
2994.494	382.12
2997.784	388.12
3001.07	403.12
3004.355	420.12
3007.636	421.12
3010.915	427.12
3014.191	434.12
3017.464	444.12
3020.734	450.12
3024.002	452.12
3027.267	466.12
3030.53	470.12
3033.789	482.12
3037.046	483.12
3040.301	498.12
3043.552	496.12
3046.801	524.12
3050.048	547.12
3053.291	549.12
3056.532	572.12
3059.771	575.12
3063.006	595.12
3066.239	621.12
3069.469	636.12
3072.697	642.12
3075.922	669.12
3079.144	680.12
3082.364	692.12
3085.581	715.12
3088.795	729.12
3092.007	751.12
3095.216	769.12
3098.423	782.12
3101.627	805.12
3104.828	822.12
3108.026	832.12
3111.222	860.12
3114.416	870.12
3117.607	896.12
3120.795	911.12
3123.98	947.12
3127.163	947.12
3130.344	993.12
3133.521	995.12
3136.696	1023.12
3139.869	1024.12
3143.039	1058.12
3146.206	1069.12
3149.371	1082.12
3152.533	1090.12
3155.693	1106.12
3158.85	1112.12
3162.005	1116.12
3165.157	1124.12
3168.306	1130.12
3171.453	1118.12
3174.597	1125.12
3177.739	1126.12
3180.878	1156.12
3184.014	1152.12
3187.149	1151.12
3190.28	1149.12
3193.409	1153.12
3196.536	1171.12
3199.659	1174.12
3202.781	1185.12
3205.9	1183.12
3209.016	1173.12
3212.13	1178.12
3215.241	1174.12
3218.35	1172.12
3221.456	1142.12
3224.56	1148.12
3227.661	1126.12
3230.76	1117.12
3233.856	1111.12
3236.95	1095.12
3240.041	1093.12
3243.13	1086.12
3246.216	1077.12
3249.3	1063.12
3252.382	1068.12
3255.46	1069.12
3258.537	1049.12
3261.611	1040.12
3264.682	1040.12
3267.751	1049.12
3270.818	1044.12
3273.882	1034.12
3276.943	1031.12
3280.002	1038.12
3283.059	1008.12
3286.113	999.12
3289.165	989.12
3292.214	976.12
3295.261	958.12
3298.306	948.12
3301.348	947.12
3304.387	915.12
3307.425	899.12
3310.459	891.12
3313.492	884.12
3316.521	874.12
3319.549	869.12
3322.574	848.12
3325.597	848.12
3328.617	835.12
3331.635	838.12
3334.65	824.12
3337.663	829.12
3340.674	815.12
3343.682	820.12
3346.688	812.12
3349.691	800.12
3352.692	815.12
3355.691	807.12
3358.687	794.12
3361.681	783.12
3364.673	782.12
3367.662	765.12
3370.649	762.12
3373.633	743.12
3376.615	748.12
3379.595	734.12
3382.572	723.12
3385.547	706.12
3388.52	703.12
3391.49	696.12
3394.458	688.12
3397.424	668.12
3400.387	668.12
3403.348	657.12
3406.307	652.12
3409.263	653.12
3412.217	645.12
3415.168	631.12
3418.118	630.12
3421.065	621.12
3424.009	612.12
3426.951	602.12
3429.891	595.12
3432.829	576.12
3435.764	565.12
3438.697	559.12
3441.628	557.12
3444.557	522.12
3447.483	525.12
3450.407	502.12
3453.328	487.12
3456.247	481.12
3459.164	456.12
3462.079	444.12
3464.991	427.12
3467.902	424.12
3470.809	416.12
3473.715	401.12
3476.618	388.12
3479.519	382.12
3482.418	373.12
3485.315	363.12
3488.209	347.12
3491.101	341.12
3493.99	331.12
3496.878	315.12
3499.763	299.12
3502.646	295.12
3505.527	288.12
3508.405	268.12
3511.281	263.12
3514.155	252.12
3517.027	239.12
3519.897	231.12
3522.764	220.12
3525.629	206.12
3528.492	197.12
3531.352	179.12
3534.211	164.12
3537.067	159.12
3539.921	158.12
3542.773	144.12
3545.622	133.12
3548.469	129.12
3551.315	119.12
3554.157	112.12
3556.998	107.12
3559.837	105.12
3562.673	104.12
3565.507	85.12
3568.339	79.12
3571.169	77.12
3573.996	70.12
3576.822	71.12
3579.645	65.12
3582.466	54.12
3585.285	52.12
3588.101	44.12
3590.916	38.12
3593.728	33.12
3596.538	28.12
3599.346	23.12
3602.152	21.12
3604.956	10.12
3607.757	5.12
3610.556	7.12
3613.354	5.12
3616.149	-3.88
3618.942	-7.88
3621.732	-3.88
3624.521	-13.88
3627.307	-16.88
3630.092	-15.88
3632.874	-19.88
3635.654	-25.88
3638.432	-26.88
3641.208	-27.88
3643.982	-29.88
3646.753	-33.88
3649.523	-32.88
3652.29	-35.88
3655.055	-37.88
3657.818	-39.88
3660.579	-45.88
3663.338	-49.88
3666.095	-47.88
3668.849	-56.88
3671.602	-56.88
3674.352	-62.88
3677.101	-54.88
3679.847	-62.88
3682.591	-63.88
3685.333	-64.88
3688.073	-68.88
3690.811	-68.88
3693.547	-69.88
3696.281	-76.88
3699.013	-73.88
3701.742	-79.88
3704.47	-77.88
3707.195	-77.88
3709.919	-79.88
3712.64	-74.88
3715.359	-76.88
3718.076	-79.88
3720.792	-76.88
3723.505	-81.88
3726.216	-81.88
3728.925	-80.88
3731.632	-83.88
3734.336	-85.88
3737.039	-86.88
3739.74	-85.88
3742.439	-87.88
3745.136	-85.88
3747.83	-88.88
3750.523	-87.88
3753.213	-86.88
3755.902	-86.88
3758.589	-81.88
3761.273	-87.88
3763.956	-92.88
3766.636	-91.88
3769.315	-93.88
3771.991	-97.88
3774.665	-92.88
3777.338	-97.88
3780.008	-94.88
3782.677	-94.88
3785.343	-93.88
3788.007	-95.88
3790.67	-98.88
3793.33	-97.88
3795.989	-97.88
3798.645	-92.88
3801.299	-95.88
3803.952	-95.88
3806.602	-92.88
3809.251	-91.88
3811.897	-93.88
3814.542	-100.88
3817.184	-96.88
3819.825	-94.88
3822.463	-96.88
3825.1	-100.88
3827.735	-99.88
3830.367	-97.88
3832.998	-99.88
3835.627	-102.88
3838.253	-101.88
3840.878	-104.88
3843.501	-101.88
3846.122	-100.88
3848.741	-102.88
3851.358	-99.88
3853.973	-95.88
3856.586	-102.88
3859.197	-104.88
3861.806	-106.88
3864.414	-102.88
3867.019	-105.88
3869.622	-100.88
3872.224	-104.88
3874.823	-97.88
3877.421	-93.88
3880.016	-95.88
3882.61	-85.88
3885.202	-87.88
3887.792	-88.88
3890.38	-93.88
3892.966	-100.88
3895.55	-103.88
3898.132	-108.88
3900.713	-105.88
3903.291	-105.88
3905.868	-100.88
3908.442	-103.88
3911.015	-103.88
3913.586	-105.88
3916.155	-103.88
3918.722	-109.88
3921.287	-107.88
3923.85	-105.88
3926.411	-103.88
3928.971	-109.88
3931.528	-104.88
3934.084	-108.88
3936.638	-107.88
3939.19	-103.88
3941.74	-99.88
3944.288	-106.88
3946.834	-103.88
3949.378	-104.88
3951.921	-104.88
3954.462	-104.88
3957	-107.88
3959.537	-108.88
3962.072	-105.88
3964.606	-105.88
3967.137	-103.88
3969.667	-105.88
3972.194	-101.88
3974.72	-106.88
3977.244	-101.88
3979.766	-105.88
3982.286	-103.88
3984.805	-108.88
3987.321	-105.88
3989.836	-108.88
3992.349	-106.88
3994.86	-106.88
3997.369	-108.88
3999.877	-104.88
4002.382	-103.88
4004.886	-106.88
4007.388	-105.88
4009.888	-105.88
4012.386	-103.88
4014.883	-104.88
4017.377	-102.88
4019.87	-104.88
4022.361	-104.88
4024.85	-104.88
4027.338	-104.88
4029.823	-106.88
4032.307	-104.88
4034.789	-105.88
4037.269	-104.88
4039.747	-105.88
4042.224	-99.88
4044.699	-103.88
4047.172	-105.88
4049.643	-104.88
4052.112	-105.88
4054.58	-108.88
4057.046	-108.88
4059.51	-107.88
4061.972	-109.88
4064.432	-105.88
4066.891	-109.88
4069.348	-103.88
4071.803	-104.88
4074.256	-102.88
4076.708	-101.88
4079.158	-104.88
4081.606	-103.88
4084.052	-106.88
4086.497	-104.88
4088.939	-103.88
4091.38	-105.88
4093.819	-106.88
4096.257	-109.88
4098.693	-111.88
4101.127	-111.88
4103.559	-108.88
4105.989	-69.88
4108.418	-69.88
4110.845	-66.88
4113.27	-59.88
4115.694	-56.88
4118.115	-50.88
4120.535	-106.88
4122.954	-101.88
4125.37	-100.88
4127.785	-103.88
4130.198	-102.88
4132.609	-101.88
4135.019	-106.88
4137.427	-110.88
4139.833	-112.88
4142.237	-111.88
