Data from 10CFU2_B_RamanShift_1.txt Node
Date: Thu Jan 26 11:23:58 IST 2017
User: aro
Spectrometer: QEPB0276
Trigger mode: 0
Integration Time (sec): 5.000000E0
Scans to average: 1
Electric dark correction enabled: true
Nonlinearity correction enabled: false
Boxcar width: 0
XAxis mode: Raman Shifts
Number of Pixels in Spectrum: 1044
>>>>>Begin Spectral Data<<<<<
160.701	-36
166.742	0
172.777	100
178.805	414
184.826	1162
190.841	2333
196.849	3610
202.85	4421
208.845	4586
214.833	4439
220.815	4280
226.789	4178
232.758	4060
238.719	3984
244.674	3855
250.623	3674
256.565	3506
262.5	3383
268.429	3228
274.351	3134
280.267	3023
286.176	2899
292.079	2821
297.975	2755
303.865	2689
309.748	2607
315.625	2580
321.495	2522
327.359	2503
333.217	2475
339.068	2432
344.912	2437
350.751	2431
356.583	2408
362.408	2430
368.227	2423
374.04	2421
379.847	2426
385.647	2446
391.44	2442
397.228	2458
403.009	2488
408.784	2497
414.553	2507
420.315	2508
426.071	2514
431.821	2537
437.565	2498
443.302	2519
449.033	2501
454.758	2483
460.477	2473
466.189	2474
471.896	2475
477.596	2461
483.29	2445
488.978	2426
494.66	2421
500.335	2391
506.005	2351
511.668	2312
517.325	2263
522.977	2236
528.622	2208
534.261	2192
539.894	2187
545.521	2167
551.141	2146
556.756	2135
562.365	2153
567.968	2113
573.565	2094
579.155	2092
584.74	2100
590.319	2079
595.892	2059
601.459	2062
607.02	2040
612.575	2037
618.124	2000
623.667	1985
629.204	1975
634.735	1943
640.261	1937
645.781	1947
651.294	1925
656.802	1926
662.304	1928
667.8	1925
673.29	1905
678.775	1900
684.254	1887
689.726	1891
695.193	1880
700.655	1874
706.11	1851
711.56	1829
717.004	1829
722.442	1831
727.874	1809
733.301	1799
738.722	1823
744.137	1801
749.547	1808
754.951	1798
760.349	1785
765.741	1762
771.128	1785
776.509	1784
781.885	1790
787.254	1805
792.618	1800
797.977	1778
803.33	1759
808.677	1752
814.019	1738
819.355	1707
824.686	1717
830.011	1689
835.33	1664
840.644	1677
845.952	1685
851.255	1680
856.552	1656
861.844	1659
867.13	1672
872.41	1637
877.686	1639
882.955	1623
888.219	1600
893.478	1597
898.731	1548
903.979	1541
909.221	1522
914.458	1536
919.69	1509
924.916	1504
930.136	1507
935.351	1513
940.561	1514
945.766	1508
950.965	1501
956.158	1482
961.347	1476
966.529	1463
971.707	1437
976.879	1413
982.046	1407
987.208	1400
992.364	1418
997.515	1413
1002.66	1407
1007.801	1433
1012.936	1458
1018.066	1455
1023.19	1462
1028.309	1475
1033.423	1472
1038.532	1478
1043.636	1452
1048.734	1441
1053.827	1429
1058.915	1412
1063.998	1409
1069.075	1428
1074.147	1417
1079.214	1402
1084.276	1419
1089.333	1443
1094.385	1458
1099.431	1455
1104.472	1448
1109.509	1446
1114.54	1430
1119.565	1420
1124.586	1395
1129.602	1386
1134.613	1376
1139.618	1384
1144.619	1396
1149.614	1390
1154.604	1403
1159.589	1421
1164.57	1422
1169.545	1420
1174.515	1406
1179.48	1429
1184.44	1406
1189.395	1382
1194.345	1382
1199.29	1384
1204.23	1386
1209.165	1382
1214.095	1407
1219.021	1413
1223.941	1413
1228.856	1440
1233.766	1443
1238.672	1451
1243.572	1428
1248.467	1437
1253.358	1412
1258.244	1393
1263.124	1373
1268	1344
1272.871	1341
1277.737	1336
1282.599	1335
1287.455	1343
1292.306	1343
1297.153	1346
1301.995	1366
1306.832	1371
1311.664	1369
1316.491	1378
1321.314	1374
1326.132	1360
1330.945	1362
1335.753	1339
1340.556	1321
1345.354	1319
1350.148	1301
1354.937	1296
1359.722	1264
1364.501	1269
1369.276	1248
1374.046	1236
1378.811	1234
1383.572	1246
1388.327	1231
1393.079	1251
1397.825	1218
1402.567	1222
1407.304	1211
1412.036	1223
1416.764	1202
1421.487	1206
1426.205	1207
1430.919	1237
1435.628	1239
1440.333	1255
1445.032	1268
1449.727	1277
1454.418	1275
1459.104	1278
1463.785	1271
1468.462	1246
1473.134	1238
1477.802	1245
1482.465	1220
1487.123	1217
1491.777	1234
1496.426	1227
1501.071	1235
1505.711	1238
1510.347	1249
1514.978	1266
1519.604	1282
1524.226	1285
1528.844	1276
1533.457	1276
1538.065	1279
1542.669	1282
1547.269	1279
1551.864	1264
1556.454	1264
1561.041	1277
1565.622	1276
1570.199	1305
1574.772	1328
1579.34	1350
1583.904	1363
1588.464	1379
1593.019	1416
1597.569	1424
1602.115	1420
1606.657	1451
1611.195	1441
1615.728	1470
1620.256	1467
1624.78	1492
1629.3	1512
1633.816	1533
1638.327	1536
1642.834	1546
1647.336	1580
1651.834	1563
1656.328	1550
1660.817	1572
1665.302	1542
1669.783	1514
1674.259	1470
1678.732	1442
1683.199	1406
1687.663	1354
1692.122	1310
1696.577	1277
1701.028	1204
1705.474	1160
1709.917	1137
1714.355	1119
1718.788	1129
1723.218	1106
1727.643	1076
1732.064	1080
1736.481	1052
1740.893	1040
1745.301	998
1749.705	969
1754.105	965
1758.501	959
1762.893	927
1767.28	929
1771.663	931
1776.042	909
1780.417	920
1784.787	922
1789.154	921
1793.516	921
1797.874	909
1802.228	891
1806.578	888
1810.924	878
1815.266	865
1819.603	850
1823.937	837
1828.266	838
1832.591	848
1836.913	829
1841.23	830
1845.543	831
1849.852	836
1854.156	840
1858.457	834
1862.754	841
1867.047	846
1871.335	852
1875.62	856
1879.9	856
1884.177	853
1888.449	859
1892.718	855
1896.982	856
1901.243	855
1905.499	841
1909.752	824
1914	835
1918.245	835
1922.485	836
1926.722	840
1930.954	860
1935.183	837
1939.408	840
1943.628	849
1947.845	849
1952.058	847
1956.267	841
1960.472	822
1964.673	809
1968.87	797
1973.063	802
1977.252	790
1981.438	796
1985.619	786
1989.797	803
1993.971	783
1998.14	798
2002.306	800
2006.469	805
2010.627	809
2014.781	801
2018.932	809
2023.078	809
2027.221	806
2031.36	794
2035.495	782
2039.627	791
2043.754	776
2047.878	783
2051.998	770
2056.114	775
2060.226	783
2064.334	780
2068.439	784
2072.54	786
2076.637	780
2080.73	786
2084.82	781
2088.906	797
2092.988	797
2097.066	779
2101.14	770
2105.211	791
2109.278	764
2113.342	774
2117.401	755
2121.457	759
2125.509	754
2129.558	753
2133.602	754
2137.643	761
2141.681	741
2145.714	738
2149.744	749
2153.77	737
2157.793	733
2161.812	725
2165.827	716
2169.838	707
2173.846	687
2177.851	690
2181.851	677
2185.848	668
2189.841	670
2193.831	663
2197.817	651
2201.799	652
2205.778	650
2209.753	652
2213.725	656
2217.693	649
2221.657	649
2225.618	644
2229.575	646
2233.529	641
2237.479	644
2241.425	625
2245.368	625
2249.307	613
2253.243	596
2257.175	606
2261.104	592
2265.029	581
2268.95	578
2272.868	566
2276.783	563
2280.694	562
2284.601	547
2288.505	543
2292.405	537
2296.302	541
2300.195	535
2304.085	529
2307.971	514
2311.854	515
2315.734	490
2319.609	489
2323.482	477
2327.351	466
2331.216	478
2335.078	478
2338.937	474
2342.792	466
2346.643	463
2350.492	461
2354.336	458
2358.178	475
2362.015	465
2365.85	459
2369.681	467
2373.508	468
2377.333	465
2381.153	471
2384.971	473
2388.785	478
2392.595	466
2396.402	466
2400.206	462
2404.007	466
2407.804	450
2411.597	449
2415.388	452
2419.174	445
2422.958	449
2426.738	448
2430.515	457
2434.289	453
2438.059	442
2441.825	435
2445.589	427
2449.349	431
2453.106	422
2456.859	427
2460.61	422
2464.356	422
2468.1	409
2471.84	412
2475.577	411
2479.311	413
2483.041	405
2486.768	416
2490.492	410
2494.213	414
2497.93	414
2501.644	414
2505.355	411
2509.062	417
2512.766	408
2516.467	412
2520.165	398
2523.859	402
2527.551	399
2531.239	395
2534.923	393
2538.605	387
2542.283	383
2545.958	375
2549.63	375
2553.299	377
2556.964	372
2560.626	379
2564.285	375
2567.941	366
2571.594	374
2575.243	366
2578.89	365
2582.533	363
2586.173	351
2589.809	348
2593.443	348
2597.073	345
2600.701	348
2604.325	350
2607.946	346
2611.564	345
2615.178	352
2618.79	354
2622.398	339
2626.004	335
2629.606	333
2633.205	328
2636.801	336
2640.394	323
2643.983	318
2647.57	318
2651.153	315
2654.734	314
2658.311	309
2661.885	305
2665.456	303
2669.025	301
2672.589	299
2676.151	294
2679.71	293
2683.266	302
2686.819	290
2690.368	292
2693.915	280
2697.458	282
2700.999	284
2704.536	270
2708.071	272
2711.602	268
2715.13	274
2718.656	277
2722.178	266
2725.697	273
2729.214	267
2732.727	280
2736.237	266
2739.744	277
2743.249	279
2746.75	271
2750.248	275
2753.743	270
2757.236	267
2760.725	264
2764.211	260
2767.695	260
2771.175	256
2774.652	251
2778.127	252
2781.598	252
2785.067	246
2788.532	258
2791.995	253
2795.455	253
2798.911	262
2802.365	249
2805.816	261
2809.264	255
2812.709	259
2816.151	256
2819.59	254
2823.026	258
2826.46	262
2829.89	260
2833.318	261
2836.742	260
2840.164	262
2843.583	253
2846.999	261
2850.412	276
2853.822	268
2857.229	268
2860.634	264
2864.035	270
2867.434	271
2870.83	277
2874.223	283
2877.613	283
2881	287
2884.385	278
2887.766	280
2891.145	279
2894.521	272
2897.894	288
2901.264	284
2904.631	281
2907.996	289
2911.358	285
2914.717	289
2918.073	294
2921.426	290
2924.777	306
2928.124	305
2931.469	313
2934.811	310
2938.15	313
2941.487	319
2944.821	330
2948.152	333
2951.48	328
2954.805	340
2958.128	334
2961.447	346
2964.765	349
2968.079	353
2971.39	360
2974.699	360
2978.005	367
2981.308	379
2984.609	395
2987.907	388
2991.202	400
2994.494	415
2997.784	431
3001.07	435
3004.355	447
3007.636	458
3010.915	461
3014.191	476
3017.464	482
3020.734	482
3024.002	488
3027.267	490
3030.53	502
3033.789	506
3037.046	511
3040.301	522
3043.552	540
3046.801	557
3050.048	573
3053.291	587
3056.532	600
3059.771	612
3063.006	632
3066.239	650
3069.469	660
3072.697	679
3075.922	707
3079.144	718
3082.364	731
3085.581	764
3088.795	773
3092.007	789
3095.216	800
3098.423	822
3101.627	840
3104.828	841
3108.026	868
3111.222	880
3114.416	898
3117.607	930
3120.795	938
3123.98	973
3127.163	989
3130.344	1006
3133.521	1035
3136.696	1041
3139.869	1074
3143.039	1096
3146.206	1105
3149.371	1128
3152.533	1128
3155.693	1148
3158.85	1138
3162.005	1134
3165.157	1140
3168.306	1150
3171.453	1164
3174.597	1155
3177.739	1170
3180.878	1191
3184.014	1175
3187.149	1173
3190.28	1173
3193.409	1189
3196.536	1200
3199.659	1200
3202.781	1205
3205.9	1198
3209.016	1206
3212.13	1194
3215.241	1201
3218.35	1190
3221.456	1169
3224.56	1179
3227.661	1153
3230.76	1136
3233.856	1118
3236.95	1116
3240.041	1097
3243.13	1096
3246.216	1087
3249.3	1086
3252.382	1077
3255.46	1079
3258.537	1063
3261.611	1068
3264.682	1054
3267.751	1059
3270.818	1042
3273.882	1053
3276.943	1036
3280.002	1030
3283.059	1019
3286.113	1018
3289.165	983
3292.214	992
3295.261	974
3298.306	960
3301.348	933
3304.387	932
3307.425	924
3310.459	901
3313.492	900
3316.521	883
3319.549	867
3322.574	875
3325.597	856
3328.617	855
3331.635	848
3334.65	837
3337.663	843
3340.674	832
3343.682	827
3346.688	836
3349.691	829
3352.692	822
3355.691	828
3358.687	794
3361.681	797
3364.673	793
3367.662	777
3370.649	773
3373.633	764
3376.615	749
3379.595	753
3382.572	735
3385.547	717
3388.52	715
3391.49	702
3394.458	701
3397.424	679
3400.387	678
3403.348	678
3406.307	666
3409.263	641
3412.217	648
3415.168	642
3418.118	641
3421.065	624
3424.009	619
3426.951	611
3429.891	588
3432.829	580
3435.764	567
3438.697	552
3441.628	551
3444.557	532
3447.483	512
3450.407	511
3453.328	493
3456.247	483
3459.164	470
3462.079	445
3464.991	441
3467.902	417
3470.809	421
3473.715	406
3476.618	393
3479.519	378
3482.418	371
3485.315	361
3488.209	348
3491.101	325
3493.99	329
3496.878	311
3499.763	313
3502.646	297
3505.527	284
3508.405	274
3511.281	258
3514.155	252
3517.027	234
3519.897	229
3522.764	211
3525.629	206
3528.492	193
3531.352	182
3534.211	161
3537.067	157
3539.921	152
3542.773	140
3545.622	129
3548.469	123
3551.315	114
3554.157	108
3556.998	96
3559.837	102
3562.673	92
3565.507	77
3568.339	75
3571.169	73
3573.996	64
3576.822	59
3579.645	56
3582.466	49
3585.285	45
3588.101	43
3590.916	33
3593.728	28
3596.538	25
3599.346	11
3602.152	9
3604.956	7
3607.757	1
3610.556	5
3613.354	-4
3616.149	-8
3618.942	-13
3621.732	-10
3624.521	-18
3627.307	-23
3630.092	-25
3632.874	-29
3635.654	-31
3638.432	-38
3641.208	-35
3643.982	-37
3646.753	-38
3649.523	-43
3652.29	-39
3655.055	-46
3657.818	-47
3660.579	-53
3663.338	-56
3666.095	-52
3668.849	-61
3671.602	-60
3674.352	-62
3677.101	-63
3679.847	-66
3682.591	-69
3685.333	-70
3688.073	-73
3690.811	-78
3693.547	-73
3696.281	-76
3699.013	-80
3701.742	-85
3704.47	-83
3707.195	-85
3709.919	-84
3712.64	-91
3715.359	-86
3718.076	-90
3720.792	-88
3723.505	-87
3726.216	-93
3728.925	-90
3731.632	-93
3734.336	-95
3737.039	-96
3739.74	-95
3742.439	-95
3745.136	-94
3747.83	-96
3750.523	-94
3753.213	-90
3755.902	-93
3758.589	-93
3761.273	-96
3763.956	-102
3766.636	-99
3769.315	-99
3771.991	-98
3774.665	-95
3777.338	-104
3780.008	-101
3782.677	-105
3785.343	-98
3788.007	-105
3790.67	-105
3793.33	-106
3795.989	-107
3798.645	-103
3801.299	-106
3803.952	-107
3806.602	-103
3809.251	-102
3811.897	-106
3814.542	-109
3817.184	-105
3819.825	-104
3822.463	-103
3825.1	-110
3827.735	-106
3830.367	-109
3832.998	-107
3835.627	-111
3838.253	-106
3840.878	-111
3843.501	-111
3846.122	-108
3848.741	-110
3851.358	-110
3853.973	-105
3856.586	-111
3859.197	-114
3861.806	-115
3864.414	-115
3867.019	-119
3869.622	-112
3872.224	-113
3874.823	-108
3877.421	-104
3880.016	-107
3882.61	-97
3885.202	-99
3887.792	-103
3890.38	-106
3892.966	-110
3895.55	-109
3898.132	-115
3900.713	-112
3903.291	-110
3905.868	-111
3908.442	-109
3911.015	-113
3913.586	-112
3916.155	-110
3918.722	-115
3921.287	-116
3923.85	-111
3926.411	-109
3928.971	-118
3931.528	-118
3934.084	-120
3936.638	-116
3939.19	-113
3941.74	-114
3944.288	-119
3946.834	-113
3949.378	-116
3951.921	-114
3954.462	-114
3957	-116
3959.537	-117
3962.072	-114
3964.606	-116
3967.137	-113
3969.667	-116
3972.194	-111
3974.72	-111
3977.244	-110
3979.766	-112
3982.286	-113
3984.805	-118
3987.321	-114
3989.836	-113
3992.349	-114
3994.86	-110
3997.369	-121
3999.877	-113
4002.382	-114
4004.886	-115
4007.388	-115
4009.888	-116
4012.386	-114
4014.883	-115
4017.377	-113
4019.87	-116
4022.361	-113
4024.85	-113
4027.338	-113
4029.823	-115
4032.307	-117
4034.789	-113
4037.269	-113
4039.747	-112
4042.224	-107
4044.699	-110
4047.172	-113
4049.643	-112
4052.112	-115
4054.58	-114
4057.046	-118
4059.51	-115
4061.972	-115
4064.432	-115
4066.891	-114
4069.348	-112
4071.803	-112
4074.256	-117
4076.708	-112
4079.158	-114
4081.606	-118
4084.052	-117
4086.497	-112
4088.939	-114
4091.38	-114
4093.819	-114
4096.257	-115
4098.693	-120
4101.127	-118
4103.559	-117
4105.989	-75
4108.418	-73
4110.845	-72
4113.27	-68
4115.694	-61
4118.115	-53
4120.535	-114
4122.954	-108
4125.37	-112
4127.785	-109
4130.198	-108
4132.609	-111
4135.019	-117
4137.427	-121
4139.833	-121
4142.237	-119
