Data from 1CFU3_B_RamanShift_1.txt Node
Date: Thu Jan 26 11:21:48 IST 2017
User: aro
Spectrometer: QEPB0276
Trigger mode: 0
Integration Time (sec): 5.000000E0
Scans to average: 1
Electric dark correction enabled: true
Nonlinearity correction enabled: false
Boxcar width: 0
XAxis mode: Raman Shifts
Number of Pixels in Spectrum: 1044
>>>>>Begin Spectral Data<<<<<
160.701	-31.62
166.742	-2.62
172.777	100.38
178.805	413.38
184.826	1163.38
190.841	2361.38
196.849	3659.38
202.85	4500.38
208.845	4655.38
214.833	4508.38
220.815	4316.38
226.789	4216.38
232.758	4091.38
238.719	3971.38
244.674	3813.38
250.623	3646.38
256.565	3473.38
262.5	3320.38
268.429	3196.38
274.351	3077.38
280.267	2932.38
286.176	2844.38
292.079	2737.38
297.975	2635.38
303.865	2564.38
309.748	2485.38
315.625	2437.38
321.495	2389.38
327.359	2375.38
333.217	2342.38
339.068	2326.38
344.912	2318.38
350.751	2298.38
356.583	2293.38
362.408	2284.38
368.227	2294.38
374.04	2311.38
379.847	2306.38
385.647	2341.38
391.44	2324.38
397.228	2349.38
403.009	2354.38
408.784	2352.38
414.553	2363.38
420.315	2364.38
426.071	2395.38
431.821	2368.38
437.565	2377.38
443.302	2398.38
449.033	2368.38
454.758	2339.38
460.477	2327.38
466.189	2331.38
471.896	2318.38
477.596	2302.38
483.29	2282.38
488.978	2285.38
494.66	2269.38
500.335	2236.38
506.005	2213.38
511.668	2137.38
517.325	2117.38
522.977	2098.38
528.622	2079.38
534.261	2067.38
539.894	2029.38
545.521	2002.38
551.141	1997.38
556.756	1985.38
562.365	1950.38
567.968	1979.38
573.565	1931.38
579.155	1921.38
584.74	1924.38
590.319	1883.38
595.892	1898.38
601.459	1888.38
607.02	1872.38
612.575	1861.38
618.124	1829.38
623.667	1827.38
629.204	1797.38
634.735	1794.38
640.261	1767.38
645.781	1747.38
651.294	1768.38
656.802	1748.38
662.304	1754.38
667.8	1742.38
673.29	1721.38
678.775	1713.38
684.254	1714.38
689.726	1702.38
695.193	1693.38
700.655	1679.38
706.11	1657.38
711.56	1646.38
717.004	1656.38
722.442	1631.38
727.874	1624.38
733.301	1619.38
738.722	1612.38
744.137	1606.38
749.547	1603.38
754.951	1592.38
760.349	1602.38
765.741	1589.38
771.128	1595.38
776.509	1595.38
781.885	1583.38
787.254	1593.38
792.618	1579.38
797.977	1587.38
803.33	1566.38
808.677	1561.38
814.019	1535.38
819.355	1511.38
824.686	1497.38
830.011	1483.38
835.33	1471.38
840.644	1474.38
845.952	1463.38
851.255	1466.38
856.552	1456.38
861.844	1456.38
867.13	1450.38
872.41	1428.38
877.686	1430.38
882.955	1402.38
888.219	1373.38
893.478	1356.38
898.731	1341.38
903.979	1318.38
909.221	1312.38
914.458	1307.38
919.69	1293.38
924.916	1288.38
930.136	1291.38
935.351	1280.38
940.561	1281.38
945.766	1280.38
950.965	1270.38
956.158	1249.38
961.347	1232.38
966.529	1231.38
971.707	1203.38
976.879	1194.38
982.046	1186.38
987.208	1175.38
992.364	1173.38
997.515	1180.38
1002.66	1188.38
1007.801	1194.38
1012.936	1228.38
1018.066	1227.38
1023.19	1247.38
1028.309	1232.38
1033.423	1224.38
1038.532	1239.38
1043.636	1212.38
1048.734	1228.38
1053.827	1193.38
1058.915	1183.38
1063.998	1188.38
1069.075	1171.38
1074.147	1173.38
1079.214	1190.38
1084.276	1205.38
1089.333	1211.38
1094.385	1203.38
1099.431	1209.38
1104.472	1213.38
1109.509	1222.38
1114.54	1198.38
1119.565	1192.38
1124.586	1154.38
1129.602	1148.38
1134.613	1144.38
1139.618	1136.38
1144.619	1150.38
1149.614	1151.38
1154.604	1149.38
1159.589	1162.38
1164.57	1167.38
1169.545	1178.38
1174.515	1162.38
1179.48	1166.38
1184.44	1163.38
1189.395	1152.38
1194.345	1147.38
1199.29	1133.38
1204.23	1148.38
1209.165	1154.38
1214.095	1168.38
1219.021	1171.38
1223.941	1184.38
1228.856	1182.38
1233.766	1198.38
1238.672	1192.38
1243.572	1173.38
1248.467	1182.38
1253.358	1175.38
1258.244	1151.38
1263.124	1137.38
1268	1120.38
1272.871	1121.38
1277.737	1105.38
1282.599	1098.38
1287.455	1106.38
1292.306	1108.38
1297.153	1110.38
1301.995	1110.38
1306.832	1125.38
1311.664	1134.38
1316.491	1128.38
1321.314	1121.38
1326.132	1121.38
1330.945	1107.38
1335.753	1079.38
1340.556	1066.38
1345.354	1079.38
1350.148	1078.38
1354.937	1058.38
1359.722	1051.38
1364.501	1024.38
1369.276	1026.38
1374.046	1005.38
1378.811	1022.38
1383.572	1008.38
1388.327	1018.38
1393.079	1016.38
1397.825	1001.38
1402.567	997.38
1407.304	1002.38
1412.036	979.38
1416.764	985.38
1421.487	979.38
1426.205	992.38
1430.919	1018.38
1435.628	1017.38
1440.333	1029.38
1445.032	1032.38
1449.727	1043.38
1454.418	1031.38
1459.104	1032.38
1463.785	1039.38
1468.462	1025.38
1473.134	1017.38
1477.802	1014.38
1482.465	1002.38
1487.123	1000.38
1491.777	1011.38
1496.426	1015.38
1501.071	1017.38
1505.711	1035.38
1510.347	1027.38
1514.978	1055.38
1519.604	1043.38
1524.226	1055.38
1528.844	1058.38
1533.457	1047.38
1538.065	1053.38
1542.669	1056.38
1547.269	1052.38
1551.864	1049.38
1556.454	1054.38
1561.041	1068.38
1565.622	1073.38
1570.199	1094.38
1574.772	1136.38
1579.34	1141.38
1583.904	1171.38
1588.464	1185.38
1593.019	1197.38
1597.569	1218.38
1602.115	1209.38
1606.657	1236.38
1611.195	1259.38
1615.728	1248.38
1620.256	1272.38
1624.78	1304.38
1629.3	1328.38
1633.816	1328.38
1638.327	1357.38
1642.834	1365.38
1647.336	1380.38
1651.834	1379.38
1656.328	1378.38
1660.817	1378.38
1665.302	1343.38
1669.783	1316.38
1674.259	1263.38
1678.732	1233.38
1683.199	1193.38
1687.663	1174.38
1692.122	1125.38
1696.577	1075.38
1701.028	1035.38
1705.474	974.38
1709.917	956.38
1714.355	946.38
1718.788	925.38
1723.218	914.38
1727.643	897.38
1732.064	879.38
1736.481	848.38
1740.893	832.38
1745.301	806.38
1749.705	786.38
1754.105	768.38
1758.501	752.38
1762.893	739.38
1767.28	727.38
1771.663	718.38
1776.042	729.38
1780.417	721.38
1784.787	723.38
1789.154	714.38
1793.516	712.38
1797.874	714.38
1802.228	710.38
1806.578	698.38
1810.924	692.38
1815.266	683.38
1819.603	668.38
1823.937	657.38
1828.266	664.38
1832.591	651.38
1836.913	651.38
1841.23	648.38
1845.543	645.38
1849.852	655.38
1854.156	653.38
1858.457	655.38
1862.754	657.38
1867.047	652.38
1871.335	663.38
1875.62	659.38
1879.9	658.38
1884.177	664.38
1888.449	670.38
1892.718	650.38
1896.982	655.38
1901.243	655.38
1905.499	642.38
1909.752	646.38
1914	642.38
1918.245	645.38
1922.485	652.38
1926.722	649.38
1930.954	667.38
1935.183	657.38
1939.408	666.38
1943.628	654.38
1947.845	669.38
1952.058	663.38
1956.267	661.38
1960.472	646.38
1964.673	646.38
1968.87	632.38
1973.063	617.38
1977.252	622.38
1981.438	626.38
1985.619	624.38
1989.797	630.38
1993.971	618.38
1998.14	636.38
2002.306	630.38
2006.469	631.38
2010.627	633.38
2014.781	640.38
2018.932	648.38
2023.078	638.38
2027.221	629.38
2031.36	632.38
2035.495	612.38
2039.627	617.38
2043.754	615.38
2047.878	620.38
2051.998	616.38
2056.114	619.38
2060.226	610.38
2064.334	621.38
2068.439	625.38
2072.54	627.38
2076.637	621.38
2080.73	624.38
2084.82	634.38
2088.906	628.38
2092.988	644.38
2097.066	628.38
2101.14	624.38
2105.211	624.38
2109.278	622.38
2113.342	614.38
2117.401	611.38
2121.457	608.38
2125.509	607.38
2129.558	615.38
2133.602	582.38
2137.643	598.38
2141.681	606.38
2145.714	588.38
2149.744	596.38
2153.77	582.38
2157.793	586.38
2161.812	574.38
2165.827	579.38
2169.838	563.38
2173.846	558.38
2177.851	541.38
2181.851	532.38
2185.848	534.38
2189.841	529.38
2193.831	520.38
2197.817	522.38
2201.799	518.38
2205.778	524.38
2209.753	516.38
2213.725	502.38
2217.693	513.38
2221.657	505.38
2225.618	504.38
2229.575	508.38
2233.529	494.38
2237.479	499.38
2241.425	496.38
2245.368	489.38
2249.307	485.38
2253.243	476.38
2257.175	464.38
2261.104	452.38
2265.029	448.38
2268.95	447.38
2272.868	436.38
2276.783	439.38
2280.694	428.38
2284.601	423.38
2288.505	426.38
2292.405	412.38
2296.302	408.38
2300.195	396.38
2304.085	400.38
2307.971	403.38
2311.854	395.38
2315.734	389.38
2319.609	377.38
2323.482	363.38
2327.351	357.38
2331.216	364.38
2335.078	361.38
2338.937	359.38
2342.792	366.38
2346.643	356.38
2350.492	363.38
2354.336	351.38
2358.178	351.38
2362.015	358.38
2365.85	354.38
2369.681	356.38
2373.508	361.38
2377.333	356.38
2381.153	346.38
2384.971	365.38
2388.785	349.38
2392.595	347.38
2396.402	345.38
2400.206	347.38
2404.007	348.38
2407.804	338.38
2411.597	341.38
2415.388	340.38
2419.174	334.38
2422.958	330.38
2426.738	337.38
2430.515	332.38
2434.289	328.38
2438.059	321.38
2441.825	332.38
2445.589	334.38
2449.349	318.38
2453.106	310.38
2456.859	316.38
2460.61	321.38
2464.356	308.38
2468.1	303.38
2471.84	309.38
2475.577	318.38
2479.311	303.38
2483.041	311.38
2486.768	307.38
2490.492	306.38
2494.213	310.38
2497.93	302.38
2501.644	308.38
2505.355	307.38
2509.062	302.38
2512.766	313.38
2516.467	296.38
2520.165	305.38
2523.859	299.38
2527.551	304.38
2531.239	289.38
2534.923	291.38
2538.605	285.38
2542.283	282.38
2545.958	279.38
2549.63	283.38
2553.299	275.38
2556.964	271.38
2560.626	276.38
2564.285	267.38
2567.941	279.38
2571.594	277.38
2575.243	261.38
2578.89	265.38
2582.533	274.38
2586.173	253.38
2589.809	258.38
2593.443	255.38
2597.073	251.38
2600.701	257.38
2604.325	244.38
2607.946	259.38
2611.564	257.38
2615.178	257.38
2618.79	256.38
2622.398	247.38
2626.004	257.38
2629.606	238.38
2633.205	243.38
2636.801	237.38
2640.394	237.38
2643.983	235.38
2647.57	241.38
2651.153	237.38
2654.734	226.38
2658.311	229.38
2661.885	227.38
2665.456	218.38
2669.025	222.38
2672.589	216.38
2676.151	215.38
2679.71	215.38
2683.266	218.38
2686.819	210.38
2690.368	201.38
2693.915	210.38
2697.458	207.38
2700.999	207.38
2704.536	200.38
2708.071	199.38
2711.602	194.38
2715.13	197.38
2718.656	192.38
2722.178	193.38
2725.697	193.38
2729.214	192.38
2732.727	205.38
2736.237	199.38
2739.744	201.38
2743.249	206.38
2746.75	200.38
2750.248	196.38
2753.743	211.38
2757.236	195.38
2760.725	197.38
2764.211	195.38
2767.695	186.38
2771.175	183.38
2774.652	188.38
2778.127	193.38
2781.598	192.38
2785.067	184.38
2788.532	188.38
2791.995	186.38
2795.455	195.38
2798.911	191.38
2802.365	192.38
2805.816	194.38
2809.264	191.38
2812.709	198.38
2816.151	196.38
2819.59	192.38
2823.026	195.38
2826.46	194.38
2829.89	207.38
2833.318	200.38
2836.742	194.38
2840.164	205.38
2843.583	199.38
2846.999	203.38
2850.412	210.38
2853.822	219.38
2857.229	216.38
2860.634	222.38
2864.035	218.38
2867.434	221.38
2870.83	222.38
2874.223	222.38
2877.613	226.38
2881	232.38
2884.385	234.38
2887.766	237.38
2891.145	231.38
2894.521	232.38
2897.894	235.38
2901.264	230.38
2904.631	239.38
2907.996	244.38
2911.358	237.38
2914.717	250.38
2918.073	249.38
2921.426	259.38
2924.777	263.38
2928.124	267.38
2931.469	263.38
2934.811	272.38
2938.15	274.38
2941.487	270.38
2944.821	285.38
2948.152	289.38
2951.48	292.38
2954.805	303.38
2958.128	298.38
2961.447	306.38
2964.765	320.38
2968.079	314.38
2971.39	326.38
2974.699	333.38
2978.005	337.38
2981.308	352.38
2984.609	352.38
2987.907	367.38
2991.202	386.38
2994.494	380.38
2997.784	401.38
3001.07	425.38
3004.355	420.38
3007.636	438.38
3010.915	436.38
3014.191	450.38
3017.464	454.38
3020.734	465.38
3024.002	468.38
3027.267	474.38
3030.53	493.38
3033.789	489.38
3037.046	498.38
3040.301	518.38
3043.552	524.38
3046.801	548.38
3050.048	559.38
3053.291	569.38
3056.532	582.38
3059.771	604.38
3063.006	629.38
3066.239	641.38
3069.469	657.38
3072.697	681.38
3075.922	702.38
3079.144	719.38
3082.364	735.38
3085.581	744.38
3088.795	774.38
3092.007	795.38
3095.216	803.38
3098.423	833.38
3101.627	839.38
3104.828	870.38
3108.026	884.38
3111.222	906.38
3114.416	931.38
3117.607	936.38
3120.795	955.38
3123.98	991.38
3127.163	1005.38
3130.344	1038.38
3133.521	1056.38
3136.696	1088.38
3139.869	1089.38
3143.039	1128.38
3146.206	1131.38
3149.371	1142.38
3152.533	1150.38
3155.693	1171.38
3158.85	1179.38
3162.005	1187.38
3165.157	1187.38
3168.306	1191.38
3171.453	1194.38
3174.597	1202.38
3177.739	1201.38
3180.878	1222.38
3184.014	1220.38
3187.149	1217.38
3190.28	1216.38
3193.409	1232.38
3196.536	1254.38
3199.659	1234.38
3202.781	1243.38
3205.9	1235.38
3209.016	1249.38
3212.13	1242.38
3215.241	1233.38
3218.35	1219.38
3221.456	1214.38
3224.56	1212.38
3227.661	1186.38
3230.76	1184.38
3233.856	1164.38
3236.95	1154.38
3240.041	1152.38
3243.13	1137.38
3246.216	1139.38
3249.3	1131.38
3252.382	1111.38
3255.46	1134.38
3258.537	1105.38
3261.611	1105.38
3264.682	1107.38
3267.751	1101.38
3270.818	1095.38
3273.882	1093.38
3276.943	1073.38
3280.002	1068.38
3283.059	1062.38
3286.113	1039.38
3289.165	1035.38
3292.214	1019.38
3295.261	1012.38
3298.306	1000.38
3301.348	977.38
3304.387	960.38
3307.425	956.38
3310.459	948.38
3313.492	936.38
3316.521	919.38
3319.549	907.38
3322.574	901.38
3325.597	898.38
3328.617	885.38
3331.635	883.38
3334.65	883.38
3337.663	878.38
3340.674	876.38
3343.682	874.38
3346.688	852.38
3349.691	859.38
3352.692	840.38
3355.691	844.38
3358.687	852.38
3361.681	835.38
3364.673	820.38
3367.662	816.38
3370.649	807.38
3373.633	792.38
3376.615	787.38
3379.595	773.38
3382.572	760.38
3385.547	757.38
3388.52	756.38
3391.49	734.38
3394.458	728.38
3397.424	719.38
3400.387	700.38
3403.348	689.38
3406.307	685.38
3409.263	685.38
3412.217	666.38
3415.168	679.38
3418.118	663.38
3421.065	653.38
3424.009	646.38
3426.951	625.38
3429.891	621.38
3432.829	624.38
3435.764	600.38
3438.697	590.38
3441.628	570.38
3444.557	560.38
3447.483	542.38
3450.407	538.38
3453.328	510.38
3456.247	495.38
3459.164	487.38
3462.079	456.38
3464.991	463.38
3467.902	444.38
3470.809	432.38
3473.715	410.38
3476.618	417.38
3479.519	392.38
3482.418	388.38
3485.315	376.38
3488.209	363.38
3491.101	343.38
3493.99	338.38
3496.878	324.38
3499.763	319.38
3502.646	305.38
3505.527	294.38
3508.405	286.38
3511.281	270.38
3514.155	261.38
3517.027	250.38
3519.897	244.38
3522.764	225.38
3525.629	218.38
3528.492	201.38
3531.352	190.38
3534.211	179.38
3537.067	163.38
3539.921	157.38
3542.773	155.38
3545.622	138.38
3548.469	131.38
3551.315	120.38
3554.157	118.38
3556.998	107.38
3559.837	101.38
3562.673	100.38
3565.507	86.38
3568.339	84.38
3571.169	71.38
3573.996	72.38
3576.822	65.38
3579.645	56.38
3582.466	50.38
3585.285	48.38
3588.101	43.38
3590.916	34.38
3593.728	35.38
3596.538	18.38
3599.346	21.38
3602.152	13.38
3604.956	5.38
3607.757	8.38
3610.556	2.38
3613.354	3.38
3616.149	-6.62
3618.942	-10.62
3621.732	-9.62
3624.521	-17.62
3627.307	-17.62
3630.092	-20.62
3632.874	-25.62
3635.654	-30.62
3638.432	-29.62
3641.208	-28.62
3643.982	-36.62
3646.753	-36.62
3649.523	-37.62
3652.29	-36.62
3655.055	-48.62
3657.818	-45.62
3660.579	-44.62
3663.338	-51.62
3666.095	-55.62
3668.849	-59.62
3671.602	-62.62
3674.352	-61.62
3677.101	-67.62
3679.847	-68.62
3682.591	-72.62
3685.333	-74.62
3688.073	-73.62
3690.811	-74.62
3693.547	-75.62
3696.281	-78.62
3699.013	-82.62
3701.742	-83.62
3704.47	-80.62
3707.195	-83.62
3709.919	-81.62
3712.64	-87.62
3715.359	-86.62
3718.076	-87.62
3720.792	-86.62
3723.505	-85.62
3726.216	-89.62
3728.925	-88.62
3731.632	-91.62
3734.336	-94.62
3737.039	-94.62
3739.74	-95.62
3742.439	-99.62
3745.136	-93.62
3747.83	-95.62
3750.523	-95.62
3753.213	-90.62
3755.902	-93.62
3758.589	-91.62
3761.273	-94.62
3763.956	-102.62
3766.636	-100.62
3769.315	-101.62
3771.991	-101.62
3774.665	-103.62
3777.338	-108.62
3780.008	-100.62
3782.677	-104.62
3785.343	-103.62
3788.007	-104.62
3790.67	-102.62
3793.33	-104.62
3795.989	-100.62
3798.645	-104.62
3801.299	-104.62
3803.952	-102.62
3806.602	-102.62
3809.251	-101.62
3811.897	-108.62
3814.542	-107.62
3817.184	-102.62
3819.825	-103.62
3822.463	-105.62
3825.1	-107.62
3827.735	-104.62
3830.367	-105.62
3832.998	-105.62
3835.627	-111.62
3838.253	-106.62
3840.878	-109.62
3843.501	-108.62
3846.122	-109.62
3848.741	-106.62
3851.358	-111.62
3853.973	-102.62
3856.586	-107.62
3859.197	-112.62
3861.806	-111.62
3864.414	-112.62
3867.019	-114.62
3869.622	-110.62
3872.224	-111.62
3874.823	-109.62
3877.421	-106.62
3880.016	-105.62
3882.61	-100.62
3885.202	-96.62
3887.792	-101.62
3890.38	-109.62
3892.966	-109.62
3895.55	-110.62
3898.132	-116.62
3900.713	-115.62
3903.291	-110.62
3905.868	-110.62
3908.442	-109.62
3911.015	-111.62
3913.586	-113.62
3916.155	-108.62
3918.722	-112.62
3921.287	-111.62
3923.85	-114.62
3926.411	-109.62
3928.971	-115.62
3931.528	-115.62
3934.084	-117.62
3936.638	-115.62
3939.19	-112.62
3941.74	-111.62
3944.288	-114.62
3946.834	-112.62
3949.378	-118.62
3951.921	-117.62
3954.462	-114.62
3957	-118.62
3959.537	-116.62
3962.072	-119.62
3964.606	-116.62
3967.137	-113.62
3969.667	-117.62
3972.194	-110.62
3974.72	-115.62
3977.244	-110.62
3979.766	-115.62
3982.286	-111.62
3984.805	-115.62
3987.321	-112.62
3989.836	-113.62
3992.349	-113.62
3994.86	-110.62
3997.369	-117.62
3999.877	-112.62
4002.382	-107.62
4004.886	-109.62
4007.388	-110.62
4009.888	-113.62
4012.386	-112.62
4014.883	-109.62
4017.377	-112.62
4019.87	-114.62
4022.361	-111.62
4024.85	-110.62
4027.338	-114.62
4029.823	-110.62
4032.307	-114.62
4034.789	-116.62
4037.269	-114.62
4039.747	-114.62
4042.224	-109.62
4044.699	-113.62
4047.172	-117.62
4049.643	-115.62
4052.112	-116.62
4054.58	-116.62
4057.046	-119.62
4059.51	-113.62
4061.972	-117.62
4064.432	-115.62
4066.891	-113.62
4069.348	-110.62
4071.803	-108.62
4074.256	-113.62
4076.708	-113.62
4079.158	-112.62
4081.606	-109.62
4084.052	-113.62
4086.497	-110.62
4088.939	-113.62
4091.38	-114.62
4093.819	-116.62
4096.257	-120.62
4098.693	-120.62
4101.127	-119.62
4103.559	-117.62
4105.989	-75.62
4108.418	-73.62
4110.845	-62.62
4113.27	-64.62
4115.694	-58.62
4118.115	-51.62
4120.535	-113.62
4122.954	-108.62
4125.37	-111.62
4127.785	-109.62
4130.198	-115.62
4132.609	-110.62
4135.019	-115.62
4137.427	-120.62
4139.833	-122.62
4142.237	-120.62
