Data from 2018-2-8_conc=3_n=1_RamanShift_04.txt Node
Date: Mon Mar 12 14:29:58 IST 2018
User: aro
Spectrometer: QEPB0276
Trigger mode: 0
Integration Time (sec): 3.000000E1
Scans to average: 1
Electric dark correction enabled: true
Nonlinearity correction enabled: false
Boxcar width: 0
XAxis mode: Raman Shifts
Number of Pixels in Spectrum: 1044
>>>>>Begin Spectral Data<<<<<
160.701	9
166.742	41
172.777	124
178.805	406
184.826	1107
190.841	2399
196.849	3994
202.85	5264
208.845	5752
214.833	5717
220.815	5668
226.789	5651
232.758	5644
238.719	5625
244.674	5573
250.623	5502
256.565	5459
262.5	5369
268.429	5297
274.351	5261
280.267	5196
286.176	5171
292.079	5144
297.975	5089
303.865	5116
309.748	5066
315.625	5055
321.495	5062
327.359	5043
333.217	5062
339.068	5025
344.912	5070
350.751	5058
356.583	5074
362.408	5104
368.227	5089
374.04	5100
379.847	5132
385.647	5118
391.44	5163
397.228	5171
403.009	5174
408.784	5212
414.553	5242
420.315	5245
426.071	5243
431.821	5244
437.565	5271
443.302	5234
449.033	5209
454.758	5204
460.477	5178
466.189	5160
471.896	5115
477.596	5102
483.29	5083
488.978	5046
494.66	5051
500.335	4990
506.005	4888
511.668	4724
517.325	4600
522.977	4477
528.622	4434
534.261	4361
539.894	4311
545.521	4270
551.141	4282
556.756	4248
562.365	4205
567.968	4203
573.565	4157
579.155	4135
584.74	4139
590.319	4107
595.892	4092
601.459	4110
607.02	4072
612.575	4044
618.124	4028
623.667	3956
629.204	3948
634.735	3937
640.261	3894
645.781	3860
651.294	3843
656.802	3871
662.304	3843
667.8	3831
673.29	3842
678.775	3819
684.254	3809
689.726	3796
695.193	3778
700.655	3786
706.11	3729
711.56	3722
717.004	3683
722.442	3700
727.874	3649
733.301	3616
738.722	3650
744.137	3617
749.547	3627
754.951	3644
760.349	3603
765.741	3622
771.128	3648
776.509	3661
781.885	3677
787.254	3672
792.618	3676
797.977	3647
803.33	3632
808.677	3596
814.019	3575
819.355	3555
824.686	3523
830.011	3498
835.33	3489
840.644	3494
845.952	3502
851.255	3463
856.552	3482
861.844	3436
867.13	3435
872.41	3431
877.686	3402
882.955	3380
888.219	3346
893.478	3310
898.731	3254
903.979	3229
909.221	3197
914.458	3166
919.69	3178
924.916	3196
930.136	3184
935.351	3191
940.561	3200
945.766	3210
950.965	3177
956.158	3172
961.347	3123
966.529	3078
971.707	3037
976.879	3009
982.046	2962
987.208	2968
992.364	2963
997.515	2969
1002.66	3020
1007.801	3016
1012.936	3031
1018.066	3041
1023.19	3055
1028.309	3042
1033.423	3054
1038.532	3039
1043.636	3017
1048.734	2961
1053.827	2931
1058.915	2894
1063.998	2893
1069.075	2892
1074.147	2856
1079.214	2888
1084.276	2890
1089.333	2905
1094.385	2935
1099.431	2917
1104.472	2922
1109.509	2888
1114.54	2862
1119.565	2830
1124.586	2773
1129.602	2745
1134.613	2717
1139.618	2713
1144.619	2729
1149.614	2716
1154.604	2700
1159.589	2715
1164.57	2708
1169.545	2745
1174.515	2730
1179.48	2730
1184.44	2676
1189.395	2669
1194.345	2659
1199.29	2634
1204.23	2654
1209.165	2645
1214.095	2656
1219.021	2668
1223.941	2674
1228.856	2714
1233.766	2677
1238.672	2711
1243.572	2692
1248.467	2656
1253.358	2632
1258.244	2628
1263.124	2586
1268	2531
1272.871	2507
1277.737	2480
1282.599	2476
1287.455	2474
1292.306	2485
1297.153	2486
1301.995	2499
1306.832	2517
1311.664	2553
1316.491	2528
1321.314	2513
1326.132	2520
1330.945	2487
1335.753	2444
1340.556	2399
1345.354	2368
1350.148	2313
1354.937	2300
1359.722	2254
1364.501	2228
1369.276	2166
1374.046	2149
1378.811	2119
1383.572	2111
1388.327	2101
1393.079	2111
1397.825	2103
1402.567	2109
1407.304	2112
1412.036	2118
1416.764	2106
1421.487	2119
1426.205	2137
1430.919	2121
1435.628	2127
1440.333	2152
1445.032	2181
1449.727	2206
1454.418	2229
1459.104	2190
1463.785	2160
1468.462	2131
1473.134	2104
1477.802	2051
1482.465	1982
1487.123	1961
1491.777	1925
1496.426	1912
1501.071	1914
1505.711	1881
1510.347	1888
1514.978	1861
1519.604	1877
1524.226	1881
1528.844	1848
1533.457	1840
1538.065	1828
1542.669	1810
1547.269	1858
1551.864	1927
1556.454	1885
1561.041	1869
1565.622	1889
1570.199	1885
1574.772	1911
1579.34	1939
1583.904	1942
1588.464	1963
1593.019	1968
1597.569	1988
1602.115	1999
1606.657	1968
1611.195	1972
1615.728	1954
1620.256	1957
1624.78	1959
1629.3	1959
1633.816	1965
1638.327	1980
1642.834	1975
1647.336	1982
1651.834	1982
1656.328	1993
1660.817	1973
1665.302	1993
1669.783	1914
1674.259	1888
1678.732	1839
1683.199	1791
1687.663	1751
1692.122	1694
1696.577	1613
1701.028	1543
1705.474	1492
1709.917	1455
1714.355	1414
1718.788	1410
1723.218	1408
1727.643	1413
1732.064	1403
1736.481	1388
1740.893	1356
1745.301	1323
1749.705	1301
1754.105	1288
1758.501	1267
1762.893	1243
1767.28	1222
1771.663	1203
1776.042	1195
1780.417	1179
1784.787	1182
1789.154	1169
1793.516	1164
1797.874	1140
1802.228	1129
1806.578	1113
1810.924	1114
1815.266	1093
1819.603	1101
1823.937	1106
1828.266	1089
1832.591	1089
1836.913	1095
1841.23	1082
1845.543	1080
1849.852	1084
1854.156	1079
1858.457	1106
1862.754	1084
1867.047	1095
1871.335	1088
1875.62	1081
1879.9	1082
1884.177	1079
1888.449	1070
1892.718	1063
1896.982	1048
1901.243	1042
1905.499	1004
1909.752	994
1914	978
1918.245	979
1922.485	959
1926.722	980
1930.954	945
1935.183	944
1939.408	948
1943.628	929
1947.845	926
1952.058	922
1956.267	932
1960.472	921
1964.673	895
1968.87	885
1973.063	884
1977.252	882
1981.438	894
1985.619	868
1989.797	886
1993.971	878
1998.14	881
2002.306	888
2006.469	890
2010.627	895
2014.781	904
2018.932	881
2023.078	891
2027.221	877
2031.36	878
2035.495	871
2039.627	839
2043.754	826
2047.878	834
2051.998	819
2056.114	825
2060.226	814
2064.334	824
2068.439	817
2072.54	823
2076.637	819
2080.73	816
2084.82	808
2088.906	794
2092.988	792
2097.066	785
2101.14	775
2105.211	752
2109.278	745
2113.342	732
2117.401	724
2121.457	722
2125.509	729
2129.558	724
2133.602	727
2137.643	734
2141.681	726
2145.714	723
2149.744	722
2153.77	712
2157.793	704
2161.812	720
2165.827	698
2169.838	695
2173.846	686
2177.851	674
2181.851	659
2185.848	667
2189.841	661
2193.831	652
2197.817	642
2201.799	631
2205.778	648
2209.753	634
2213.725	632
2217.693	632
2221.657	619
2225.618	630
2229.575	643
2233.529	612
2237.479	610
2241.425	611
2245.368	584
2249.307	589
2253.243	584
2257.175	576
2261.104	570
2265.029	559
2268.95	555
2272.868	550
2276.783	540
2280.694	524
2284.601	529
2288.505	526
2292.405	515
2296.302	507
2300.195	496
2304.085	501
2307.971	486
2311.854	476
2315.734	471
2319.609	463
2323.482	463
2327.351	463
2331.216	479
2335.078	485
2338.937	463
2342.792	451
2346.643	459
2350.492	447
2354.336	458
2358.178	446
2362.015	450
2365.85	457
2369.681	457
2373.508	450
2377.333	447
2381.153	456
2384.971	461
2388.785	442
2392.595	457
2396.402	451
2400.206	437
2404.007	434
2407.804	431
2411.597	430
2415.388	437
2419.174	430
2422.958	419
2426.738	423
2430.515	411
2434.289	416
2438.059	418
2441.825	408
2445.589	411
2449.349	400
2453.106	391
2456.859	389
2460.61	381
2464.356	382
2468.1	371
2471.84	364
2475.577	369
2479.311	359
2483.041	371
2486.768	359
2490.492	365
2494.213	363
2497.93	348
2501.644	346
2505.355	339
2509.062	343
2512.766	348
2516.467	343
2520.165	330
2523.859	326
2527.551	324
2531.239	312
2534.923	306
2538.605	310
2542.283	308
2545.958	310
2549.63	309
2553.299	303
2556.964	306
2560.626	287
2564.285	280
2567.941	285
2571.594	285
2575.243	277
2578.89	279
2582.533	268
2586.173	272
2589.809	259
2593.443	257
2597.073	260
2600.701	259
2604.325	260
2607.946	251
2611.564	256
2615.178	256
2618.79	251
2622.398	249
2626.004	244
2629.606	241
2633.205	238
2636.801	251
2640.394	233
2643.983	235
2647.57	228
2651.153	232
2654.734	226
2658.311	221
2661.885	218
2665.456	222
2669.025	221
2672.589	216
2676.151	215
2679.71	214
2683.266	207
2686.819	206
2690.368	203
2693.915	186
2697.458	195
2700.999	193
2704.536	185
2708.071	179
2711.602	180
2715.13	183
2718.656	178
2722.178	171
2725.697	173
2729.214	164
2732.727	180
2736.237	172
2739.744	155
2743.249	162
2746.75	165
2750.248	154
2753.743	157
2757.236	150
2760.725	148
2764.211	141
2767.695	139
2771.175	131
2774.652	131
2778.127	139
2781.598	138
2785.067	145
2788.532	136
2791.995	133
2795.455	136
2798.911	132
2802.365	145
2805.816	146
2809.264	130
2812.709	147
2816.151	148
2819.59	141
2823.026	140
2826.46	133
2829.89	140
2833.318	136
2836.742	139
2840.164	145
2843.583	142
2846.999	142
2850.412	143
2853.822	142
2857.229	145
2860.634	154
2864.035	164
2867.434	161
2870.83	168
2874.223	176
2877.613	173
2881	192
2884.385	182
2887.766	172
2891.145	184
2894.521	184
2897.894	182
2901.264	184
2904.631	187
2907.996	202
2911.358	193
2914.717	189
2918.073	210
2921.426	215
2924.777	206
2928.124	211
2931.469	224
2934.811	217
2938.15	229
2941.487	237
2944.821	234
2948.152	237
2951.48	233
2954.805	237
2958.128	236
2961.447	224
2964.765	245
2968.079	238
2971.39	221
2974.699	221
2978.005	232
2981.308	229
2984.609	238
2987.907	227
2991.202	241
2994.494	237
2997.784	240
3001.07	250
3004.355	258
3007.636	256
3010.915	255
3014.191	260
3017.464	264
3020.734	260
3024.002	265
3027.267	273
3030.53	279
3033.789	290
3037.046	292
3040.301	293
3043.552	323
3046.801	313
3050.048	334
3053.291	343
3056.532	351
3059.771	363
3063.006	373
3066.239	390
3069.469	391
3072.697	395
3075.922	414
3079.144	427
3082.364	426
3085.581	458
3088.795	460
3092.007	458
3095.216	460
3098.423	483
3101.627	496
3104.828	494
3108.026	503
3111.222	521
3114.416	539
3117.607	552
3120.795	554
3123.98	552
3127.163	578
3130.344	600
3133.521	607
3136.696	628
3139.869	625
3143.039	646
3146.206	647
3149.371	665
3152.533	667
3155.693	673
3158.85	676
3162.005	679
3165.157	682
3168.306	692
3171.453	690
3174.597	690
3177.739	707
3180.878	697
3184.014	715
3187.149	709
3190.28	710
3193.409	717
3196.536	718
3199.659	714
3202.781	719
3205.9	736
3209.016	726
3212.13	727
3215.241	733
3218.35	720
3221.456	710
3224.56	689
3227.661	685
3230.76	676
3233.856	665
3236.95	672
3240.041	654
3243.13	640
3246.216	638
3249.3	623
3252.382	630
3255.46	612
3258.537	608
3261.611	599
3264.682	603
3267.751	596
3270.818	588
3273.882	592
3276.943	580
3280.002	580
3283.059	573
3286.113	566
3289.165	572
3292.214	561
3295.261	547
3298.306	554
3301.348	541
3304.387	535
3307.425	534
3310.459	541
3313.492	513
3316.521	518
3319.549	504
3322.574	498
3325.597	495
3328.617	496
3331.635	495
3334.65	500
3337.663	473
3340.674	502
3343.682	492
3346.688	480
3349.691	489
3352.692	484
3355.691	485
3358.687	478
3361.681	483
3364.673	468
3367.662	463
3370.649	458
3373.633	437
3376.615	431
3379.595	432
3382.572	437
3385.547	425
3388.52	420
3391.49	415
3394.458	406
3397.424	397
3400.387	389
3403.348	383
3406.307	373
3409.263	380
3412.217	373
3415.168	362
3418.118	354
3421.065	348
3424.009	355
3426.951	340
3429.891	334
3432.829	321
3435.764	321
3438.697	299
3441.628	292
3444.557	298
3447.483	279
3450.407	270
3453.328	256
3456.247	252
3459.164	240
3462.079	231
3464.991	218
3467.902	203
3470.809	207
3473.715	194
3476.618	188
3479.519	174
3482.418	172
3485.315	154
3488.209	153
3491.101	150
3493.99	154
3496.878	147
3499.763	129
3502.646	119
3505.527	109
3508.405	112
3511.281	92
3514.155	86
3517.027	96
3519.897	78
3522.764	72
3525.629	66
3528.492	57
3531.352	52
3534.211	40
3537.067	33
3539.921	33
3542.773	32
3545.622	19
3548.469	13
3551.315	8
3554.157	7
3556.998	-2
3559.837	-8
3562.673	-13
3565.507	-5
3568.339	-16
3571.169	-30
3573.996	-23
3576.822	-29
3579.645	-31
3582.466	-27
3585.285	-43
3588.101	-36
3590.916	-49
3593.728	-52
3596.538	-55
3599.346	-56
3602.152	-51
3604.956	-56
3607.757	-53
3610.556	-65
3613.354	-68
3616.149	-77
3618.942	-78
3621.732	-75
3624.521	-77
3627.307	-80
3630.092	-74
3632.874	-74
3635.654	-84
3638.432	-84
3641.208	-88
3643.982	-92
3646.753	-92
3649.523	-95
3652.29	-92
3655.055	-93
3657.818	-93
3660.579	-96
3663.338	-98
3666.095	-101
3668.849	-96
3671.602	-97
3674.352	-106
3677.101	-114
3679.847	-115
3682.591	-112
3685.333	-107
3688.073	-114
3690.811	-111
3693.547	-120
3696.281	-117
3699.013	-119
3701.742	-119
3704.47	-119
3707.195	-114
3709.919	-115
3712.64	-117
3715.359	-122
3718.076	-119
3720.792	-118
3723.505	-127
3726.216	-119
3728.925	-123
3731.632	-123
3734.336	-135
3737.039	-123
3739.74	-123
3742.439	-132
3745.136	-122
3747.83	-136
3750.523	-130
3753.213	-129
3755.902	-124
3758.589	-131
3761.273	-126
3763.956	-125
3766.636	-134
3769.315	-126
3771.991	-127
3774.665	-134
3777.338	-125
3780.008	-122
3782.677	-130
3785.343	-131
3788.007	-131
3790.67	-129
3793.33	-133
3795.989	-133
3798.645	-131
3801.299	-125
3803.952	-135
3806.602	-126
3809.251	-140
3811.897	-138
3814.542	-138
3817.184	-129
3819.825	-134
3822.463	-132
3825.1	-134
3827.735	-133
3830.367	-134
3832.998	-136
3835.627	-133
3838.253	-135
3840.878	-128
3843.501	-128
3846.122	-131
3848.741	-142
3851.358	-128
3853.973	-142
3856.586	-134
3859.197	-144
3861.806	-132
3864.414	-137
3867.019	-133
3869.622	-131
3872.224	-124
3874.823	-116
3877.421	-113
3880.016	-81
3882.61	-68
3885.202	-65
3887.792	-82
3890.38	-101
3892.966	-120
3895.55	-131
3898.132	-132
3900.713	-135
3903.291	-139
3905.868	-138
3908.442	-132
3911.015	-138
3913.586	-136
3916.155	-139
3918.722	-140
3921.287	-137
3923.85	-141
3926.411	-138
3928.971	-133
3931.528	-133
3934.084	-130
3936.638	-134
3939.19	-146
3941.74	-142
3944.288	-140
3946.834	-137
3949.378	-131
3951.921	-137
3954.462	-144
3957	-141
3959.537	-134
3962.072	-140
3964.606	-134
3967.137	-135
3969.667	-139
3972.194	-139
3974.72	-134
3977.244	-133
3979.766	-136
3982.286	-138
3984.805	-136
3987.321	-135
3989.836	-128
3992.349	-137
3994.86	-134
3997.369	-136
3999.877	-139
4002.382	-136
4004.886	-138
4007.388	-132
4009.888	-133
4012.386	-133
4014.883	-135
4017.377	-136
4019.87	-135
4022.361	-138
4024.85	-137
4027.338	-133
4029.823	-130
4032.307	-130
4034.789	-136
4037.269	-136
4039.747	-130
4042.224	-137
4044.699	-136
4047.172	-133
4049.643	-131
4052.112	-131
4054.58	-137
4057.046	-135
4059.51	-142
4061.972	-134
4064.432	-136
4066.891	-134
4069.348	-134
4071.803	-135
4074.256	-136
4076.708	-129
4079.158	-132
4081.606	-131
4084.052	-140
4086.497	-136
4088.939	-124
4091.38	-133
4093.819	-131
4096.257	-144
4098.693	-136
4101.127	-143
4103.559	-140
4105.989	-5
4108.418	-16
4110.845	-19
4113.27	-14
4115.694	-11
4118.115	-10
4120.535	-140
4122.954	-142
4125.37	-140
4127.785	-134
4130.198	-133
4132.609	-136
4135.019	-143
4137.427	-146
4139.833	-144
4142.237	-147
