Data from 2018-2-8_conc=6_n=2_RamanShift_02.txt Node
Date: Mon Mar 12 16:26:58 IST 2018
User: aro
Spectrometer: QEPB0276
Trigger mode: 0
Integration Time (sec): 3.000000E1
Scans to average: 1
Electric dark correction enabled: true
Nonlinearity correction enabled: false
Boxcar width: 0
XAxis mode: Raman Shifts
Number of Pixels in Spectrum: 1044
>>>>>Begin Spectral Data<<<<<
160.701	19
166.742	46
172.777	128
178.805	380
184.826	1003
190.841	2176
196.849	3588
202.85	4689
208.845	5129
214.833	5134
220.815	5040
226.789	5037
232.758	5080
238.719	5047
244.674	5014
250.623	4960
256.565	4925
262.5	4819
268.429	4738
274.351	4736
280.267	4679
286.176	4671
292.079	4657
297.975	4603
303.865	4629
309.748	4616
315.625	4586
321.495	4583
327.359	4589
333.217	4599
339.068	4594
344.912	4593
350.751	4611
356.583	4618
362.408	4618
368.227	4658
374.04	4672
379.847	4678
385.647	4693
391.44	4715
397.228	4731
403.009	4747
408.784	4797
414.553	4807
420.315	4795
426.071	4800
431.821	4792
437.565	4798
443.302	4825
449.033	4788
454.758	4760
460.477	4744
466.189	4723
471.896	4690
477.596	4625
483.29	4637
488.978	4630
494.66	4608
500.335	4544
506.005	4452
511.668	4286
517.325	4143
522.977	4049
528.622	3947
534.261	3875
539.894	3841
545.521	3833
551.141	3765
556.756	3767
562.365	3717
567.968	3709
573.565	3662
579.155	3627
584.74	3643
590.319	3629
595.892	3643
601.459	3605
607.02	3619
612.575	3583
618.124	3535
623.667	3508
629.204	3482
634.735	3459
640.261	3435
645.781	3406
651.294	3401
656.802	3393
662.304	3374
667.8	3377
673.29	3351
678.775	3357
684.254	3348
689.726	3327
695.193	3329
700.655	3314
706.11	3271
711.56	3259
717.004	3221
722.442	3226
727.874	3194
733.301	3201
738.722	3180
744.137	3194
749.547	3172
754.951	3156
760.349	3167
765.741	3206
771.128	3193
776.509	3223
781.885	3233
787.254	3235
792.618	3240
797.977	3213
803.33	3240
808.677	3170
814.019	3160
819.355	3156
824.686	3125
830.011	3072
835.33	3083
840.644	3075
845.952	3043
851.255	3068
856.552	3053
861.844	3026
867.13	3016
872.41	3000
877.686	2958
882.955	2953
888.219	2924
893.478	2898
898.731	2853
903.979	2804
909.221	2816
914.458	2777
919.69	2792
924.916	2773
930.136	2800
935.351	2793
940.561	2806
945.766	2790
950.965	2786
956.158	2758
961.347	2730
966.529	2682
971.707	2650
976.879	2629
982.046	2609
987.208	2595
992.364	2584
997.515	2606
1002.66	2596
1007.801	2627
1012.936	2652
1018.066	2657
1023.19	2684
1028.309	2664
1033.423	2666
1038.532	2675
1043.636	2627
1048.734	2597
1053.827	2571
1058.915	2553
1063.998	2526
1069.075	2520
1074.147	2531
1079.214	2526
1084.276	2556
1089.333	2537
1094.385	2558
1099.431	2556
1104.472	2534
1109.509	2555
1114.54	2495
1119.565	2456
1124.586	2438
1129.602	2412
1134.613	2381
1139.618	2363
1144.619	2373
1149.614	2370
1154.604	2367
1159.589	2373
1164.57	2369
1169.545	2389
1174.515	2383
1179.48	2375
1184.44	2354
1189.395	2354
1194.345	2330
1199.29	2305
1204.23	2292
1209.165	2319
1214.095	2296
1219.021	2337
1223.941	2335
1228.856	2352
1233.766	2374
1238.672	2351
1243.572	2341
1248.467	2341
1253.358	2313
1258.244	2286
1263.124	2234
1268	2208
1272.871	2172
1277.737	2164
1282.599	2132
1287.455	2143
1292.306	2150
1297.153	2160
1301.995	2187
1306.832	2184
1311.664	2210
1316.491	2209
1321.314	2188
1326.132	2181
1330.945	2153
1335.753	2137
1340.556	2104
1345.354	2078
1350.148	2051
1354.937	2017
1359.722	1989
1364.501	1958
1369.276	1934
1374.046	1902
1378.811	1871
1383.572	1881
1388.327	1870
1393.079	1860
1397.825	1861
1402.567	1860
1407.304	1851
1412.036	1846
1416.764	1858
1421.487	1860
1426.205	1856
1430.919	1856
1435.628	1882
1440.333	1878
1445.032	1901
1449.727	1910
1454.418	1928
1459.104	1917
1463.785	1892
1468.462	1873
1473.134	1851
1477.802	1801
1482.465	1780
1487.123	1745
1491.777	1700
1496.426	1703
1501.071	1678
1505.711	1687
1510.347	1692
1514.978	1664
1519.604	1681
1524.226	1673
1528.844	1669
1533.457	1657
1538.065	1649
1542.669	1637
1547.269	1648
1551.864	1633
1556.454	1647
1561.041	1690
1565.622	1665
1570.199	1682
1574.772	1677
1579.34	1696
1583.904	1720
1588.464	1759
1593.019	1744
1597.569	1761
1602.115	1737
1606.657	1749
1611.195	1748
1615.728	1733
1620.256	1740
1624.78	1729
1629.3	1725
1633.816	1735
1638.327	1736
1642.834	1755
1647.336	1756
1651.834	1772
1656.328	1781
1660.817	1779
1665.302	1749
1669.783	1728
1674.259	1669
1678.732	1647
1683.199	1603
1687.663	1566
1692.122	1517
1696.577	1452
1701.028	1390
1705.474	1362
1709.917	1308
1714.355	1270
1718.788	1260
1723.218	1262
1727.643	1267
1732.064	1256
1736.481	1254
1740.893	1218
1745.301	1194
1749.705	1189
1754.105	1151
1758.501	1138
1762.893	1118
1767.28	1118
1771.663	1110
1776.042	1084
1780.417	1077
1784.787	1055
1789.154	1056
1793.516	1064
1797.874	1024
1802.228	1013
1806.578	1014
1810.924	990
1815.266	973
1819.603	997
1823.937	987
1828.266	981
1832.591	979
1836.913	987
1841.23	981
1845.543	977
1849.852	968
1854.156	960
1858.457	983
1862.754	996
1867.047	977
1871.335	987
1875.62	981
1879.9	976
1884.177	970
1888.449	950
1892.718	960
1896.982	945
1901.243	946
1905.499	914
1909.752	909
1914	894
1918.245	895
1922.485	871
1926.722	885
1930.954	877
1935.183	857
1939.408	851
1943.628	842
1947.845	854
1952.058	831
1956.267	829
1960.472	835
1964.673	818
1968.87	817
1973.063	807
1977.252	785
1981.438	798
1985.619	774
1989.797	792
1993.971	794
1998.14	800
2002.306	804
2006.469	800
2010.627	801
2014.781	807
2018.932	800
2023.078	789
2027.221	786
2031.36	778
2035.495	777
2039.627	777
2043.754	735
2047.878	753
2051.998	742
2056.114	751
2060.226	745
2064.334	738
2068.439	734
2072.54	727
2076.637	720
2080.73	729
2084.82	727
2088.906	715
2092.988	710
2097.066	707
2101.14	687
2105.211	694
2109.278	673
2113.342	663
2117.401	657
2121.457	661
2125.509	658
2129.558	655
2133.602	656
2137.643	654
2141.681	663
2145.714	653
2149.744	663
2153.77	644
2157.793	651
2161.812	637
2165.827	630
2169.838	622
2173.846	617
2177.851	607
2181.851	588
2185.848	576
2189.841	585
2193.831	566
2197.817	569
2201.799	559
2205.778	561
2209.753	556
2213.725	561
2217.693	556
2221.657	566
2225.618	548
2229.575	550
2233.529	552
2237.479	552
2241.425	527
2245.368	527
2249.307	526
2253.243	513
2257.175	503
2261.104	503
2265.029	488
2268.95	493
2272.868	477
2276.783	470
2280.694	473
2284.601	462
2288.505	458
2292.405	458
2296.302	443
2300.195	449
2304.085	426
2307.971	418
2311.854	418
2315.734	412
2319.609	405
2323.482	410
2327.351	412
2331.216	411
2335.078	422
2338.937	409
2342.792	385
2346.643	391
2350.492	390
2354.336	386
2358.178	399
2362.015	386
2365.85	387
2369.681	382
2373.508	390
2377.333	386
2381.153	381
2384.971	386
2388.785	393
2392.595	384
2396.402	368
2400.206	372
2404.007	370
2407.804	370
2411.597	365
2415.388	370
2419.174	361
2422.958	355
2426.738	356
2430.515	355
2434.289	360
2438.059	355
2441.825	348
2445.589	344
2449.349	329
2453.106	329
2456.859	331
2460.61	326
2464.356	329
2468.1	313
2471.84	312
2475.577	326
2479.311	307
2483.041	300
2486.768	299
2490.492	293
2494.213	303
2497.93	304
2501.644	293
2505.355	293
2509.062	282
2512.766	283
2516.467	281
2520.165	281
2523.859	290
2527.551	273
2531.239	262
2534.923	258
2538.605	257
2542.283	249
2545.958	250
2549.63	258
2553.299	245
2556.964	255
2560.626	256
2564.285	239
2567.941	243
2571.594	241
2575.243	239
2578.89	233
2582.533	227
2586.173	238
2589.809	223
2593.443	221
2597.073	221
2600.701	218
2604.325	209
2607.946	216
2611.564	210
2615.178	210
2618.79	202
2622.398	210
2626.004	213
2629.606	199
2633.205	189
2636.801	189
2640.394	189
2643.983	203
2647.57	193
2651.153	189
2654.734	187
2658.311	179
2661.885	179
2665.456	180
2669.025	184
2672.589	177
2676.151	178
2679.71	179
2683.266	171
2686.819	179
2690.368	170
2693.915	158
2697.458	157
2700.999	164
2704.536	162
2708.071	158
2711.602	144
2715.13	146
2718.656	133
2722.178	133
2725.697	137
2729.214	137
2732.727	143
2736.237	141
2739.744	144
2743.249	138
2746.75	129
2750.248	127
2753.743	127
2757.236	115
2760.725	124
2764.211	117
2767.695	119
2771.175	107
2774.652	107
2778.127	109
2781.598	101
2785.067	112
2788.532	112
2791.995	111
2795.455	110
2798.911	115
2802.365	112
2805.816	114
2809.264	105
2812.709	109
2816.151	113
2819.59	117
2823.026	118
2826.46	111
2829.89	110
2833.318	104
2836.742	111
2840.164	115
2843.583	106
2846.999	114
2850.412	113
2853.822	118
2857.229	124
2860.634	120
2864.035	113
2867.434	128
2870.83	134
2874.223	145
2877.613	146
2881	152
2884.385	153
2887.766	144
2891.145	143
2894.521	148
2897.894	154
2901.264	165
2904.631	155
2907.996	157
2911.358	151
2914.717	158
2918.073	168
2921.426	171
2924.777	179
2928.124	186
2931.469	175
2934.811	192
2938.15	194
2941.487	189
2944.821	190
2948.152	203
2951.48	201
2954.805	207
2958.128	198
2961.447	187
2964.765	200
2968.079	198
2971.39	198
2974.699	195
2978.005	193
2981.308	198
2984.609	199
2987.907	188
2991.202	206
2994.494	204
2997.784	206
3001.07	214
3004.355	227
3007.636	218
3010.915	222
3014.191	225
3017.464	236
3020.734	232
3024.002	234
3027.267	226
3030.53	245
3033.789	248
3037.046	262
3040.301	261
3043.552	271
3046.801	284
3050.048	277
3053.291	289
3056.532	302
3059.771	323
3063.006	323
3066.239	327
3069.469	345
3072.697	353
3075.922	357
3079.144	378
3082.364	378
3085.581	398
3088.795	397
3092.007	404
3095.216	420
3098.423	431
3101.627	433
3104.828	446
3108.026	450
3111.222	465
3114.416	475
3117.607	490
3120.795	499
3123.98	509
3127.163	530
3130.344	550
3133.521	539
3136.696	555
3139.869	569
3143.039	569
3146.206	573
3149.371	597
3152.533	595
3155.693	601
3158.85	613
3162.005	617
3165.157	625
3168.306	613
3171.453	619
3174.597	634
3177.739	631
3180.878	633
3184.014	644
3187.149	629
3190.28	645
3193.409	642
3196.536	640
3199.659	641
3202.781	650
3205.9	651
3209.016	651
3212.13	650
3215.241	648
3218.35	652
3221.456	641
3224.56	626
3227.661	632
3230.76	610
3233.856	604
3236.95	594
3240.041	596
3243.13	573
3246.216	570
3249.3	563
3252.382	560
3255.46	550
3258.537	533
3261.611	553
3264.682	539
3267.751	527
3270.818	527
3273.882	532
3276.943	519
3280.002	525
3283.059	521
3286.113	508
3289.165	512
3292.214	512
3295.261	496
3298.306	483
3301.348	484
3304.387	467
3307.425	476
3310.459	480
3313.492	458
3316.521	463
3319.549	451
3322.574	445
3325.597	448
3328.617	444
3331.635	437
3334.65	435
3337.663	427
3340.674	431
3343.682	438
3346.688	434
3349.691	435
3352.692	428
3355.691	435
3358.687	425
3361.681	425
3364.673	417
3367.662	409
3370.649	402
3373.633	388
3376.615	393
3379.595	377
3382.572	375
3385.547	363
3388.52	363
3391.49	367
3394.458	357
3397.424	347
3400.387	336
3403.348	340
3406.307	340
3409.263	338
3412.217	315
3415.168	324
3418.118	310
3421.065	297
3424.009	303
3426.951	303
3429.891	286
3432.829	281
3435.764	271
3438.697	270
3441.628	264
3444.557	253
3447.483	247
3450.407	237
3453.328	219
3456.247	218
3459.164	210
3462.079	195
3464.991	187
3467.902	179
3470.809	179
3473.715	165
3476.618	159
3479.519	157
3482.418	148
3485.315	128
3488.209	130
3491.101	120
3493.99	124
3496.878	119
3499.763	103
3502.646	103
3505.527	94
3508.405	98
3511.281	75
3514.155	78
3517.027	65
3519.897	59
3522.764	56
3525.629	44
3528.492	40
3531.352	25
3534.211	32
3537.067	19
3539.921	31
3542.773	15
3545.622	6
3548.469	1
3551.315	1
3554.157	-2
3556.998	-16
3559.837	-15
3562.673	-23
3565.507	-19
3568.339	-22
3571.169	-37
3573.996	-34
3576.822	-40
3579.645	-33
3582.466	-36
3585.285	-49
3588.101	-37
3590.916	-58
3593.728	-66
3596.538	-60
3599.346	-64
3602.152	-62
3604.956	-64
3607.757	-63
3610.556	-74
3613.354	-68
3616.149	-80
3618.942	-77
3621.732	-80
3624.521	-77
3627.307	-78
3630.092	-79
3632.874	-79
3635.654	-90
3638.432	-89
3641.208	-87
3643.982	-89
3646.753	-91
3649.523	-99
3652.29	-96
3655.055	-98
3657.818	-105
3660.579	-99
3663.338	-98
3666.095	-107
3668.849	-105
3671.602	-105
3674.352	-112
3677.101	-114
3679.847	-113
3682.591	-112
3685.333	-107
3688.073	-112
3690.811	-113
3693.547	-127
3696.281	-118
3699.013	-121
3701.742	-118
3704.47	-120
3707.195	-115
3709.919	-121
3712.64	-123
3715.359	-129
3718.076	-129
3720.792	-125
3723.505	-127
3726.216	-123
3728.925	-127
3731.632	-123
3734.336	-138
3737.039	-129
3739.74	-134
3742.439	-133
3745.136	-121
3747.83	-134
3750.523	-130
3753.213	-130
3755.902	-129
3758.589	-135
3761.273	-131
3763.956	-126
3766.636	-134
3769.315	-126
3771.991	-129
3774.665	-132
3777.338	-123
3780.008	-132
3782.677	-133
3785.343	-131
3788.007	-131
3790.67	-133
3793.33	-125
3795.989	-133
3798.645	-130
3801.299	-134
3803.952	-140
3806.602	-127
3809.251	-137
3811.897	-140
3814.542	-134
3817.184	-128
3819.825	-134
3822.463	-135
3825.1	-137
3827.735	-138
3830.367	-136
3832.998	-135
3835.627	-131
3838.253	-131
3840.878	-134
3843.501	-133
3846.122	-138
3848.741	-140
3851.358	-130
3853.973	-138
3856.586	-130
3859.197	-141
3861.806	-133
3864.414	-135
3867.019	-132
3869.622	-136
3872.224	-124
3874.823	-118
3877.421	-103
3880.016	-76
3882.61	-54
3885.202	-58
3887.792	-72
3890.38	-103
3892.966	-123
3895.55	-129
3898.132	-134
3900.713	-138
3903.291	-138
3905.868	-133
3908.442	-131
3911.015	-144
3913.586	-137
3916.155	-138
3918.722	-135
3921.287	-135
3923.85	-139
3926.411	-142
3928.971	-142
3931.528	-138
3934.084	-136
3936.638	-129
3939.19	-138
3941.74	-139
3944.288	-136
3946.834	-138
3949.378	-139
3951.921	-141
3954.462	-146
3957	-135
3959.537	-134
3962.072	-138
3964.606	-129
3967.137	-133
3969.667	-138
3972.194	-144
3974.72	-139
3977.244	-140
3979.766	-132
3982.286	-134
3984.805	-136
3987.321	-135
3989.836	-128
3992.349	-140
3994.86	-139
3997.369	-138
3999.877	-132
4002.382	-130
4004.886	-138
4007.388	-136
4009.888	-137
4012.386	-138
4014.883	-137
4017.377	-135
4019.87	-133
4022.361	-139
4024.85	-138
4027.338	-135
4029.823	-133
4032.307	-137
4034.789	-140
4037.269	-138
4039.747	-132
4042.224	-135
4044.699	-136
4047.172	-130
4049.643	-133
4052.112	-137
4054.58	-137
4057.046	-138
4059.51	-137
4061.972	-130
4064.432	-135
4066.891	-133
4069.348	-131
4071.803	-145
4074.256	-137
4076.708	-135
4079.158	-137
4081.606	-130
4084.052	-140
4086.497	-136
4088.939	-131
4091.38	-138
4093.819	-136
4096.257	-145
4098.693	-141
4101.127	-143
4103.559	-138
4105.989	9
4108.418	12
4110.845	2
4113.27	-3
4115.694	-11
4118.115	-7
4120.535	-138
4122.954	-137
4125.37	-136
4127.785	-139
4130.198	-134
4132.609	-135
4135.019	-140
4137.427	-144
4139.833	-144
4142.237	-145
