Data from 2018-2-8_conc=2_n=5_RamanShift_03.txt Node
Date: Mon Mar 12 14:10:28 IST 2018
User: aro
Spectrometer: QEPB0276
Trigger mode: 0
Integration Time (sec): 3.000000E1
Scans to average: 1
Electric dark correction enabled: true
Nonlinearity correction enabled: false
Boxcar width: 0
XAxis mode: Raman Shifts
Number of Pixels in Spectrum: 1044
>>>>>Begin Spectral Data<<<<<
160.701	8.1
166.742	38.1
172.777	130.1
178.805	403.1
184.826	1099.1
190.841	2336.1
196.849	3896.1
202.85	5146.1
208.845	5629.1
214.833	5644.1
220.815	5557.1
226.789	5544.1
232.758	5547.1
238.719	5549.1
244.674	5506.1
250.623	5446.1
256.565	5362.1
262.5	5282.1
268.429	5203.1
274.351	5180.1
280.267	5124.1
286.176	5096.1
292.079	5055.1
297.975	5047.1
303.865	5005.1
309.748	5007.1
315.625	4990.1
321.495	5010.1
327.359	4996.1
333.217	4982.1
339.068	4986.1
344.912	4996.1
350.751	4997.1
356.583	4998.1
362.408	5006.1
368.227	5013.1
374.04	5018.1
379.847	5049.1
385.647	5055.1
391.44	5086.1
397.228	5095.1
403.009	5148.1
408.784	5141.1
414.553	5196.1
420.315	5166.1
426.071	5178.1
431.821	5173.1
437.565	5191.1
443.302	5167.1
449.033	5129.1
454.758	5128.1
460.477	5116.1
466.189	5067.1
471.896	5054.1
477.596	5035.1
483.29	5008.1
488.978	5005.1
494.66	4986.1
500.335	4925.1
506.005	4795.1
511.668	4713.1
517.325	4526.1
522.977	4451.1
528.622	4358.1
534.261	4318.1
539.894	4272.1
545.521	4228.1
551.141	4215.1
556.756	4185.1
562.365	4153.1
567.968	4125.1
573.565	4120.1
579.155	4114.1
584.74	4090.1
590.319	4048.1
595.892	4032.1
601.459	4023.1
607.02	4024.1
612.575	4002.1
618.124	3960.1
623.667	3912.1
629.204	3894.1
634.735	3865.1
640.261	3852.1
645.781	3797.1
651.294	3802.1
656.802	3795.1
662.304	3790.1
667.8	3779.1
673.29	3782.1
678.775	3772.1
684.254	3737.1
689.726	3756.1
695.193	3731.1
700.655	3710.1
706.11	3691.1
711.56	3662.1
717.004	3626.1
722.442	3619.1
727.874	3599.1
733.301	3598.1
738.722	3581.1
744.137	3550.1
749.547	3579.1
754.951	3567.1
760.349	3571.1
765.741	3570.1
771.128	3590.1
776.509	3609.1
781.885	3634.1
787.254	3638.1
792.618	3625.1
797.977	3612.1
803.33	3558.1
808.677	3531.1
814.019	3512.1
819.355	3502.1
824.686	3475.1
830.011	3457.1
835.33	3464.1
840.644	3447.1
845.952	3437.1
851.255	3451.1
856.552	3431.1
861.844	3400.1
867.13	3394.1
872.41	3401.1
877.686	3352.1
882.955	3312.1
888.219	3329.1
893.478	3264.1
898.731	3220.1
903.979	3167.1
909.221	3151.1
914.458	3134.1
919.69	3125.1
924.916	3128.1
930.136	3141.1
935.351	3164.1
940.561	3166.1
945.766	3157.1
950.965	3135.1
956.158	3107.1
961.347	3068.1
966.529	3030.1
971.707	2972.1
976.879	2959.1
982.046	2927.1
987.208	2906.1
992.364	2902.1
997.515	2908.1
1002.66	2958.1
1007.801	2982.1
1012.936	3001.1
1018.066	3013.1
1023.19	3020.1
1028.309	3017.1
1033.423	3022.1
1038.532	2987.1
1043.636	2985.1
1048.734	2945.1
1053.827	2911.1
1058.915	2853.1
1063.998	2828.1
1069.075	2851.1
1074.147	2859.1
1079.214	2840.1
1084.276	2857.1
1089.333	2872.1
1094.385	2885.1
1099.431	2885.1
1104.472	2864.1
1109.509	2869.1
1114.54	2806.1
1119.565	2796.1
1124.586	2744.1
1129.602	2720.1
1134.613	2704.1
1139.618	2696.1
1144.619	2655.1
1149.614	2666.1
1154.604	2693.1
1159.589	2678.1
1164.57	2679.1
1169.545	2684.1
1174.515	2691.1
1179.48	2706.1
1184.44	2674.1
1189.395	2635.1
1194.345	2607.1
1199.29	2584.1
1204.23	2584.1
1209.165	2603.1
1214.095	2595.1
1219.021	2640.1
1223.941	2636.1
1228.856	2669.1
1233.766	2659.1
1238.672	2672.1
1243.572	2671.1
1248.467	2643.1
1253.358	2635.1
1258.244	2558.1
1263.124	2541.1
1268	2493.1
1272.871	2469.1
1277.737	2443.1
1282.599	2451.1
1287.455	2442.1
1292.306	2441.1
1297.153	2455.1
1301.995	2469.1
1306.832	2465.1
1311.664	2479.1
1316.491	2473.1
1321.314	2483.1
1326.132	2479.1
1330.945	2449.1
1335.753	2392.1
1340.556	2379.1
1345.354	2322.1
1350.148	2298.1
1354.937	2255.1
1359.722	2211.1
1364.501	2179.1
1369.276	2157.1
1374.046	2106.1
1378.811	2084.1
1383.572	2065.1
1388.327	2089.1
1393.079	2071.1
1397.825	2071.1
1402.567	2081.1
1407.304	2068.1
1412.036	2071.1
1416.764	2097.1
1421.487	2089.1
1426.205	2102.1
1430.919	2092.1
1435.628	2128.1
1440.333	2123.1
1445.032	2129.1
1449.727	2176.1
1454.418	2175.1
1459.104	2168.1
1463.785	2127.1
1468.462	2105.1
1473.134	2051.1
1477.802	1995.1
1482.465	1963.1
1487.123	1924.1
1491.777	1913.1
1496.426	1893.1
1501.071	1870.1
1505.711	1850.1
1510.347	1846.1
1514.978	1838.1
1519.604	1823.1
1524.226	1859.1
1528.844	1829.1
1533.457	1800.1
1538.065	1820.1
1542.669	1790.1
1547.269	1807.1
1551.864	1811.1
1556.454	1818.1
1561.041	1843.1
1565.622	1846.1
1570.199	1843.1
1574.772	1864.1
1579.34	1901.1
1583.904	1938.1
1588.464	1947.1
1593.019	1946.1
1597.569	1966.1
1602.115	1930.1
1606.657	1953.1
1611.195	1923.1
1615.728	1907.1
1620.256	1912.1
1624.78	1929.1
1629.3	1933.1
1633.816	1911.1
1638.327	1932.1
1642.834	1931.1
1647.336	1949.1
1651.834	1947.1
1656.328	1952.1
1660.817	1943.1
1665.302	1919.1
1669.783	1867.1
1674.259	1850.1
1678.732	1820.1
1683.199	1753.1
1687.663	1705.1
1692.122	1630.1
1696.577	1579.1
1701.028	1489.1
1705.474	1455.1
1709.917	1407.1
1714.355	1384.1
1718.788	1377.1
1723.218	1370.1
1727.643	1371.1
1732.064	1372.1
1736.481	1349.1
1740.893	1316.1
1745.301	1307.1
1749.705	1272.1
1754.105	1248.1
1758.501	1227.1
1762.893	1215.1
1767.28	1204.1
1771.663	1189.1
1776.042	1190.1
1780.417	1148.1
1784.787	1142.1
1789.154	1133.1
1793.516	1141.1
1797.874	1092.1
1802.228	1092.1
1806.578	1095.1
1810.924	1068.1
1815.266	1055.1
1819.603	1067.1
1823.937	1055.1
1828.266	1042.1
1832.591	1068.1
1836.913	1051.1
1841.23	1062.1
1845.543	1066.1
1849.852	1046.1
1854.156	1052.1
1858.457	1058.1
1862.754	1069.1
1867.047	1069.1
1871.335	1051.1
1875.62	1054.1
1879.9	1055.1
1884.177	1046.1
1888.449	1030.1
1892.718	999.1
1896.982	1021.1
1901.243	982.1
1905.499	983.1
1909.752	967.1
1914	957.1
1918.245	945.1
1922.485	921.1
1926.722	922.1
1930.954	912.1
1935.183	910.1
1939.408	916.1
1943.628	915.1
1947.845	899.1
1952.058	898.1
1956.267	872.1
1960.472	871.1
1964.673	860.1
1968.87	862.1
1973.063	861.1
1977.252	857.1
1981.438	837.1
1985.619	844.1
1989.797	836.1
1993.971	863.1
1998.14	852.1
2002.306	863.1
2006.469	865.1
2010.627	863.1
2014.781	870.1
2018.932	844.1
2023.078	856.1
2027.221	852.1
2031.36	849.1
2035.495	831.1
2039.627	818.1
2043.754	797.1
2047.878	809.1
2051.998	800.1
2056.114	785.1
2060.226	785.1
2064.334	800.1
2068.439	790.1
2072.54	776.1
2076.637	777.1
2080.73	771.1
2084.82	766.1
2088.906	771.1
2092.988	760.1
2097.066	751.1
2101.14	733.1
2105.211	732.1
2109.278	721.1
2113.342	705.1
2117.401	705.1
2121.457	710.1
2125.509	697.1
2129.558	693.1
2133.602	695.1
2137.643	704.1
2141.681	696.1
2145.714	693.1
2149.744	685.1
2153.77	684.1
2157.793	695.1
2161.812	680.1
2165.827	672.1
2169.838	669.1
2173.846	660.1
2177.851	642.1
2181.851	644.1
2185.848	632.1
2189.841	637.1
2193.831	630.1
2197.817	633.1
2201.799	616.1
2205.778	603.1
2209.753	611.1
2213.725	616.1
2217.693	604.1
2221.657	607.1
2225.618	607.1
2229.575	604.1
2233.529	614.1
2237.479	595.1
2241.425	592.1
2245.368	578.1
2249.307	572.1
2253.243	552.1
2257.175	548.1
2261.104	545.1
2265.029	541.1
2268.95	536.1
2272.868	521.1
2276.783	518.1
2280.694	523.1
2284.601	512.1
2288.505	513.1
2292.405	501.1
2296.302	484.1
2300.195	488.1
2304.085	483.1
2307.971	471.1
2311.854	462.1
2315.734	454.1
2319.609	446.1
2323.482	450.1
2327.351	458.1
2331.216	456.1
2335.078	470.1
2338.937	441.1
2342.792	424.1
2346.643	434.1
2350.492	433.1
2354.336	436.1
2358.178	434.1
2362.015	440.1
2365.85	448.1
2369.681	448.1
2373.508	439.1
2377.333	436.1
2381.153	438.1
2384.971	442.1
2388.785	427.1
2392.595	437.1
2396.402	423.1
2400.206	432.1
2404.007	429.1
2407.804	417.1
2411.597	418.1
2415.388	408.1
2419.174	414.1
2422.958	403.1
2426.738	412.1
2430.515	415.1
2434.289	402.1
2438.059	398.1
2441.825	387.1
2445.589	389.1
2449.349	379.1
2453.106	378.1
2456.859	385.1
2460.61	370.1
2464.356	367.1
2468.1	359.1
2471.84	354.1
2475.577	362.1
2479.311	346.1
2483.041	347.1
2486.768	333.1
2490.492	349.1
2494.213	349.1
2497.93	338.1
2501.644	345.1
2505.355	331.1
2509.062	320.1
2512.766	326.1
2516.467	322.1
2520.165	318.1
2523.859	317.1
2527.551	315.1
2531.239	304.1
2534.923	301.1
2538.605	294.1
2542.283	296.1
2545.958	298.1
2549.63	289.1
2553.299	286.1
2556.964	289.1
2560.626	287.1
2564.285	267.1
2567.941	275.1
2571.594	271.1
2575.243	274.1
2578.89	262.1
2582.533	259.1
2586.173	262.1
2589.809	249.1
2593.443	255.1
2597.073	252.1
2600.701	248.1
2604.325	236.1
2607.946	250.1
2611.564	243.1
2615.178	253.1
2618.79	249.1
2622.398	237.1
2626.004	238.1
2629.606	226.1
2633.205	228.1
2636.801	229.1
2640.394	231.1
2643.983	233.1
2647.57	223.1
2651.153	223.1
2654.734	215.1
2658.311	206.1
2661.885	213.1
2665.456	202.1
2669.025	203.1
2672.589	209.1
2676.151	208.1
2679.71	203.1
2683.266	193.1
2686.819	199.1
2690.368	194.1
2693.915	189.1
2697.458	177.1
2700.999	192.1
2704.536	170.1
2708.071	174.1
2711.602	170.1
2715.13	177.1
2718.656	164.1
2722.178	162.1
2725.697	158.1
2729.214	161.1
2732.727	166.1
2736.237	159.1
2739.744	157.1
2743.249	146.1
2746.75	149.1
2750.248	149.1
2753.743	137.1
2757.236	141.1
2760.725	135.1
2764.211	131.1
2767.695	133.1
2771.175	125.1
2774.652	118.1
2778.127	122.1
2781.598	129.1
2785.067	145.1
2788.532	133.1
2791.995	128.1
2795.455	126.1
2798.911	128.1
2802.365	129.1
2805.816	135.1
2809.264	134.1
2812.709	137.1
2816.151	139.1
2819.59	131.1
2823.026	134.1
2826.46	125.1
2829.89	131.1
2833.318	127.1
2836.742	131.1
2840.164	132.1
2843.583	138.1
2846.999	147.1
2850.412	135.1
2853.822	139.1
2857.229	137.1
2860.634	137.1
2864.035	159.1
2867.434	148.1
2870.83	164.1
2874.223	164.1
2877.613	176.1
2881	187.1
2884.385	177.1
2887.766	180.1
2891.145	165.1
2894.521	180.1
2897.894	180.1
2901.264	182.1
2904.631	180.1
2907.996	183.1
2911.358	189.1
2914.717	182.1
2918.073	190.1
2921.426	197.1
2924.777	208.1
2928.124	215.1
2931.469	204.1
2934.811	206.1
2938.15	220.1
2941.487	221.1
2944.821	230.1
2948.152	233.1
2951.48	231.1
2954.805	233.1
2958.128	215.1
2961.447	211.1
2964.765	223.1
2968.079	210.1
2971.39	227.1
2974.699	230.1
2978.005	224.1
2981.308	225.1
2984.609	226.1
2987.907	221.1
2991.202	239.1
2994.494	230.1
2997.784	239.1
3001.07	244.1
3004.355	239.1
3007.636	243.1
3010.915	234.1
3014.191	244.1
3017.464	251.1
3020.734	245.1
3024.002	255.1
3027.267	272.1
3030.53	277.1
3033.789	281.1
3037.046	274.1
3040.301	292.1
3043.552	291.1
3046.801	303.1
3050.048	306.1
3053.291	329.1
3056.532	330.1
3059.771	346.1
3063.006	362.1
3066.239	370.1
3069.469	387.1
3072.697	377.1
3075.922	411.1
3079.144	405.1
3082.364	418.1
3085.581	417.1
3088.795	431.1
3092.007	438.1
3095.216	449.1
3098.423	461.1
3101.627	466.1
3104.828	493.1
3108.026	490.1
3111.222	496.1
3114.416	509.1
3117.607	528.1
3120.795	538.1
3123.98	549.1
3127.163	572.1
3130.344	574.1
3133.521	589.1
3136.696	612.1
3139.869	593.1
3143.039	614.1
3146.206	625.1
3149.371	648.1
3152.533	644.1
3155.693	652.1
3158.85	668.1
3162.005	658.1
3165.157	670.1
3168.306	659.1
3171.453	666.1
3174.597	681.1
3177.739	680.1
3180.878	679.1
3184.014	692.1
3187.149	682.1
3190.28	685.1
3193.409	691.1
3196.536	700.1
3199.659	704.1
3202.781	716.1
3205.9	701.1
3209.016	702.1
3212.13	696.1
3215.241	704.1
3218.35	681.1
3221.456	690.1
3224.56	678.1
3227.661	680.1
3230.76	650.1
3233.856	645.1
3236.95	644.1
3240.041	623.1
3243.13	606.1
3246.216	601.1
3249.3	610.1
3252.382	601.1
3255.46	598.1
3258.537	577.1
3261.611	583.1
3264.682	569.1
3267.751	577.1
3270.818	572.1
3273.882	565.1
3276.943	566.1
3280.002	559.1
3283.059	545.1
3286.113	551.1
3289.165	554.1
3292.214	547.1
3295.261	536.1
3298.306	532.1
3301.348	518.1
3304.387	515.1
3307.425	511.1
3310.459	496.1
3313.492	510.1
3316.521	484.1
3319.549	494.1
3322.574	491.1
3325.597	479.1
3328.617	487.1
3331.635	482.1
3334.65	480.1
3337.663	465.1
3340.674	478.1
3343.682	485.1
3346.688	469.1
3349.691	486.1
3352.692	462.1
3355.691	467.1
3358.687	453.1
3361.681	463.1
3364.673	462.1
3367.662	445.1
3370.649	434.1
3373.633	427.1
3376.615	416.1
3379.595	410.1
3382.572	413.1
3385.547	409.1
3388.52	409.1
3391.49	397.1
3394.458	392.1
3397.424	379.1
3400.387	372.1
3403.348	373.1
3406.307	366.1
3409.263	355.1
3412.217	361.1
3415.168	353.1
3418.118	344.1
3421.065	339.1
3424.009	335.1
3426.951	336.1
3429.891	329.1
3432.829	324.1
3435.764	302.1
3438.697	299.1
3441.628	292.1
3444.557	281.1
3447.483	267.1
3450.407	254.1
3453.328	243.1
3456.247	243.1
3459.164	231.1
3462.079	215.1
3464.991	211.1
3467.902	195.1
3470.809	191.1
3473.715	184.1
3476.618	174.1
3479.519	169.1
3482.418	156.1
3485.315	150.1
3488.209	140.1
3491.101	135.1
3493.99	147.1
3496.878	136.1
3499.763	124.1
3502.646	120.1
3505.527	105.1
3508.405	105.1
3511.281	93.1
3514.155	91.1
3517.027	75.1
3519.897	67.1
3522.764	63.1
3525.629	58.1
3528.492	62.1
3531.352	52.1
3534.211	38.1
3537.067	29.1
3539.921	25.1
3542.773	22.1
3545.622	10.1
3548.469	10.1
3551.315	10.1
3554.157	6.1
3556.998	-17.9
3559.837	-8.9
3562.673	-8.9
3565.507	-11.9
3568.339	-16.9
3571.169	-26.9
3573.996	-26.9
3576.822	-31.9
3579.645	-31.9
3582.466	-30.9
3585.285	-46.9
3588.101	-30.9
3590.916	-45.9
3593.728	-57.9
3596.538	-49.9
3599.346	-60.9
3602.152	-54.9
3604.956	-64.9
3607.757	-63.9
3610.556	-70.9
3613.354	-62.9
3616.149	-75.9
3618.942	-70.9
3621.732	-75.9
3624.521	-80.9
3627.307	-83.9
3630.092	-76.9
3632.874	-83.9
3635.654	-86.9
3638.432	-81.9
3641.208	-87.9
3643.982	-92.9
3646.753	-92.9
3649.523	-92.9
3652.29	-92.9
3655.055	-93.9
3657.818	-100.9
3660.579	-97.9
3663.338	-96.9
3666.095	-100.9
3668.849	-105.9
3671.602	-101.9
3674.352	-103.9
3677.101	-112.9
3679.847	-108.9
3682.591	-112.9
3685.333	-107.9
3688.073	-106.9
3690.811	-112.9
3693.547	-118.9
3696.281	-113.9
3699.013	-114.9
3701.742	-116.9
3704.47	-119.9
3707.195	-114.9
3709.919	-113.9
3712.64	-120.9
3715.359	-128.9
3718.076	-124.9
3720.792	-125.9
3723.505	-128.9
3726.216	-119.9
3728.925	-126.9
3731.632	-117.9
3734.336	-136.9
3737.039	-123.9
3739.74	-129.9
3742.439	-137.9
3745.136	-118.9
3747.83	-133.9
3750.523	-126.9
3753.213	-134.9
3755.902	-124.9
3758.589	-133.9
3761.273	-121.9
3763.956	-130.9
3766.636	-127.9
3769.315	-124.9
3771.991	-123.9
3774.665	-133.9
3777.338	-122.9
3780.008	-124.9
3782.677	-136.9
3785.343	-133.9
3788.007	-132.9
3790.67	-128.9
3793.33	-124.9
3795.989	-129.9
3798.645	-123.9
3801.299	-129.9
3803.952	-131.9
3806.602	-128.9
3809.251	-137.9
3811.897	-140.9
3814.542	-139.9
3817.184	-130.9
3819.825	-131.9
3822.463	-134.9
3825.1	-134.9
3827.735	-133.9
3830.367	-135.9
3832.998	-137.9
3835.627	-135.9
3838.253	-130.9
3840.878	-135.9
3843.501	-125.9
3846.122	-131.9
3848.741	-135.9
3851.358	-133.9
3853.973	-140.9
3856.586	-137.9
3859.197	-138.9
3861.806	-134.9
3864.414	-133.9
3867.019	-131.9
3869.622	-134.9
3872.224	-123.9
3874.823	-118.9
3877.421	-106.9
3880.016	-86.9
3882.61	-67.9
3885.202	-64.9
3887.792	-82.9
3890.38	-106.9
3892.966	-126.9
3895.55	-129.9
3898.132	-132.9
3900.713	-136.9
3903.291	-135.9
3905.868	-137.9
3908.442	-127.9
3911.015	-137.9
3913.586	-138.9
3916.155	-139.9
3918.722	-144.9
3921.287	-136.9
3923.85	-136.9
3926.411	-140.9
3928.971	-133.9
3931.528	-140.9
3934.084	-137.9
3936.638	-134.9
3939.19	-137.9
3941.74	-145.9
3944.288	-138.9
3946.834	-133.9
3949.378	-134.9
3951.921	-136.9
3954.462	-146.9
3957	-136.9
3959.537	-137.9
3962.072	-132.9
3964.606	-133.9
3967.137	-130.9
3969.667	-137.9
3972.194	-138.9
3974.72	-137.9
3977.244	-136.9
3979.766	-140.9
3982.286	-139.9
3984.805	-139.9
3987.321	-128.9
3989.836	-124.9
3992.349	-133.9
3994.86	-138.9
3997.369	-133.9
3999.877	-136.9
4002.382	-127.9
4004.886	-136.9
4007.388	-130.9
4009.888	-132.9
4012.386	-130.9
4014.883	-136.9
4017.377	-135.9
4019.87	-134.9
4022.361	-137.9
4024.85	-136.9
4027.338	-132.9
4029.823	-132.9
4032.307	-131.9
4034.789	-137.9
4037.269	-134.9
4039.747	-133.9
4042.224	-136.9
4044.699	-135.9
4047.172	-130.9
4049.643	-131.9
4052.112	-132.9
4054.58	-139.9
4057.046	-135.9
4059.51	-139.9
4061.972	-132.9
4064.432	-131.9
4066.891	-136.9
4069.348	-129.9
4071.803	-136.9
4074.256	-135.9
4076.708	-132.9
4079.158	-137.9
4081.606	-123.9
4084.052	-135.9
4086.497	-128.9
4088.939	-129.9
4091.38	-130.9
4093.819	-138.9
4096.257	-139.9
4098.693	-141.9
4101.127	-141.9
4103.559	-137.9
4105.989	-3.9
4108.418	-14.9
4110.845	-6.9
4113.27	-13.9
4115.694	-11.9
4118.115	-9.9
4120.535	-137.9
4122.954	-142.9
4125.37	-136.9
4127.785	-137.9
4130.198	-130.9
4132.609	-131.9
4135.019	-140.9
4137.427	-148.9
4139.833	-143.9
4142.237	-145.9
