Data from 2018-2-8_conc=2_n=3_RamanShift_06.txt Node
Date: Mon Mar 12 14:03:58 IST 2018
User: aro
Spectrometer: QEPB0276
Trigger mode: 0
Integration Time (sec): 3.000000E1
Scans to average: 1
Electric dark correction enabled: true
Nonlinearity correction enabled: false
Boxcar width: 0
XAxis mode: Raman Shifts
Number of Pixels in Spectrum: 1044
>>>>>Begin Spectral Data<<<<<
160.701	18.1
166.742	49.1
172.777	146.1
178.805	457.1
184.826	1275.1
190.841	2777.1
196.849	4632.1
202.85	6119.1
208.845	6714.1
214.833	6647.1
220.815	6594.1
226.789	6523.1
232.758	6538.1
238.719	6510.1
244.674	6486.1
250.623	6393.1
256.565	6303.1
262.5	6208.1
268.429	6144.1
274.351	6085.1
280.267	5991.1
286.176	5997.1
292.079	5907.1
297.975	5905.1
303.865	5879.1
309.748	5852.1
315.625	5827.1
321.495	5850.1
327.359	5801.1
333.217	5764.1
339.068	5780.1
344.912	5841.1
350.751	5807.1
356.583	5800.1
362.408	5849.1
368.227	5823.1
374.04	5865.1
379.847	5875.1
385.647	5884.1
391.44	5929.1
397.228	5943.1
403.009	5992.1
408.784	5987.1
414.553	6025.1
420.315	6014.1
426.071	6026.1
431.821	6029.1
437.565	5987.1
443.302	6027.1
449.033	5983.1
454.758	5977.1
460.477	5954.1
466.189	5938.1
471.896	5887.1
477.596	5838.1
483.29	5839.1
488.978	5831.1
494.66	5826.1
500.335	5755.1
506.005	5614.1
511.668	5491.1
517.325	5311.1
522.977	5231.1
528.622	5121.1
534.261	5077.1
539.894	5005.1
545.521	4974.1
551.141	4983.1
556.756	4927.1
562.365	4891.1
567.968	4847.1
573.565	4811.1
579.155	4793.1
584.74	4817.1
590.319	4792.1
595.892	4759.1
601.459	4755.1
607.02	4729.1
612.575	4681.1
618.124	4672.1
623.667	4632.1
629.204	4564.1
634.735	4562.1
640.261	4500.1
645.781	4505.1
651.294	4500.1
656.802	4460.1
662.304	4463.1
667.8	4441.1
673.29	4432.1
678.775	4428.1
684.254	4421.1
689.726	4391.1
695.193	4388.1
700.655	4348.1
706.11	4333.1
711.56	4298.1
717.004	4296.1
722.442	4261.1
727.874	4218.1
733.301	4226.1
738.722	4225.1
744.137	4176.1
749.547	4200.1
754.951	4198.1
760.349	4202.1
765.741	4166.1
771.128	4223.1
776.509	4251.1
781.885	4251.1
787.254	4248.1
792.618	4240.1
797.977	4213.1
803.33	4190.1
808.677	4149.1
814.019	4156.1
819.355	4114.1
824.686	4088.1
830.011	4053.1
835.33	4044.1
840.644	4023.1
845.952	4038.1
851.255	4014.1
856.552	4021.1
861.844	4004.1
867.13	3994.1
872.41	3963.1
877.686	3943.1
882.955	3924.1
888.219	3881.1
893.478	3834.1
898.731	3775.1
903.979	3719.1
909.221	3726.1
914.458	3694.1
919.69	3668.1
924.916	3670.1
930.136	3697.1
935.351	3699.1
940.561	3703.1
945.766	3666.1
950.965	3696.1
956.158	3679.1
961.347	3633.1
966.529	3561.1
971.707	3498.1
976.879	3470.1
982.046	3425.1
987.208	3431.1
992.364	3411.1
997.515	3433.1
1002.66	3463.1
1007.801	3516.1
1012.936	3510.1
1018.066	3538.1
1023.19	3523.1
1028.309	3540.1
1033.423	3529.1
1038.532	3504.1
1043.636	3486.1
1048.734	3449.1
1053.827	3396.1
1058.915	3367.1
1063.998	3332.1
1069.075	3344.1
1074.147	3337.1
1079.214	3320.1
1084.276	3358.1
1089.333	3354.1
1094.385	3379.1
1099.431	3377.1
1104.472	3367.1
1109.509	3346.1
1114.54	3318.1
1119.565	3265.1
1124.586	3221.1
1129.602	3189.1
1134.613	3162.1
1139.618	3111.1
1144.619	3138.1
1149.614	3115.1
1154.604	3138.1
1159.589	3150.1
1164.57	3133.1
1169.545	3150.1
1174.515	3156.1
1179.48	3151.1
1184.44	3121.1
1189.395	3094.1
1194.345	3051.1
1199.29	3055.1
1204.23	3039.1
1209.165	3035.1
1214.095	3072.1
1219.021	3090.1
1223.941	3093.1
1228.856	3106.1
1233.766	3123.1
1238.672	3125.1
1243.572	3109.1
1248.467	3080.1
1253.358	3072.1
1258.244	3001.1
1263.124	2970.1
1268	2924.1
1272.871	2889.1
1277.737	2867.1
1282.599	2850.1
1287.455	2856.1
1292.306	2840.1
1297.153	2875.1
1301.995	2886.1
1306.832	2889.1
1311.664	2889.1
1316.491	2894.1
1321.314	2904.1
1326.132	2895.1
1330.945	2863.1
1335.753	2809.1
1340.556	2782.1
1345.354	2737.1
1350.148	2683.1
1354.937	2650.1
1359.722	2582.1
1364.501	2561.1
1369.276	2504.1
1374.046	2447.1
1378.811	2458.1
1383.572	2408.1
1388.327	2429.1
1393.079	2426.1
1397.825	2425.1
1402.567	2453.1
1407.304	2444.1
1412.036	2456.1
1416.764	2433.1
1421.487	2454.1
1426.205	2451.1
1430.919	2471.1
1435.628	2472.1
1440.333	2505.1
1445.032	2503.1
1449.727	2532.1
1454.418	2554.1
1459.104	2541.1
1463.785	2491.1
1468.462	2443.1
1473.134	2400.1
1477.802	2348.1
1482.465	2316.1
1487.123	2245.1
1491.777	2229.1
1496.426	2193.1
1501.071	2170.1
1505.711	2165.1
1510.347	2165.1
1514.978	2157.1
1519.604	2141.1
1524.226	2158.1
1528.844	2131.1
1533.457	2140.1
1538.065	2118.1
1542.669	2100.1
1547.269	2129.1
1551.864	2112.1
1556.454	2152.1
1561.041	2155.1
1565.622	2160.1
1570.199	2175.1
1574.772	2195.1
1579.34	2235.1
1583.904	2251.1
1588.464	2292.1
1593.019	2265.1
1597.569	2273.1
1602.115	2284.1
1606.657	2251.1
1611.195	2254.1
1615.728	2238.1
1620.256	2264.1
1624.78	2263.1
1629.3	2243.1
1633.816	2251.1
1638.327	2275.1
1642.834	2293.1
1647.336	2291.1
1651.834	2297.1
1656.328	2292.1
1660.817	2267.1
1665.302	2246.1
1669.783	2222.1
1674.259	2163.1
1678.732	2117.1
1683.199	2025.1
1687.663	1991.1
1692.122	1914.1
1696.577	1845.1
1701.028	1783.1
1705.474	1684.1
1709.917	1642.1
1714.355	1612.1
1718.788	1606.1
1723.218	1595.1
1727.643	1602.1
1732.064	1573.1
1736.481	1574.1
1740.893	1535.1
1745.301	1506.1
1749.705	1489.1
1754.105	1462.1
1758.501	1422.1
1762.893	1409.1
1767.28	1381.1
1771.663	1380.1
1776.042	1372.1
1780.417	1340.1
1784.787	1330.1
1789.154	1330.1
1793.516	1310.1
1797.874	1280.1
1802.228	1270.1
1806.578	1271.1
1810.924	1240.1
1815.266	1241.1
1819.603	1279.1
1823.937	1239.1
1828.266	1223.1
1832.591	1225.1
1836.913	1226.1
1841.23	1233.1
1845.543	1213.1
1849.852	1224.1
1854.156	1226.1
1858.457	1223.1
1862.754	1245.1
1867.047	1244.1
1871.335	1251.1
1875.62	1235.1
1879.9	1226.1
1884.177	1210.1
1888.449	1205.1
1892.718	1185.1
1896.982	1177.1
1901.243	1148.1
1905.499	1133.1
1909.752	1132.1
1914	1106.1
1918.245	1094.1
1922.485	1080.1
1926.722	1085.1
1930.954	1065.1
1935.183	1059.1
1939.408	1042.1
1943.628	1044.1
1947.845	1028.1
1952.058	1033.1
1956.267	1020.1
1960.472	1023.1
1964.673	996.1
1968.87	977.1
1973.063	990.1
1977.252	976.1
1981.438	988.1
1985.619	968.1
1989.797	988.1
1993.971	995.1
1998.14	987.1
2002.306	971.1
2006.469	983.1
2010.627	986.1
2014.781	984.1
2018.932	984.1
2023.078	996.1
2027.221	989.1
2031.36	970.1
2035.495	974.1
2039.627	951.1
2043.754	936.1
2047.878	941.1
2051.998	924.1
2056.114	919.1
2060.226	914.1
2064.334	915.1
2068.439	907.1
2072.54	894.1
2076.637	904.1
2080.73	896.1
2084.82	882.1
2088.906	884.1
2092.988	877.1
2097.066	857.1
2101.14	858.1
2105.211	842.1
2109.278	820.1
2113.342	814.1
2117.401	801.1
2121.457	814.1
2125.509	818.1
2129.558	804.1
2133.602	797.1
2137.643	807.1
2141.681	803.1
2145.714	790.1
2149.744	786.1
2153.77	806.1
2157.793	797.1
2161.812	784.1
2165.827	770.1
2169.838	766.1
2173.846	754.1
2177.851	748.1
2181.851	727.1
2185.848	744.1
2189.841	727.1
2193.831	731.1
2197.817	716.1
2201.799	710.1
2205.778	717.1
2209.753	716.1
2213.725	713.1
2217.693	711.1
2221.657	702.1
2225.618	714.1
2229.575	702.1
2233.529	683.1
2237.479	686.1
2241.425	672.1
2245.368	656.1
2249.307	655.1
2253.243	653.1
2257.175	638.1
2261.104	623.1
2265.029	631.1
2268.95	617.1
2272.868	594.1
2276.783	589.1
2280.694	588.1
2284.601	591.1
2288.505	590.1
2292.405	579.1
2296.302	574.1
2300.195	563.1
2304.085	558.1
2307.971	519.1
2311.854	528.1
2315.734	526.1
2319.609	513.1
2323.482	510.1
2327.351	515.1
2331.216	520.1
2335.078	535.1
2338.937	508.1
2342.792	507.1
2346.643	503.1
2350.492	504.1
2354.336	503.1
2358.178	494.1
2362.015	505.1
2365.85	505.1
2369.681	505.1
2373.508	499.1
2377.333	496.1
2381.153	496.1
2384.971	502.1
2388.785	496.1
2392.595	490.1
2396.402	499.1
2400.206	473.1
2404.007	483.1
2407.804	473.1
2411.597	473.1
2415.388	477.1
2419.174	472.1
2422.958	469.1
2426.738	454.1
2430.515	463.1
2434.289	462.1
2438.059	453.1
2441.825	455.1
2445.589	443.1
2449.349	435.1
2453.106	434.1
2456.859	434.1
2460.61	429.1
2464.356	410.1
2468.1	408.1
2471.84	398.1
2475.577	415.1
2479.311	406.1
2483.041	383.1
2486.768	397.1
2490.492	384.1
2494.213	398.1
2497.93	386.1
2501.644	385.1
2505.355	384.1
2509.062	380.1
2512.766	375.1
2516.467	363.1
2520.165	361.1
2523.859	366.1
2527.551	360.1
2531.239	346.1
2534.923	345.1
2538.605	341.1
2542.283	332.1
2545.958	332.1
2549.63	343.1
2553.299	324.1
2556.964	330.1
2560.626	317.1
2564.285	316.1
2567.941	312.1
2571.594	306.1
2575.243	306.1
2578.89	292.1
2582.533	295.1
2586.173	293.1
2589.809	282.1
2593.443	279.1
2597.073	285.1
2600.701	277.1
2604.325	273.1
2607.946	268.1
2611.564	276.1
2615.178	269.1
2618.79	269.1
2622.398	272.1
2626.004	269.1
2629.606	266.1
2633.205	258.1
2636.801	254.1
2640.394	255.1
2643.983	254.1
2647.57	248.1
2651.153	247.1
2654.734	237.1
2658.311	238.1
2661.885	226.1
2665.456	238.1
2669.025	232.1
2672.589	233.1
2676.151	241.1
2679.71	231.1
2683.266	219.1
2686.819	232.1
2690.368	216.1
2693.915	216.1
2697.458	204.1
2700.999	202.1
2704.536	199.1
2708.071	198.1
2711.602	191.1
2715.13	190.1
2718.656	188.1
2722.178	192.1
2725.697	178.1
2729.214	178.1
2732.727	173.1
2736.237	180.1
2739.744	174.1
2743.249	173.1
2746.75	169.1
2750.248	168.1
2753.743	163.1
2757.236	150.1
2760.725	150.1
2764.211	145.1
2767.695	142.1
2771.175	145.1
2774.652	143.1
2778.127	138.1
2781.598	143.1
2785.067	139.1
2788.532	140.1
2791.995	146.1
2795.455	148.1
2798.911	143.1
2802.365	150.1
2805.816	159.1
2809.264	145.1
2812.709	150.1
2816.151	146.1
2819.59	154.1
2823.026	152.1
2826.46	140.1
2829.89	141.1
2833.318	147.1
2836.742	153.1
2840.164	156.1
2843.583	145.1
2846.999	160.1
2850.412	164.1
2853.822	155.1
2857.229	152.1
2860.634	163.1
2864.035	169.1
2867.434	172.1
2870.83	187.1
2874.223	199.1
2877.613	199.1
2881	206.1
2884.385	201.1
2887.766	199.1
2891.145	189.1
2894.521	201.1
2897.894	210.1
2901.264	217.1
2904.631	209.1
2907.996	204.1
2911.358	210.1
2914.717	225.1
2918.073	222.1
2921.426	227.1
2924.777	236.1
2928.124	240.1
2931.469	239.1
2934.811	256.1
2938.15	253.1
2941.487	271.1
2944.821	262.1
2948.152	276.1
2951.48	272.1
2954.805	276.1
2958.128	260.1
2961.447	257.1
2964.765	257.1
2968.079	255.1
2971.39	254.1
2974.699	265.1
2978.005	263.1
2981.308	268.1
2984.609	264.1
2987.907	265.1
2991.202	277.1
2994.494	272.1
2997.784	271.1
3001.07	282.1
3004.355	289.1
3007.636	286.1
3010.915	294.1
3014.191	288.1
3017.464	301.1
3020.734	286.1
3024.002	297.1
3027.267	317.1
3030.53	318.1
3033.789	323.1
3037.046	351.1
3040.301	342.1
3043.552	356.1
3046.801	365.1
3050.048	384.1
3053.291	390.1
3056.532	395.1
3059.771	421.1
3063.006	429.1
3066.239	447.1
3069.469	458.1
3072.697	470.1
3075.922	479.1
3079.144	501.1
3082.364	517.1
3085.581	534.1
3088.795	526.1
3092.007	540.1
3095.216	538.1
3098.423	555.1
3101.627	572.1
3104.828	581.1
3108.026	605.1
3111.222	611.1
3114.416	634.1
3117.607	639.1
3120.795	647.1
3123.98	663.1
3127.163	686.1
3130.344	702.1
3133.521	701.1
3136.696	744.1
3139.869	738.1
3143.039	750.1
3146.206	754.1
3149.371	767.1
3152.533	792.1
3155.693	787.1
3158.85	806.1
3162.005	800.1
3165.157	815.1
3168.306	826.1
3171.453	805.1
3174.597	814.1
3177.739	822.1
3180.878	829.1
3184.014	826.1
3187.149	839.1
3190.28	836.1
3193.409	844.1
3196.536	840.1
3199.659	860.1
3202.781	855.1
3205.9	849.1
3209.016	862.1
3212.13	856.1
3215.241	857.1
3218.35	838.1
3221.456	833.1
3224.56	817.1
3227.661	800.1
3230.76	807.1
3233.856	786.1
3236.95	790.1
3240.041	778.1
3243.13	742.1
3246.216	743.1
3249.3	733.1
3252.382	747.1
3255.46	712.1
3258.537	726.1
3261.611	707.1
3264.682	721.1
3267.751	703.1
3270.818	689.1
3273.882	681.1
3276.943	686.1
3280.002	691.1
3283.059	668.1
3286.113	676.1
3289.165	658.1
3292.214	666.1
3295.261	654.1
3298.306	643.1
3301.348	639.1
3304.387	617.1
3307.425	616.1
3310.459	624.1
3313.492	606.1
3316.521	617.1
3319.549	600.1
3322.574	591.1
3325.597	590.1
3328.617	581.1
3331.635	585.1
3334.65	583.1
3337.663	585.1
3340.674	580.1
3343.682	579.1
3346.688	569.1
3349.691	577.1
3352.692	579.1
3355.691	581.1
3358.687	560.1
3361.681	567.1
3364.673	560.1
3367.662	535.1
3370.649	543.1
3373.633	515.1
3376.615	513.1
3379.595	509.1
3382.572	509.1
3385.547	494.1
3388.52	486.1
3391.49	481.1
3394.458	475.1
3397.424	457.1
3400.387	455.1
3403.348	452.1
3406.307	458.1
3409.263	436.1
3412.217	435.1
3415.168	443.1
3418.118	427.1
3421.065	415.1
3424.009	407.1
3426.951	406.1
3429.891	390.1
3432.829	381.1
3435.764	376.1
3438.697	376.1
3441.628	347.1
3444.557	354.1
3447.483	342.1
3450.407	314.1
3453.328	308.1
3456.247	300.1
3459.164	283.1
3462.079	265.1
3464.991	260.1
3467.902	248.1
3470.809	243.1
3473.715	233.1
3476.618	227.1
3479.519	210.1
3482.418	210.1
3485.315	194.1
3488.209	184.1
3491.101	173.1
3493.99	178.1
3496.878	174.1
3499.763	151.1
3502.646	133.1
3505.527	132.1
3508.405	131.1
3511.281	120.1
3514.155	111.1
3517.027	102.1
3519.897	94.1
3522.764	90.1
3525.629	74.1
3528.492	64.1
3531.352	61.1
3534.211	52.1
3537.067	35.1
3539.921	40.1
3542.773	26.1
3545.622	16.1
3548.469	14.1
3551.315	18.1
3554.157	0.1
3556.998	-5.9
3559.837	-6.9
3562.673	-9.9
3565.507	-13.9
3568.339	-17.9
3571.169	-28.9
3573.996	-30.9
3576.822	-26.9
3579.645	-42.9
3582.466	-40.9
3585.285	-49.9
3588.101	-33.9
3590.916	-56.9
3593.728	-60.9
3596.538	-61.9
3599.346	-66.9
3602.152	-69.9
3604.956	-65.9
3607.757	-70.9
3610.556	-76.9
3613.354	-66.9
3616.149	-88.9
3618.942	-87.9
3621.732	-89.9
3624.521	-84.9
3627.307	-91.9
3630.092	-87.9
3632.874	-93.9
3635.654	-101.9
3638.432	-98.9
3641.208	-95.9
3643.982	-101.9
3646.753	-110.9
3649.523	-110.9
3652.29	-106.9
3655.055	-105.9
3657.818	-107.9
3660.579	-110.9
3663.338	-116.9
3666.095	-121.9
3668.849	-123.9
3671.602	-127.9
3674.352	-124.9
3677.101	-127.9
3679.847	-121.9
3682.591	-132.9
3685.333	-127.9
3688.073	-131.9
3690.811	-135.9
3693.547	-141.9
3696.281	-134.9
3699.013	-135.9
3701.742	-135.9
3704.47	-138.9
3707.195	-138.9
3709.919	-144.9
3712.64	-145.9
3715.359	-146.9
3718.076	-144.9
3720.792	-145.9
3723.505	-145.9
3726.216	-143.9
3728.925	-150.9
3731.632	-143.9
3734.336	-152.9
3737.039	-149.9
3739.74	-148.9
3742.439	-151.9
3745.136	-148.9
3747.83	-156.9
3750.523	-150.9
3753.213	-148.9
3755.902	-148.9
3758.589	-151.9
3761.273	-144.9
3763.956	-147.9
3766.636	-156.9
3769.315	-145.9
3771.991	-149.9
3774.665	-155.9
3777.338	-148.9
3780.008	-154.9
3782.677	-155.9
3785.343	-152.9
3788.007	-156.9
3790.67	-157.9
3793.33	-153.9
3795.989	-152.9
3798.645	-153.9
3801.299	-156.9
3803.952	-161.9
3806.602	-151.9
3809.251	-162.9
3811.897	-163.9
3814.542	-160.9
3817.184	-147.9
3819.825	-155.9
3822.463	-152.9
3825.1	-159.9
3827.735	-160.9
3830.367	-156.9
3832.998	-156.9
3835.627	-159.9
3838.253	-156.9
3840.878	-156.9
3843.501	-153.9
3846.122	-159.9
3848.741	-163.9
3851.358	-154.9
3853.973	-160.9
3856.586	-155.9
3859.197	-162.9
3861.806	-149.9
3864.414	-157.9
3867.019	-153.9
3869.622	-159.9
3872.224	-150.9
3874.823	-135.9
3877.421	-124.9
3880.016	-108.9
3882.61	-73.9
3885.202	-73.9
3887.792	-93.9
3890.38	-126.9
3892.966	-146.9
3895.55	-154.9
3898.132	-157.9
3900.713	-153.9
3903.291	-160.9
3905.868	-159.9
3908.442	-157.9
3911.015	-165.9
3913.586	-160.9
3916.155	-163.9
3918.722	-160.9
3921.287	-160.9
3923.85	-159.9
3926.411	-165.9
3928.971	-162.9
3931.528	-169.9
3934.084	-162.9
3936.638	-156.9
3939.19	-164.9
3941.74	-162.9
3944.288	-159.9
3946.834	-160.9
3949.378	-161.9
3951.921	-159.9
3954.462	-171.9
3957	-164.9
3959.537	-156.9
3962.072	-160.9
3964.606	-155.9
3967.137	-160.9
3969.667	-166.9
3972.194	-167.9
3974.72	-160.9
3977.244	-158.9
3979.766	-164.9
3982.286	-161.9
3984.805	-158.9
3987.321	-156.9
3989.836	-152.9
3992.349	-159.9
3994.86	-159.9
3997.369	-164.9
3999.877	-158.9
4002.382	-154.9
4004.886	-158.9
4007.388	-155.9
4009.888	-152.9
4012.386	-158.9
4014.883	-164.9
4017.377	-160.9
4019.87	-160.9
4022.361	-164.9
4024.85	-161.9
4027.338	-157.9
4029.823	-158.9
4032.307	-157.9
4034.789	-162.9
4037.269	-159.9
4039.747	-160.9
4042.224	-161.9
4044.699	-161.9
4047.172	-153.9
4049.643	-156.9
4052.112	-157.9
4054.58	-154.9
4057.046	-157.9
4059.51	-160.9
4061.972	-161.9
4064.432	-158.9
4066.891	-161.9
4069.348	-153.9
4071.803	-160.9
4074.256	-162.9
4076.708	-155.9
4079.158	-160.9
4081.606	-154.9
4084.052	-164.9
4086.497	-156.9
4088.939	-147.9
4091.38	-153.9
4093.819	-160.9
4096.257	-165.9
4098.693	-164.9
4101.127	-165.9
4103.559	-164.9
4105.989	-7.9
4108.418	-10.9
4110.845	-11.9
4113.27	-11.9
4115.694	-13.9
4118.115	-15.9
4120.535	-158.9
4122.954	-159.9
4125.37	-158.9
4127.785	-161.9
4130.198	-158.9
4132.609	-155.9
4135.019	-167.9
4137.427	-164.9
4139.833	-168.9
4142.237	-168.9
