Data from 2018-2-8_conc=6_n=2_RamanShift_06.txt Node
Date: Mon Mar 12 16:28:58 IST 2018
User: aro
Spectrometer: QEPB0276
Trigger mode: 0
Integration Time (sec): 3.000000E1
Scans to average: 1
Electric dark correction enabled: true
Nonlinearity correction enabled: false
Boxcar width: 0
XAxis mode: Raman Shifts
Number of Pixels in Spectrum: 1044
>>>>>Begin Spectral Data<<<<<
160.701	9.1
166.742	45.1
172.777	110.1
178.805	372.1
184.826	990.1
190.841	2143.1
196.849	3542.1
202.85	4643.1
208.845	5056.1
214.833	5079.1
220.815	4985.1
226.789	4947.1
232.758	4961.1
238.719	4937.1
244.674	4903.1
250.623	4872.1
256.565	4746.1
262.5	4691.1
268.429	4617.1
274.351	4606.1
280.267	4556.1
286.176	4524.1
292.079	4514.1
297.975	4470.1
303.865	4445.1
309.748	4420.1
315.625	4411.1
321.495	4385.1
327.359	4391.1
333.217	4393.1
339.068	4390.1
344.912	4393.1
350.751	4415.1
356.583	4415.1
362.408	4430.1
368.227	4412.1
374.04	4459.1
379.847	4452.1
385.647	4483.1
391.44	4526.1
397.228	4524.1
403.009	4532.1
408.784	4556.1
414.553	4605.1
420.315	4607.1
426.071	4586.1
431.821	4611.1
437.565	4615.1
443.302	4596.1
449.033	4574.1
454.758	4552.1
460.477	4561.1
466.189	4515.1
471.896	4500.1
477.596	4441.1
483.29	4445.1
488.978	4424.1
494.66	4408.1
500.335	4323.1
506.005	4236.1
511.668	4087.1
517.325	3992.1
522.977	3882.1
528.622	3787.1
534.261	3745.1
539.894	3700.1
545.521	3649.1
551.141	3630.1
556.756	3603.1
562.365	3587.1
567.968	3578.1
573.565	3547.1
579.155	3540.1
584.74	3504.1
590.319	3490.1
595.892	3506.1
601.459	3478.1
607.02	3477.1
612.575	3449.1
618.124	3439.1
623.667	3375.1
629.204	3335.1
634.735	3345.1
640.261	3293.1
645.781	3271.1
651.294	3285.1
656.802	3288.1
662.304	3250.1
667.8	3254.1
673.29	3236.1
678.775	3241.1
684.254	3250.1
689.726	3189.1
695.193	3220.1
700.655	3179.1
706.11	3162.1
711.56	3153.1
717.004	3119.1
722.442	3103.1
727.874	3100.1
733.301	3078.1
738.722	3053.1
744.137	3054.1
749.547	3060.1
754.951	3058.1
760.349	3083.1
765.741	3068.1
771.128	3079.1
776.509	3090.1
781.885	3121.1
787.254	3122.1
792.618	3132.1
797.977	3098.1
803.33	3075.1
808.677	3054.1
814.019	3031.1
819.355	3011.1
824.686	3007.1
830.011	2967.1
835.33	3002.1
840.644	2961.1
845.952	2969.1
851.255	2912.1
856.552	2927.1
861.844	2922.1
867.13	2899.1
872.41	2910.1
877.686	2857.1
882.955	2857.1
888.219	2839.1
893.478	2803.1
898.731	2758.1
903.979	2727.1
909.221	2700.1
914.458	2681.1
919.69	2664.1
924.916	2684.1
930.136	2701.1
935.351	2688.1
940.561	2700.1
945.766	2695.1
950.965	2685.1
956.158	2656.1
961.347	2656.1
966.529	2600.1
971.707	2545.1
976.879	2544.1
982.046	2504.1
987.208	2492.1
992.364	2486.1
997.515	2503.1
1002.66	2525.1
1007.801	2558.1
1012.936	2552.1
1018.066	2571.1
1023.19	2580.1
1028.309	2597.1
1033.423	2582.1
1038.532	2587.1
1043.636	2541.1
1048.734	2505.1
1053.827	2476.1
1058.915	2472.1
1063.998	2464.1
1069.075	2444.1
1074.147	2438.1
1079.214	2432.1
1084.276	2457.1
1089.333	2461.1
1094.385	2458.1
1099.431	2475.1
1104.472	2484.1
1109.509	2452.1
1114.54	2435.1
1119.565	2397.1
1124.586	2344.1
1129.602	2333.1
1134.613	2320.1
1139.618	2291.1
1144.619	2309.1
1149.614	2289.1
1154.604	2302.1
1159.589	2294.1
1164.57	2312.1
1169.545	2315.1
1174.515	2315.1
1179.48	2296.1
1184.44	2285.1
1189.395	2274.1
1194.345	2238.1
1199.29	2229.1
1204.23	2228.1
1209.165	2225.1
1214.095	2251.1
1219.021	2264.1
1223.941	2297.1
1228.856	2279.1
1233.766	2286.1
1238.672	2308.1
1243.572	2299.1
1248.467	2287.1
1253.358	2237.1
1258.244	2201.1
1263.124	2185.1
1268	2144.1
1272.871	2127.1
1277.737	2105.1
1282.599	2093.1
1287.455	2086.1
1292.306	2114.1
1297.153	2128.1
1301.995	2125.1
1306.832	2137.1
1311.664	2153.1
1316.491	2139.1
1321.314	2147.1
1326.132	2112.1
1330.945	2121.1
1335.753	2079.1
1340.556	2048.1
1345.354	2023.1
1350.148	1976.1
1354.937	1985.1
1359.722	1924.1
1364.501	1895.1
1369.276	1872.1
1374.046	1843.1
1378.811	1814.1
1383.572	1813.1
1388.327	1800.1
1393.079	1812.1
1397.825	1816.1
1402.567	1809.1
1407.304	1798.1
1412.036	1808.1
1416.764	1803.1
1421.487	1821.1
1426.205	1819.1
1430.919	1827.1
1435.628	1828.1
1440.333	1849.1
1445.032	1858.1
1449.727	1887.1
1454.418	1874.1
1459.104	1870.1
1463.785	1853.1
1468.462	1838.1
1473.134	1774.1
1477.802	1769.1
1482.465	1730.1
1487.123	1692.1
1491.777	1659.1
1496.426	1658.1
1501.071	1644.1
1505.711	1629.1
1510.347	1628.1
1514.978	1638.1
1519.604	1637.1
1524.226	1629.1
1528.844	1609.1
1533.457	1605.1
1538.065	1599.1
1542.669	1568.1
1547.269	1595.1
1551.864	1591.1
1556.454	1603.1
1561.041	1620.1
1565.622	1616.1
1570.199	1625.1
1574.772	1644.1
1579.34	1670.1
1583.904	1689.1
1588.464	1718.1
1593.019	1704.1
1597.569	1722.1
1602.115	1707.1
1606.657	1700.1
1611.195	1684.1
1615.728	1685.1
1620.256	1699.1
1624.78	1692.1
1629.3	1706.1
1633.816	1703.1
1638.327	1692.1
1642.834	1713.1
1647.336	1732.1
1651.834	1745.1
1656.328	1726.1
1660.817	1718.1
1665.302	1711.1
1669.783	1695.1
1674.259	1638.1
1678.732	1607.1
1683.199	1560.1
1687.663	1520.1
1692.122	1464.1
1696.577	1422.1
1701.028	1345.1
1705.474	1323.1
1709.917	1262.1
1714.355	1225.1
1718.788	1220.1
1723.218	1228.1
1727.643	1235.1
1732.064	1219.1
1736.481	1224.1
1740.893	1190.1
1745.301	1162.1
1749.705	1145.1
1754.105	1106.1
1758.501	1094.1
1762.893	1085.1
1767.28	1063.1
1771.663	1062.1
1776.042	1040.1
1780.417	1039.1
1784.787	1030.1
1789.154	1021.1
1793.516	1019.1
1797.874	1002.1
1802.228	977.1
1806.578	965.1
1810.924	962.1
1815.266	956.1
1819.603	928.1
1823.937	936.1
1828.266	958.1
1832.591	935.1
1836.913	944.1
1841.23	952.1
1845.543	935.1
1849.852	957.1
1854.156	940.1
1858.457	950.1
1862.754	936.1
1867.047	945.1
1871.335	958.1
1875.62	959.1
1879.9	952.1
1884.177	947.1
1888.449	933.1
1892.718	909.1
1896.982	898.1
1901.243	896.1
1905.499	892.1
1909.752	879.1
1914	867.1
1918.245	852.1
1922.485	856.1
1926.722	845.1
1930.954	847.1
1935.183	842.1
1939.408	827.1
1943.628	836.1
1947.845	811.1
1952.058	817.1
1956.267	808.1
1960.472	798.1
1964.673	795.1
1968.87	788.1
1973.063	772.1
1977.252	763.1
1981.438	773.1
1985.619	775.1
1989.797	770.1
1993.971	774.1
1998.14	783.1
2002.306	782.1
2006.469	765.1
2010.627	781.1
2014.781	790.1
2018.932	774.1
2023.078	778.1
2027.221	765.1
2031.36	767.1
2035.495	759.1
2039.627	738.1
2043.754	733.1
2047.878	734.1
2051.998	727.1
2056.114	715.1
2060.226	712.1
2064.334	717.1
2068.439	707.1
2072.54	701.1
2076.637	713.1
2080.73	697.1
2084.82	705.1
2088.906	702.1
2092.988	694.1
2097.066	675.1
2101.14	669.1
2105.211	665.1
2109.278	649.1
2113.342	653.1
2117.401	649.1
2121.457	642.1
2125.509	635.1
2129.558	631.1
2133.602	630.1
2137.643	617.1
2141.681	642.1
2145.714	637.1
2149.744	626.1
2153.77	622.1
2157.793	627.1
2161.812	616.1
2165.827	606.1
2169.838	614.1
2173.846	593.1
2177.851	588.1
2181.851	569.1
2185.848	583.1
2189.841	573.1
2193.831	570.1
2197.817	563.1
2201.799	570.1
2205.778	562.1
2209.753	553.1
2213.725	549.1
2217.693	548.1
2221.657	546.1
2225.618	549.1
2229.575	545.1
2233.529	534.1
2237.479	536.1
2241.425	537.1
2245.368	520.1
2249.307	510.1
2253.243	500.1
2257.175	499.1
2261.104	486.1
2265.029	493.1
2268.95	486.1
2272.868	466.1
2276.783	468.1
2280.694	460.1
2284.601	447.1
2288.505	454.1
2292.405	451.1
2296.302	432.1
2300.195	442.1
2304.085	437.1
2307.971	414.1
2311.854	425.1
2315.734	400.1
2319.609	389.1
2323.482	402.1
2327.351	398.1
2331.216	414.1
2335.078	416.1
2338.937	408.1
2342.792	383.1
2346.643	388.1
2350.492	373.1
2354.336	391.1
2358.178	390.1
2362.015	392.1
2365.85	388.1
2369.681	386.1
2373.508	386.1
2377.333	384.1
2381.153	378.1
2384.971	396.1
2388.785	394.1
2392.595	387.1
2396.402	375.1
2400.206	371.1
2404.007	364.1
2407.804	378.1
2411.597	365.1
2415.388	361.1
2419.174	365.1
2422.958	365.1
2426.738	362.1
2430.515	365.1
2434.289	350.1
2438.059	346.1
2441.825	333.1
2445.589	352.1
2449.349	332.1
2453.106	337.1
2456.859	340.1
2460.61	338.1
2464.356	323.1
2468.1	317.1
2471.84	313.1
2475.577	319.1
2479.311	303.1
2483.041	307.1
2486.768	306.1
2490.492	304.1
2494.213	304.1
2497.93	306.1
2501.644	301.1
2505.355	291.1
2509.062	294.1
2512.766	292.1
2516.467	287.1
2520.165	294.1
2523.859	285.1
2527.551	283.1
2531.239	272.1
2534.923	261.1
2538.605	259.1
2542.283	262.1
2545.958	263.1
2549.63	266.1
2553.299	255.1
2556.964	258.1
2560.626	242.1
2564.285	247.1
2567.941	254.1
2571.594	252.1
2575.243	245.1
2578.89	244.1
2582.533	245.1
2586.173	232.1
2589.809	224.1
2593.443	221.1
2597.073	224.1
2600.701	218.1
2604.325	212.1
2607.946	217.1
2611.564	220.1
2615.178	216.1
2618.79	216.1
2622.398	216.1
2626.004	214.1
2629.606	211.1
2633.205	199.1
2636.801	207.1
2640.394	200.1
2643.983	208.1
2647.57	200.1
2651.153	194.1
2654.734	191.1
2658.311	182.1
2661.885	183.1
2665.456	187.1
2669.025	187.1
2672.589	179.1
2676.151	185.1
2679.71	176.1
2683.266	167.1
2686.819	180.1
2690.368	173.1
2693.915	170.1
2697.458	170.1
2700.999	168.1
2704.536	163.1
2708.071	155.1
2711.602	161.1
2715.13	152.1
2718.656	151.1
2722.178	147.1
2725.697	147.1
2729.214	132.1
2732.727	146.1
2736.237	139.1
2739.744	135.1
2743.249	134.1
2746.75	132.1
2750.248	134.1
2753.743	127.1
2757.236	123.1
2760.725	121.1
2764.211	111.1
2767.695	117.1
2771.175	113.1
2774.652	113.1
2778.127	120.1
2781.598	116.1
2785.067	124.1
2788.532	118.1
2791.995	123.1
2795.455	120.1
2798.911	120.1
2802.365	118.1
2805.816	131.1
2809.264	120.1
2812.709	127.1
2816.151	126.1
2819.59	133.1
2823.026	122.1
2826.46	116.1
2829.89	112.1
2833.318	120.1
2836.742	121.1
2840.164	120.1
2843.583	129.1
2846.999	126.1
2850.412	120.1
2853.822	124.1
2857.229	124.1
2860.634	134.1
2864.035	142.1
2867.434	141.1
2870.83	141.1
2874.223	157.1
2877.613	152.1
2881	164.1
2884.385	159.1
2887.766	150.1
2891.145	160.1
2894.521	158.1
2897.894	167.1
2901.264	154.1
2904.631	167.1
2907.996	163.1
2911.358	167.1
2914.717	163.1
2918.073	178.1
2921.426	171.1
2924.777	189.1
2928.124	190.1
2931.469	192.1
2934.811	201.1
2938.15	200.1
2941.487	211.1
2944.821	196.1
2948.152	211.1
2951.48	209.1
2954.805	218.1
2958.128	203.1
2961.447	203.1
2964.765	208.1
2968.079	204.1
2971.39	208.1
2974.699	213.1
2978.005	206.1
2981.308	215.1
2984.609	213.1
2987.907	208.1
2991.202	214.1
2994.494	215.1
2997.784	223.1
3001.07	228.1
3004.355	228.1
3007.636	239.1
3010.915	228.1
3014.191	234.1
3017.464	247.1
3020.734	235.1
3024.002	242.1
3027.267	247.1
3030.53	248.1
3033.789	258.1
3037.046	271.1
3040.301	273.1
3043.552	282.1
3046.801	286.1
3050.048	300.1
3053.291	305.1
3056.532	326.1
3059.771	329.1
3063.006	331.1
3066.239	343.1
3069.469	363.1
3072.697	376.1
3075.922	385.1
3079.144	396.1
3082.364	407.1
3085.581	408.1
3088.795	413.1
3092.007	417.1
3095.216	427.1
3098.423	444.1
3101.627	455.1
3104.828	457.1
3108.026	462.1
3111.222	489.1
3114.416	486.1
3117.607	503.1
3120.795	511.1
3123.98	512.1
3127.163	532.1
3130.344	543.1
3133.521	563.1
3136.696	575.1
3139.869	577.1
3143.039	591.1
3146.206	596.1
3149.371	613.1
3152.533	608.1
3155.693	621.1
3158.85	620.1
3162.005	623.1
3165.157	634.1
3168.306	621.1
3171.453	622.1
3174.597	642.1
3177.739	649.1
3180.878	648.1
3184.014	669.1
3187.149	649.1
3190.28	654.1
3193.409	654.1
3196.536	666.1
3199.659	659.1
3202.781	675.1
3205.9	666.1
3209.016	663.1
3212.13	669.1
3215.241	667.1
3218.35	650.1
3221.456	652.1
3224.56	637.1
3227.661	636.1
3230.76	622.1
3233.856	614.1
3236.95	614.1
3240.041	595.1
3243.13	594.1
3246.216	592.1
3249.3	567.1
3252.382	576.1
3255.46	564.1
3258.537	564.1
3261.611	563.1
3264.682	553.1
3267.751	560.1
3270.818	554.1
3273.882	549.1
3276.943	533.1
3280.002	530.1
3283.059	523.1
3286.113	527.1
3289.165	537.1
3292.214	502.1
3295.261	512.1
3298.306	506.1
3301.348	489.1
3304.387	486.1
3307.425	485.1
3310.459	487.1
3313.492	481.1
3316.521	479.1
3319.549	468.1
3322.574	466.1
3325.597	458.1
3328.617	459.1
3331.635	467.1
3334.65	457.1
3337.663	444.1
3340.674	452.1
3343.682	456.1
3346.688	445.1
3349.691	451.1
3352.692	458.1
3355.691	437.1
3358.687	438.1
3361.681	437.1
3364.673	422.1
3367.662	427.1
3370.649	456.1
3373.633	718.1
3376.615	400.1
3379.595	394.1
3382.572	391.1
3385.547	380.1
3388.52	376.1
3391.49	383.1
3394.458	374.1
3397.424	353.1
3400.387	347.1
3403.348	350.1
3406.307	349.1
3409.263	346.1
3412.217	342.1
3415.168	340.1
3418.118	331.1
3421.065	322.1
3424.009	324.1
3426.951	314.1
3429.891	308.1
3432.829	297.1
3435.764	284.1
3438.697	285.1
3441.628	290.1
3444.557	274.1
3447.483	254.1
3450.407	247.1
3453.328	235.1
3456.247	226.1
3459.164	216.1
3462.079	208.1
3464.991	203.1
3467.902	193.1
3470.809	193.1
3473.715	170.1
3476.618	163.1
3479.519	168.1
3482.418	154.1
3485.315	159.1
3488.209	136.1
3491.101	141.1
3493.99	144.1
3496.878	127.1
3499.763	113.1
3502.646	110.1
3505.527	107.1
3508.405	102.1
3511.281	93.1
3514.155	90.1
3517.027	79.1
3519.897	64.1
3522.764	62.1
3525.629	51.1
3528.492	56.1
3531.352	43.1
3534.211	39.1
3537.067	37.1
3539.921	32.1
3542.773	17.1
3545.622	9.1
3548.469	7.1
3551.315	12.1
3554.157	1.1
3556.998	-2.9
3559.837	-2.9
3562.673	-6.9
3565.507	-11.9
3568.339	-13.9
3571.169	-27.9
3573.996	-23.9
3576.822	-25.9
3579.645	-25.9
3582.466	-23.9
3585.285	-33.9
3588.101	-28.9
3590.916	-42.9
3593.728	-58.9
3596.538	-54.9
3599.346	-51.9
3602.152	-50.9
3604.956	-55.9
3607.757	-50.9
3610.556	-57.9
3613.354	-56.9
3616.149	-64.9
3618.942	-70.9
3621.732	-65.9
3624.521	-66.9
3627.307	-69.9
3630.092	-71.9
3632.874	-71.9
3635.654	-76.9
3638.432	-78.9
3641.208	-80.9
3643.982	-84.9
3646.753	-84.9
3649.523	-83.9
3652.29	-83.9
3655.055	-87.9
3657.818	-88.9
3660.579	-91.9
3663.338	-86.9
3666.095	-98.9
3668.849	-98.9
3671.602	-92.9
3674.352	-100.9
3677.101	-100.9
3679.847	-102.9
3682.591	-105.9
3685.333	-97.9
3688.073	-105.9
3690.811	-109.9
3693.547	-107.9
3696.281	-107.9
3699.013	-109.9
3701.742	-110.9
3704.47	-109.9
3707.195	-109.9
3709.919	-108.9
3712.64	-107.9
3715.359	-110.9
3718.076	-109.9
3720.792	-116.9
3723.505	-114.9
3726.216	-111.9
3728.925	-117.9
3731.632	-112.9
3734.336	-119.9
3737.039	-114.9
3739.74	-113.9
3742.439	-121.9
3745.136	-119.9
3747.83	-125.9
3750.523	-118.9
3753.213	-120.9
3755.902	-119.9
3758.589	-125.9
3761.273	-116.9
3763.956	-113.9
3766.636	-128.9
3769.315	-118.9
3771.991	-116.9
3774.665	-125.9
3777.338	-113.9
3780.008	-117.9
3782.677	-114.9
3785.343	-125.9
3788.007	-121.9
3790.67	-124.9
3793.33	-121.9
3795.989	-117.9
3798.645	-114.9
3801.299	-122.9
3803.952	-124.9
3806.602	-124.9
3809.251	-126.9
3811.897	-129.9
3814.542	-126.9
3817.184	-124.9
3819.825	-124.9
3822.463	-122.9
3825.1	-123.9
3827.735	-121.9
3830.367	-125.9
3832.998	-126.9
3835.627	-124.9
3838.253	-121.9
3840.878	-121.9
3843.501	-118.9
3846.122	-124.9
3848.741	-128.9
3851.358	-122.9
3853.973	-130.9
3856.586	-122.9
3859.197	-132.9
3861.806	-117.9
3864.414	-128.9
3867.019	-122.9
3869.622	-122.9
3872.224	-115.9
3874.823	-107.9
3877.421	-103.9
3880.016	-73.9
3882.61	-55.9
3885.202	-56.9
3887.792	-65.9
3890.38	-93.9
3892.966	-114.9
3895.55	-116.9
3898.132	-128.9
3900.713	-129.9
3903.291	-127.9
3905.868	-126.9
3908.442	-121.9
3911.015	-127.9
3913.586	-128.9
3916.155	-129.9
3918.722	-129.9
3921.287	-128.9
3923.85	-131.9
3926.411	-128.9
3928.971	-125.9
3931.528	-124.9
3934.084	-125.9
3936.638	-120.9
3939.19	-132.9
3941.74	-129.9
3944.288	-131.9
3946.834	-122.9
3949.378	-124.9
3951.921	-126.9
3954.462	-131.9
3957	-128.9
3959.537	-123.9
3962.072	-126.9
3964.606	-125.9
3967.137	-126.9
3969.667	-126.9
3972.194	-127.9
3974.72	-127.9
3977.244	-132.9
3979.766	-128.9
3982.286	-123.9
3984.805	-128.9
3987.321	-125.9
3989.836	-119.9
3992.349	-123.9
3994.86	-125.9
3997.369	-127.9
3999.877	-125.9
4002.382	-122.9
4004.886	-123.9
4007.388	-121.9
4009.888	-121.9
4012.386	-130.9
4014.883	-120.9
4017.377	-124.9
4019.87	-120.9
4022.361	-127.9
4024.85	-126.9
4027.338	-123.9
4029.823	-120.9
4032.307	-124.9
4034.789	-129.9
4037.269	-128.9
4039.747	-121.9
4042.224	-127.9
4044.699	-128.9
4047.172	-125.9
4049.643	-122.9
4052.112	-122.9
4054.58	-125.9
4057.046	-124.9
4059.51	-125.9
4061.972	-126.9
4064.432	-120.9
4066.891	-124.9
4069.348	-119.9
4071.803	-124.9
4074.256	-123.9
4076.708	-119.9
4079.158	-123.9
4081.606	-117.9
4084.052	-128.9
4086.497	-124.9
4088.939	-114.9
4091.38	-124.9
4093.819	-120.9
4096.257	-131.9
4098.693	-125.9
4101.127	-132.9
4103.559	-126.9
4105.989	-2.9
4108.418	-7.9
4110.845	-7.9
4113.27	-4.9
4115.694	-13.9
4118.115	-3.9
4120.535	-126.9
4122.954	-126.9
4125.37	-121.9
4127.785	-126.9
4130.198	-121.9
4132.609	-128.9
4135.019	-131.9
4137.427	-134.9
4139.833	-134.9
4142.237	-134.9
