Data from 2018-2-8_conc=2_n=2_RamanShift_03.txt Node
Date: Mon Mar 12 13:59:28 IST 2018
User: aro
Spectrometer: QEPB0276
Trigger mode: 0
Integration Time (sec): 3.000000E1
Scans to average: 1
Electric dark correction enabled: true
Nonlinearity correction enabled: false
Boxcar width: 0
XAxis mode: Raman Shifts
Number of Pixels in Spectrum: 1044
>>>>>Begin Spectral Data<<<<<
160.701	10.1
166.742	44.1
172.777	127.1
178.805	396.1
184.826	1086.1
190.841	2351.1
196.849	3923.1
202.85	5141.1
208.845	5627.1
214.833	5625.1
220.815	5548.1
226.789	5545.1
232.758	5550.1
238.719	5538.1
244.674	5500.1
250.623	5421.1
256.565	5352.1
262.5	5256.1
268.429	5184.1
274.351	5174.1
280.267	5114.1
286.176	5081.1
292.079	5048.1
297.975	5055.1
303.865	5022.1
309.748	5017.1
315.625	5014.1
321.495	4958.1
327.359	4964.1
333.217	4979.1
339.068	4979.1
344.912	4989.1
350.751	4985.1
356.583	5000.1
362.408	5011.1
368.227	5009.1
374.04	5045.1
379.847	5054.1
385.647	5080.1
391.44	5068.1
397.228	5112.1
403.009	5128.1
408.784	5166.1
414.553	5155.1
420.315	5179.1
426.071	5200.1
431.821	5193.1
437.565	5187.1
443.302	5158.1
449.033	5175.1
454.758	5138.1
460.477	5074.1
466.189	5110.1
471.896	5058.1
477.596	4994.1
483.29	4976.1
488.978	4997.1
494.66	4985.1
500.335	4938.1
506.005	4813.1
511.668	4656.1
517.325	4540.1
522.977	4427.1
528.622	4391.1
534.261	4285.1
539.894	4258.1
545.521	4201.1
551.141	4192.1
556.756	4147.1
562.365	4126.1
567.968	4128.1
573.565	4097.1
579.155	4052.1
584.74	4052.1
590.319	4033.1
595.892	4022.1
601.459	4001.1
607.02	4011.1
612.575	3957.1
618.124	3937.1
623.667	3882.1
629.204	3880.1
634.735	3837.1
640.261	3815.1
645.781	3798.1
651.294	3792.1
656.802	3787.1
662.304	3782.1
667.8	3752.1
673.29	3746.1
678.775	3749.1
684.254	3715.1
689.726	3685.1
695.193	3699.1
700.655	3672.1
706.11	3669.1
711.56	3648.1
717.004	3633.1
722.442	3605.1
727.874	3579.1
733.301	3566.1
738.722	3545.1
744.137	3568.1
749.547	3534.1
754.951	3541.1
760.349	3552.1
765.741	3540.1
771.128	3578.1
776.509	3589.1
781.885	3586.1
787.254	3576.1
792.618	3598.1
797.977	3576.1
803.33	3536.1
808.677	3513.1
814.019	3490.1
819.355	3465.1
824.686	3421.1
830.011	3437.1
835.33	3403.1
840.644	3425.1
845.952	3399.1
851.255	3394.1
856.552	3404.1
861.844	3378.1
867.13	3381.1
872.41	3349.1
877.686	3327.1
882.955	3322.1
888.219	3298.1
893.478	3221.1
898.731	3197.1
903.979	3152.1
909.221	3129.1
914.458	3108.1
919.69	3101.1
924.916	3121.1
930.136	3133.1
935.351	3116.1
940.561	3117.1
945.766	3118.1
950.965	3076.1
956.158	3071.1
961.347	3045.1
966.529	3023.1
971.707	2976.1
976.879	2942.1
982.046	2911.1
987.208	2892.1
992.364	2889.1
997.515	2897.1
1002.66	2919.1
1007.801	2968.1
1012.936	2963.1
1018.066	2962.1
1023.19	2978.1
1028.309	2991.1
1033.423	2996.1
1038.532	2966.1
1043.636	2956.1
1048.734	2907.1
1053.827	2890.1
1058.915	2871.1
1063.998	2814.1
1069.075	2813.1
1074.147	2827.1
1079.214	2826.1
1084.276	2825.1
1089.333	2834.1
1094.385	2863.1
1099.431	2866.1
1104.472	2847.1
1109.509	2842.1
1114.54	2830.1
1119.565	2752.1
1124.586	2729.1
1129.602	2701.1
1134.613	2669.1
1139.618	2642.1
1144.619	2646.1
1149.614	2623.1
1154.604	2632.1
1159.589	2679.1
1164.57	2674.1
1169.545	2664.1
1174.515	2670.1
1179.48	2655.1
1184.44	2640.1
1189.395	2613.1
1194.345	2584.1
1199.29	2577.1
1204.23	2578.1
1209.165	2576.1
1214.095	2583.1
1219.021	2622.1
1223.941	2603.1
1228.856	2625.1
1233.766	2632.1
1238.672	2627.1
1243.572	2628.1
1248.467	2633.1
1253.358	2592.1
1258.244	2545.1
1263.124	2502.1
1268	2467.1
1272.871	2431.1
1277.737	2421.1
1282.599	2429.1
1287.455	2406.1
1292.306	2398.1
1297.153	2397.1
1301.995	2416.1
1306.832	2437.1
1311.664	2471.1
1316.491	2454.1
1321.314	2446.1
1326.132	2449.1
1330.945	2430.1
1335.753	2381.1
1340.556	2340.1
1345.354	2301.1
1350.148	2266.1
1354.937	2240.1
1359.722	2186.1
1364.501	2159.1
1369.276	2111.1
1374.046	2076.1
1378.811	2055.1
1383.572	2052.1
1388.327	2054.1
1393.079	2074.1
1397.825	2054.1
1402.567	2056.1
1407.304	2056.1
1412.036	2063.1
1416.764	2076.1
1421.487	2064.1
1426.205	2075.1
1430.919	2084.1
1435.628	2082.1
1440.333	2084.1
1445.032	2124.1
1449.727	2146.1
1454.418	2156.1
1459.104	2145.1
1463.785	2106.1
1468.462	2082.1
1473.134	2032.1
1477.802	1993.1
1482.465	1947.1
1487.123	1907.1
1491.777	1863.1
1496.426	1857.1
1501.071	1835.1
1505.711	1826.1
1510.347	1829.1
1514.978	1840.1
1519.604	1823.1
1524.226	1825.1
1528.844	1804.1
1533.457	1798.1
1538.065	1786.1
1542.669	1778.1
1547.269	1774.1
1551.864	1791.1
1556.454	1809.1
1561.041	1822.1
1565.622	1848.1
1570.199	1830.1
1574.772	1858.1
1579.34	1870.1
1583.904	1901.1
1588.464	1906.1
1593.019	1938.1
1597.569	1940.1
1602.115	1931.1
1606.657	1917.1
1611.195	1903.1
1615.728	1886.1
1620.256	1892.1
1624.78	1897.1
1629.3	1900.1
1633.816	1910.1
1638.327	1906.1
1642.834	1923.1
1647.336	1931.1
1651.834	1953.1
1656.328	1919.1
1660.817	1940.1
1665.302	1907.1
1669.783	1866.1
1674.259	1827.1
1678.732	1779.1
1683.199	1748.1
1687.663	1676.1
1692.122	1623.1
1696.577	1545.1
1701.028	1498.1
1705.474	1437.1
1709.917	1401.1
1714.355	1373.1
1718.788	1357.1
1723.218	1362.1
1727.643	1348.1
1732.064	1373.1
1736.481	1349.1
1740.893	1316.1
1745.301	1285.1
1749.705	1268.1
1754.105	1235.1
1758.501	1221.1
1762.893	1207.1
1767.28	1187.1
1771.663	1190.1
1776.042	1163.1
1780.417	1139.1
1784.787	1137.1
1789.154	1121.1
1793.516	1118.1
1797.874	1096.1
1802.228	1083.1
1806.578	1072.1
1810.924	1070.1
1815.266	1039.1
1819.603	1044.1
1823.937	1056.1
1828.266	1051.1
1832.591	1038.1
1836.913	1045.1
1841.23	1064.1
1845.543	1058.1
1849.852	1051.1
1854.156	1042.1
1858.457	1050.1
1862.754	1034.1
1867.047	1028.1
1871.335	1051.1
1875.62	1047.1
1879.9	1043.1
1884.177	1031.1
1888.449	1042.1
1892.718	994.1
1896.982	990.1
1901.243	986.1
1905.499	969.1
1909.752	962.1
1914	940.1
1918.245	937.1
1922.485	917.1
1926.722	911.1
1930.954	897.1
1935.183	909.1
1939.408	910.1
1943.628	884.1
1947.845	895.1
1952.058	881.1
1956.267	876.1
1960.472	862.1
1964.673	861.1
1968.87	856.1
1973.063	856.1
1977.252	841.1
1981.438	852.1
1985.619	855.1
1989.797	839.1
1993.971	827.1
1998.14	855.1
2002.306	853.1
2006.469	856.1
2010.627	858.1
2014.781	858.1
2018.932	861.1
2023.078	854.1
2027.221	832.1
2031.36	838.1
2035.495	820.1
2039.627	812.1
2043.754	803.1
2047.878	798.1
2051.998	789.1
2056.114	782.1
2060.226	778.1
2064.334	794.1
2068.439	768.1
2072.54	774.1
2076.637	775.1
2080.73	777.1
2084.82	759.1
2088.906	765.1
2092.988	753.1
2097.066	752.1
2101.14	735.1
2105.211	722.1
2109.278	707.1
2113.342	696.1
2117.401	706.1
2121.457	694.1
2125.509	687.1
2129.558	682.1
2133.602	689.1
2137.643	697.1
2141.681	674.1
2145.714	687.1
2149.744	683.1
2153.77	701.1
2157.793	683.1
2161.812	693.1
2165.827	665.1
2169.838	665.1
2173.846	643.1
2177.851	648.1
2181.851	627.1
2185.848	633.1
2189.841	617.1
2193.831	625.1
2197.817	622.1
2201.799	613.1
2205.778	611.1
2209.753	609.1
2213.725	599.1
2217.693	615.1
2221.657	611.1
2225.618	603.1
2229.575	607.1
2233.529	594.1
2237.479	597.1
2241.425	580.1
2245.368	573.1
2249.307	575.1
2253.243	569.1
2257.175	543.1
2261.104	532.1
2265.029	537.1
2268.95	533.1
2272.868	513.1
2276.783	518.1
2280.694	510.1
2284.601	505.1
2288.505	492.1
2292.405	488.1
2296.302	493.1
2300.195	488.1
2304.085	476.1
2307.971	465.1
2311.854	460.1
2315.734	451.1
2319.609	451.1
2323.482	457.1
2327.351	439.1
2331.216	450.1
2335.078	458.1
2338.937	451.1
2342.792	428.1
2346.643	424.1
2350.492	436.1
2354.336	432.1
2358.178	438.1
2362.015	445.1
2365.85	433.1
2369.681	431.1
2373.508	432.1
2377.333	433.1
2381.153	437.1
2384.971	441.1
2388.785	440.1
2392.595	412.1
2396.402	426.1
2400.206	415.1
2404.007	408.1
2407.804	408.1
2411.597	414.1
2415.388	410.1
2419.174	409.1
2422.958	402.1
2426.738	399.1
2430.515	392.1
2434.289	387.1
2438.059	386.1
2441.825	381.1
2445.589	399.1
2449.349	377.1
2453.106	369.1
2456.859	378.1
2460.61	364.1
2464.356	356.1
2468.1	347.1
2471.84	345.1
2475.577	352.1
2479.311	339.1
2483.041	341.1
2486.768	342.1
2490.492	338.1
2494.213	340.1
2497.93	337.1
2501.644	325.1
2505.355	326.1
2509.062	316.1
2512.766	327.1
2516.467	311.1
2520.165	315.1
2523.859	314.1
2527.551	303.1
2531.239	292.1
2534.923	298.1
2538.605	283.1
2542.283	292.1
2545.958	283.1
2549.63	279.1
2553.299	278.1
2556.964	284.1
2560.626	275.1
2564.285	273.1
2567.941	264.1
2571.594	269.1
2575.243	265.1
2578.89	259.1
2582.533	253.1
2586.173	249.1
2589.809	245.1
2593.443	248.1
2597.073	254.1
2600.701	241.1
2604.325	242.1
2607.946	234.1
2611.564	238.1
2615.178	237.1
2618.79	227.1
2622.398	242.1
2626.004	236.1
2629.606	231.1
2633.205	230.1
2636.801	225.1
2640.394	217.1
2643.983	224.1
2647.57	214.1
2651.153	223.1
2654.734	210.1
2658.311	209.1
2661.885	202.1
2665.456	206.1
2669.025	206.1
2672.589	199.1
2676.151	189.1
2679.71	207.1
2683.266	193.1
2686.819	192.1
2690.368	188.1
2693.915	180.1
2697.458	174.1
2700.999	182.1
2704.536	180.1
2708.071	174.1
2711.602	170.1
2715.13	172.1
2718.656	164.1
2722.178	161.1
2725.697	155.1
2729.214	151.1
2732.727	161.1
2736.237	160.1
2739.744	155.1
2743.249	148.1
2746.75	150.1
2750.248	143.1
2753.743	139.1
2757.236	130.1
2760.725	132.1
2764.211	127.1
2767.695	129.1
2771.175	127.1
2774.652	127.1
2778.127	132.1
2781.598	125.1
2785.067	125.1
2788.532	126.1
2791.995	116.1
2795.455	122.1
2798.911	129.1
2802.365	129.1
2805.816	138.1
2809.264	120.1
2812.709	125.1
2816.151	121.1
2819.59	127.1
2823.026	132.1
2826.46	121.1
2829.89	133.1
2833.318	117.1
2836.742	140.1
2840.164	126.1
2843.583	126.1
2846.999	139.1
2850.412	131.1
2853.822	140.1
2857.229	137.1
2860.634	134.1
2864.035	147.1
2867.434	147.1
2870.83	151.1
2874.223	165.1
2877.613	163.1
2881	176.1
2884.385	176.1
2887.766	164.1
2891.145	165.1
2894.521	171.1
2897.894	176.1
2901.264	184.1
2904.631	179.1
2907.996	172.1
2911.358	184.1
2914.717	178.1
2918.073	191.1
2921.426	196.1
2924.777	201.1
2928.124	206.1
2931.469	208.1
2934.811	216.1
2938.15	214.1
2941.487	211.1
2944.821	220.1
2948.152	225.1
2951.48	227.1
2954.805	223.1
2958.128	226.1
2961.447	213.1
2964.765	218.1
2968.079	223.1
2971.39	212.1
2974.699	220.1
2978.005	224.1
2981.308	217.1
2984.609	222.1
2987.907	224.1
2991.202	227.1
2994.494	222.1
2997.784	227.1
3001.07	236.1
3004.355	241.1
3007.636	233.1
3010.915	250.1
3014.191	241.1
3017.464	251.1
3020.734	254.1
3024.002	250.1
3027.267	267.1
3030.53	274.1
3033.789	275.1
3037.046	281.1
3040.301	279.1
3043.552	292.1
3046.801	290.1
3050.048	315.1
3053.291	316.1
3056.532	333.1
3059.771	345.1
3063.006	351.1
3066.239	359.1
3069.469	376.1
3072.697	394.1
3075.922	395.1
3079.144	409.1
3082.364	418.1
3085.581	427.1
3088.795	430.1
3092.007	439.1
3095.216	444.1
3098.423	468.1
3101.627	481.1
3104.828	482.1
3108.026	485.1
3111.222	501.1
3114.416	507.1
3117.607	516.1
3120.795	533.1
3123.98	550.1
3127.163	549.1
3130.344	574.1
3133.521	585.1
3136.696	589.1
3139.869	599.1
3143.039	612.1
3146.206	614.1
3149.371	636.1
3152.533	643.1
3155.693	655.1
3158.85	667.1
3162.005	657.1
3165.157	653.1
3168.306	651.1
3171.453	661.1
3174.597	671.1
3177.739	675.1
3180.878	678.1
3184.014	687.1
3187.149	674.1
3190.28	682.1
3193.409	679.1
3196.536	690.1
3199.659	715.1
3202.781	691.1
3205.9	701.1
3209.016	704.1
3212.13	697.1
3215.241	687.1
3218.35	686.1
3221.456	680.1
3224.56	668.1
3227.661	660.1
3230.76	650.1
3233.856	651.1
3236.95	645.1
3240.041	622.1
3243.13	615.1
3246.216	608.1
3249.3	599.1
3252.382	593.1
3255.46	596.1
3258.537	589.1
3261.611	586.1
3264.682	584.1
3267.751	585.1
3270.818	568.1
3273.882	570.1
3276.943	565.1
3280.002	555.1
3283.059	559.1
3286.113	552.1
3289.165	542.1
3292.214	541.1
3295.261	529.1
3298.306	531.1
3301.348	519.1
3304.387	504.1
3307.425	498.1
3310.459	503.1
3313.492	493.1
3316.521	493.1
3319.549	491.1
3322.574	485.1
3325.597	484.1
3328.617	488.1
3331.635	490.1
3334.65	475.1
3337.663	468.1
3340.674	489.1
3343.682	471.1
3346.688	462.1
3349.691	475.1
3352.692	464.1
3355.691	455.1
3358.687	457.1
3361.681	459.1
3364.673	452.1
3367.662	433.1
3370.649	433.1
3373.633	422.1
3376.615	418.1
3379.595	401.1
3382.572	408.1
3385.547	401.1
3388.52	392.1
3391.49	389.1
3394.458	383.1
3397.424	373.1
3400.387	378.1
3403.348	365.1
3406.307	361.1
3409.263	356.1
3412.217	356.1
3415.168	352.1
3418.118	351.1
3421.065	346.1
3424.009	335.1
3426.951	332.1
3429.891	315.1
3432.829	302.1
3435.764	303.1
3438.697	296.1
3441.628	287.1
3444.557	287.1
3447.483	268.1
3450.407	254.1
3453.328	239.1
3456.247	243.1
3459.164	222.1
3462.079	212.1
3464.991	198.1
3467.902	198.1
3470.809	195.1
3473.715	182.1
3476.618	179.1
3479.519	167.1
3482.418	168.1
3485.315	150.1
3488.209	149.1
3491.101	142.1
3493.99	145.1
3496.878	131.1
3499.763	119.1
3502.646	112.1
3505.527	103.1
3508.405	105.1
3511.281	99.1
3514.155	91.1
3517.027	81.1
3519.897	72.1
3522.764	66.1
3525.629	54.1
3528.492	47.1
3531.352	47.1
3534.211	29.1
3537.067	21.1
3539.921	28.1
3542.773	20.1
3545.622	12.1
3548.469	6.1
3551.315	5.1
3554.157	-0.9
3556.998	-15.9
3559.837	-16.9
3562.673	-15.9
3565.507	-8.9
3568.339	-18.9
3571.169	-30.9
3573.996	-24.9
3576.822	-28.9
3579.645	-31.9
3582.466	-34.9
3585.285	-48.9
3588.101	-31.9
3590.916	-54.9
3593.728	-52.9
3596.538	-49.9
3599.346	-58.9
3602.152	-59.9
3604.956	-59.9
3607.757	-56.9
3610.556	-62.9
3613.354	-67.9
3616.149	-77.9
3618.942	-74.9
3621.732	-73.9
3624.521	-84.9
3627.307	-79.9
3630.092	-87.9
3632.874	-83.9
3635.654	-79.9
3638.432	-85.9
3641.208	-80.9
3643.982	-86.9
3646.753	-97.9
3649.523	-100.9
3652.29	-95.9
3655.055	-95.9
3657.818	-97.9
3660.579	-93.9
3663.338	-100.9
3666.095	-104.9
3668.849	-104.9
3671.602	-105.9
3674.352	-106.9
3677.101	-109.9
3679.847	-113.9
3682.591	-109.9
3685.333	-107.9
3688.073	-112.9
3690.811	-114.9
3693.547	-123.9
3696.281	-120.9
3699.013	-115.9
3701.742	-119.9
3704.47	-123.9
3707.195	-118.9
3709.919	-116.9
3712.64	-124.9
3715.359	-125.9
3718.076	-127.9
3720.792	-125.9
3723.505	-127.9
3726.216	-122.9
3728.925	-124.9
3731.632	-125.9
3734.336	-137.9
3737.039	-126.9
3739.74	-128.9
3742.439	-133.9
3745.136	-129.9
3747.83	-133.9
3750.523	-133.9
3753.213	-133.9
3755.902	-130.9
3758.589	-134.9
3761.273	-128.9
3763.956	-121.9
3766.636	-132.9
3769.315	-128.9
3771.991	-129.9
3774.665	-134.9
3777.338	-125.9
3780.008	-128.9
3782.677	-132.9
3785.343	-133.9
3788.007	-134.9
3790.67	-133.9
3793.33	-132.9
3795.989	-134.9
3798.645	-130.9
3801.299	-130.9
3803.952	-141.9
3806.602	-132.9
3809.251	-140.9
3811.897	-141.9
3814.542	-139.9
3817.184	-124.9
3819.825	-131.9
3822.463	-135.9
3825.1	-131.9
3827.735	-132.9
3830.367	-138.9
3832.998	-136.9
3835.627	-134.9
3838.253	-134.9
3840.878	-133.9
3843.501	-129.9
3846.122	-138.9
3848.741	-140.9
3851.358	-137.9
3853.973	-139.9
3856.586	-139.9
3859.197	-146.9
3861.806	-129.9
3864.414	-134.9
3867.019	-132.9
3869.622	-136.9
3872.224	-127.9
3874.823	-116.9
3877.421	-104.9
3880.016	-80.9
3882.61	-55.9
3885.202	-58.9
3887.792	-79.9
3890.38	-103.9
3892.966	-129.9
3895.55	-130.9
3898.132	-133.9
3900.713	-131.9
3903.291	-138.9
3905.868	-140.9
3908.442	-131.9
3911.015	-142.9
3913.586	-141.9
3916.155	-142.9
3918.722	-140.9
3921.287	-138.9
3923.85	-136.9
3926.411	-137.9
3928.971	-134.9
3931.528	-144.9
3934.084	-139.9
3936.638	-138.9
3939.19	-142.9
3941.74	-139.9
3944.288	-137.9
3946.834	-133.9
3949.378	-134.9
3951.921	-136.9
3954.462	-149.9
3957	-140.9
3959.537	-136.9
3962.072	-137.9
3964.606	-135.9
3967.137	-138.9
3969.667	-137.9
3972.194	-141.9
3974.72	-139.9
3977.244	-139.9
3979.766	-140.9
3982.286	-135.9
3984.805	-136.9
3987.321	-134.9
3989.836	-127.9
3992.349	-136.9
3994.86	-140.9
3997.369	-133.9
3999.877	-139.9
4002.382	-132.9
4004.886	-137.9
4007.388	-132.9
4009.888	-134.9
4012.386	-141.9
4014.883	-138.9
4017.377	-134.9
4019.87	-131.9
4022.361	-138.9
4024.85	-135.9
4027.338	-129.9
4029.823	-134.9
4032.307	-133.9
4034.789	-142.9
4037.269	-135.9
4039.747	-133.9
4042.224	-138.9
4044.699	-136.9
4047.172	-132.9
4049.643	-136.9
4052.112	-137.9
4054.58	-138.9
4057.046	-136.9
4059.51	-138.9
4061.972	-134.9
4064.432	-136.9
4066.891	-132.9
4069.348	-135.9
4071.803	-137.9
4074.256	-137.9
4076.708	-135.9
4079.158	-136.9
4081.606	-129.9
4084.052	-142.9
4086.497	-130.9
4088.939	-132.9
4091.38	-136.9
4093.819	-137.9
4096.257	-143.9
4098.693	-139.9
4101.127	-140.9
4103.559	-139.9
4105.989	-2.9
4108.418	-9.9
4110.845	-5.9
4113.27	-2.9
4115.694	-9.9
4118.115	-5.9
4120.535	-137.9
4122.954	-141.9
4125.37	-134.9
4127.785	-135.9
4130.198	-136.9
4132.609	-135.9
4135.019	-144.9
4137.427	-146.9
4139.833	-142.9
4142.237	-142.9
