Data from 2018-2-8_conc=6_n=6_RamanShift_03.txt Node
Date: Mon Mar 12 16:39:57 IST 2018
User: aro
Spectrometer: QEPB0276
Trigger mode: 0
Integration Time (sec): 3.000000E1
Scans to average: 1
Electric dark correction enabled: true
Nonlinearity correction enabled: false
Boxcar width: 0
XAxis mode: Raman Shifts
Number of Pixels in Spectrum: 1044
>>>>>Begin Spectral Data<<<<<
160.701	10
166.742	51
172.777	137
178.805	421
184.826	1145
190.841	2450
196.849	4069
202.85	5307
208.845	5797
214.833	5806
220.815	5710
226.789	5663
232.758	5687
238.719	5692
244.674	5652
250.623	5582
256.565	5515
262.5	5377
268.429	5314
274.351	5262
280.267	5234
286.176	5208
292.079	5165
297.975	5163
303.865	5142
309.748	5110
315.625	5082
321.495	5086
327.359	5072
333.217	5077
339.068	5081
344.912	5098
350.751	5095
356.583	5126
362.408	5093
368.227	5124
374.04	5163
379.847	5174
385.647	5185
391.44	5168
397.228	5210
403.009	5251
408.784	5254
414.553	5281
420.315	5299
426.071	5327
431.821	5303
437.565	5313
443.302	5287
449.033	5268
454.758	5266
460.477	5208
466.189	5214
471.896	5120
477.596	5151
483.29	5103
488.978	5106
494.66	5091
500.335	5005
506.005	4904
511.668	4755
517.325	4594
522.977	4505
528.622	4428
534.261	4355
539.894	4303
545.521	4274
551.141	4212
556.756	4203
562.365	4189
567.968	4137
573.565	4148
579.155	4105
584.74	4103
590.319	4058
595.892	4068
601.459	4073
607.02	4042
612.575	4032
618.124	3986
623.667	3940
629.204	3906
634.735	3864
640.261	3846
645.781	3830
651.294	3834
656.802	3810
662.304	3801
667.8	3762
673.29	3771
678.775	3758
684.254	3746
689.726	3765
695.193	3738
700.655	3717
706.11	3695
711.56	3672
717.004	3649
722.442	3639
727.874	3609
733.301	3599
738.722	3594
744.137	3603
749.547	3595
754.951	3588
760.349	3571
765.741	3571
771.128	3599
776.509	3588
781.885	3633
787.254	3642
792.618	3652
797.977	3625
803.33	3576
808.677	3562
814.019	3550
819.355	3508
824.686	3491
830.011	3481
835.33	3480
840.644	3450
845.952	3450
851.255	3445
856.552	3445
861.844	3430
867.13	3411
872.41	3373
877.686	3357
882.955	3351
888.219	3289
893.478	3274
898.731	3222
903.979	3185
909.221	3163
914.458	3133
919.69	3139
924.916	3135
930.136	3143
935.351	3137
940.561	3170
945.766	3160
950.965	3141
956.158	3110
961.347	3111
966.529	3010
971.707	2994
976.879	2963
982.046	2917
987.208	2918
992.364	2915
997.515	2929
1002.66	2951
1007.801	3005
1012.936	3011
1018.066	3001
1023.19	3007
1028.309	3027
1033.423	3013
1038.532	3000
1043.636	2957
1048.734	2949
1053.827	2921
1058.915	2869
1063.998	2860
1069.075	2842
1074.147	2845
1079.214	2849
1084.276	2854
1089.333	2868
1094.385	2898
1099.431	2877
1104.472	2872
1109.509	2889
1114.54	2829
1119.565	2788
1124.586	2757
1129.602	2724
1134.613	2701
1139.618	2675
1144.619	2681
1149.614	2679
1154.604	2682
1159.589	2703
1164.57	2695
1169.545	2708
1174.515	2734
1179.48	2683
1184.44	2697
1189.395	2653
1194.345	2622
1199.29	2618
1204.23	2612
1209.165	2601
1214.095	2629
1219.021	2659
1223.941	2644
1228.856	2673
1233.766	2665
1238.672	2679
1243.572	2681
1248.467	2644
1253.358	2630
1258.244	2568
1263.124	2548
1268	2499
1272.871	2477
1277.737	2463
1282.599	2444
1287.455	2431
1292.306	2442
1297.153	2450
1301.995	2462
1306.832	2491
1311.664	2521
1316.491	2493
1321.314	2504
1326.132	2501
1330.945	2443
1335.753	2417
1340.556	2371
1345.354	2362
1350.148	2328
1354.937	2279
1359.722	2232
1364.501	2211
1369.276	2175
1374.046	2149
1378.811	2111
1383.572	2106
1388.327	2108
1393.079	2105
1397.825	2110
1402.567	2088
1407.304	2103
1412.036	2105
1416.764	2107
1421.487	2109
1426.205	2122
1430.919	2122
1435.628	2146
1440.333	2152
1445.032	2162
1449.727	2188
1454.418	2186
1459.104	2190
1463.785	2154
1468.462	2125
1473.134	2085
1477.802	2041
1482.465	1992
1487.123	1965
1491.777	1947
1496.426	1929
1501.071	1910
1505.711	1886
1510.347	1880
1514.978	1889
1519.604	1886
1524.226	1887
1528.844	1894
1533.457	1870
1538.065	1862
1542.669	1852
1547.269	1824
1551.864	1847
1556.454	1866
1561.041	1868
1565.622	1895
1570.199	1906
1574.772	1932
1579.34	1942
1583.904	1954
1588.464	1963
1593.019	1973
1597.569	2000
1602.115	1990
1606.657	1967
1611.195	1974
1615.728	1962
1620.256	1958
1624.78	1944
1629.3	1965
1633.816	1966
1638.327	1971
1642.834	1991
1647.336	2005
1651.834	2001
1656.328	2006
1660.817	1995
1665.302	1966
1669.783	1945
1674.259	1899
1678.732	1849
1683.199	1800
1687.663	1746
1692.122	1683
1696.577	1632
1701.028	1559
1705.474	1508
1709.917	1451
1714.355	1425
1718.788	1428
1723.218	1446
1727.643	1416
1732.064	1407
1736.481	1399
1740.893	1359
1745.301	1356
1749.705	1312
1754.105	1299
1758.501	1270
1762.893	1248
1767.28	1232
1771.663	1218
1776.042	1217
1780.417	1189
1784.787	1188
1789.154	1175
1793.516	1180
1797.874	1152
1802.228	1150
1806.578	1126
1810.924	1113
1815.266	1096
1819.603	1109
1823.937	1099
1828.266	1112
1832.591	1100
1836.913	1084
1841.23	1091
1845.543	1100
1849.852	1086
1854.156	1096
1858.457	1108
1862.754	1109
1867.047	1097
1871.335	1096
1875.62	1097
1879.9	1098
1884.177	1088
1888.449	1075
1892.718	1057
1896.982	1027
1901.243	1035
1905.499	1023
1909.752	1007
1914	993
1918.245	993
1922.485	973
1926.722	973
1930.954	966
1935.183	952
1939.408	952
1943.628	953
1947.845	938
1952.058	932
1956.267	930
1960.472	912
1964.673	903
1968.87	895
1973.063	889
1977.252	902
1981.438	893
1985.619	893
1989.797	879
1993.971	883
1998.14	911
2002.306	900
2006.469	899
2010.627	894
2014.781	913
2018.932	899
2023.078	897
2027.221	896
2031.36	891
2035.495	862
2039.627	851
2043.754	841
2047.878	838
2051.998	820
2056.114	831
2060.226	824
2064.334	825
2068.439	819
2072.54	829
2076.637	820
2080.73	811
2084.82	817
2088.906	801
2092.988	804
2097.066	786
2101.14	765
2105.211	772
2109.278	751
2113.342	752
2117.401	736
2121.457	732
2125.509	728
2129.558	743
2133.602	734
2137.643	731
2141.681	721
2145.714	719
2149.744	726
2153.77	728
2157.793	726
2161.812	719
2165.827	705
2169.838	712
2173.846	688
2177.851	673
2181.851	670
2185.848	651
2189.841	656
2193.831	657
2197.817	643
2201.799	640
2205.778	638
2209.753	639
2213.725	636
2217.693	638
2221.657	647
2225.618	644
2229.575	636
2233.529	630
2237.479	612
2241.425	611
2245.368	594
2249.307	598
2253.243	575
2257.175	571
2261.104	580
2265.029	549
2268.95	568
2272.868	541
2276.783	545
2280.694	541
2284.601	544
2288.505	525
2292.405	522
2296.302	514
2300.195	503
2304.085	504
2307.971	492
2311.854	486
2315.734	482
2319.609	468
2323.482	460
2327.351	474
2331.216	471
2335.078	482
2338.937	474
2342.792	444
2346.643	452
2350.492	444
2354.336	444
2358.178	447
2362.015	460
2365.85	450
2369.681	452
2373.508	450
2377.333	447
2381.153	454
2384.971	454
2388.785	451
2392.595	427
2396.402	442
2400.206	435
2404.007	422
2407.804	426
2411.597	432
2415.388	426
2419.174	427
2422.958	400
2426.738	419
2430.515	406
2434.289	422
2438.059	396
2441.825	402
2445.589	397
2449.349	392
2453.106	377
2456.859	387
2460.61	389
2464.356	379
2468.1	370
2471.84	367
2475.577	383
2479.311	362
2483.041	354
2486.768	359
2490.492	354
2494.213	355
2497.93	353
2501.644	349
2505.355	338
2509.062	347
2512.766	343
2516.467	345
2520.165	330
2523.859	333
2527.551	326
2531.239	308
2534.923	303
2538.605	311
2542.283	309
2545.958	301
2549.63	301
2553.299	290
2556.964	299
2560.626	293
2564.285	286
2567.941	290
2571.594	281
2575.243	285
2578.89	270
2582.533	264
2586.173	261
2589.809	247
2593.443	263
2597.073	262
2600.701	250
2604.325	250
2607.946	245
2611.564	249
2615.178	251
2618.79	250
2622.398	257
2626.004	239
2629.606	237
2633.205	232
2636.801	239
2640.394	242
2643.983	234
2647.57	230
2651.153	230
2654.734	220
2658.311	219
2661.885	218
2665.456	216
2669.025	221
2672.589	223
2676.151	221
2679.71	208
2683.266	203
2686.819	208
2690.368	197
2693.915	199
2697.458	192
2700.999	195
2704.536	180
2708.071	188
2711.602	183
2715.13	181
2718.656	169
2722.178	175
2725.697	175
2729.214	164
2732.727	171
2736.237	161
2739.744	157
2743.249	162
2746.75	154
2750.248	153
2753.743	152
2757.236	139
2760.725	147
2764.211	141
2767.695	138
2771.175	128
2774.652	129
2778.127	136
2781.598	131
2785.067	142
2788.532	137
2791.995	147
2795.455	135
2798.911	129
2802.365	133
2805.816	136
2809.264	132
2812.709	153
2816.151	140
2819.59	142
2823.026	136
2826.46	134
2829.89	138
2833.318	140
2836.742	140
2840.164	140
2843.583	144
2846.999	146
2850.412	136
2853.822	145
2857.229	139
2860.634	152
2864.035	145
2867.434	160
2870.83	171
2874.223	176
2877.613	169
2881	185
2884.385	186
2887.766	178
2891.145	175
2894.521	189
2897.894	195
2901.264	192
2904.631	185
2907.996	187
2911.358	198
2914.717	189
2918.073	202
2921.426	213
2924.777	217
2928.124	218
2931.469	221
2934.811	228
2938.15	229
2941.487	244
2944.821	239
2948.152	246
2951.48	241
2954.805	246
2958.128	234
2961.447	232
2964.765	228
2968.079	226
2971.39	235
2974.699	238
2978.005	244
2981.308	240
2984.609	238
2987.907	233
2991.202	255
2994.494	238
2997.784	251
3001.07	256
3004.355	268
3007.636	257
3010.915	264
3014.191	268
3017.464	272
3020.734	277
3024.002	270
3027.267	283
3030.53	297
3033.789	305
3037.046	307
3040.301	308
3043.552	327
3046.801	332
3050.048	331
3053.291	355
3056.532	368
3059.771	375
3063.006	387
3066.239	404
3069.469	412
3072.697	417
3075.922	445
3079.144	452
3082.364	464
3085.581	485
3088.795	482
3092.007	479
3095.216	492
3098.423	519
3101.627	513
3104.828	526
3108.026	541
3111.222	554
3114.416	554
3117.607	586
3120.795	582
3123.98	586
3127.163	599
3130.344	631
3133.521	642
3136.696	674
3139.869	664
3143.039	678
3146.206	676
3149.371	693
3152.533	712
3155.693	705
3158.85	713
3162.005	726
3165.157	731
3168.306	728
3171.453	726
3174.597	740
3177.739	728
3180.878	748
3184.014	750
3187.149	756
3190.28	765
3193.409	758
3196.536	754
3199.659	772
3202.781	766
3205.9	772
3209.016	767
3212.13	767
3215.241	760
3218.35	758
3221.456	748
3224.56	750
3227.661	731
3230.76	736
3233.856	717
3236.95	699
3240.041	698
3243.13	667
3246.216	666
3249.3	663
3252.382	656
3255.46	654
3258.537	648
3261.611	636
3264.682	625
3267.751	634
3270.818	626
3273.882	618
3276.943	624
3280.002	622
3283.059	611
3286.113	603
3289.165	598
3292.214	596
3295.261	569
3298.306	581
3301.348	586
3304.387	555
3307.425	557
3310.459	553
3313.492	553
3316.521	536
3319.549	536
3322.574	536
3325.597	538
3328.617	532
3331.635	533
3334.65	513
3337.663	502
3340.674	515
3343.682	524
3346.688	515
3349.691	522
3352.692	522
3355.691	512
3358.687	505
3361.681	509
3364.673	495
3367.662	493
3370.649	477
3373.633	473
3376.615	469
3379.595	449
3382.572	453
3385.547	443
3388.52	440
3391.49	437
3394.458	438
3397.424	414
3400.387	409
3403.348	404
3406.307	380
3409.263	395
3412.217	391
3415.168	389
3418.118	384
3421.065	374
3424.009	370
3426.951	363
3429.891	355
3432.829	341
3435.764	344
3438.697	326
3441.628	324
3444.557	307
3447.483	285
3450.407	281
3453.328	270
3456.247	269
3459.164	247
3462.079	241
3464.991	237
3467.902	225
3470.809	222
3473.715	208
3476.618	197
3479.519	189
3482.418	180
3485.315	174
3488.209	155
3491.101	155
3493.99	157
3496.878	146
3499.763	138
3502.646	128
3505.527	124
3508.405	111
3511.281	101
3514.155	100
3517.027	94
3519.897	78
3522.764	72
3525.629	65
3528.492	58
3531.352	43
3534.211	48
3537.067	36
3539.921	34
3542.773	29
3545.622	22
3548.469	7
3551.315	6
3554.157	4
3556.998	-5
3559.837	-9
3562.673	-13
3565.507	-14
3568.339	-27
3571.169	-29
3573.996	-29
3576.822	-26
3579.645	-37
3582.466	-38
3585.285	-42
3588.101	-34
3590.916	-54
3593.728	-55
3596.538	-53
3599.346	-61
3602.152	-62
3604.956	-63
3607.757	-61
3610.556	-71
3613.354	-68
3616.149	-79
3618.942	-86
3621.732	-86
3624.521	-82
3627.307	-83
3630.092	-82
3632.874	-83
3635.654	-89
3638.432	-84
3641.208	-92
3643.982	-96
3646.753	-100
3649.523	-102
3652.29	-97
3655.055	-97
3657.818	-103
3660.579	-110
3663.338	-107
3666.095	-112
3668.849	-109
3671.602	-111
3674.352	-119
3677.101	-121
3679.847	-120
3682.591	-118
3685.333	-116
3688.073	-120
3690.811	-119
3693.547	-124
3696.281	-124
3699.013	-126
3701.742	-128
3704.47	-125
3707.195	-124
3709.919	-126
3712.64	-129
3715.359	-133
3718.076	-131
3720.792	-136
3723.505	-138
3726.216	-130
3728.925	-135
3731.632	-136
3734.336	-139
3737.039	-133
3739.74	-136
3742.439	-140
3745.136	-133
3747.83	-146
3750.523	-140
3753.213	-140
3755.902	-136
3758.589	-148
3761.273	-137
3763.956	-139
3766.636	-137
3769.315	-132
3771.991	-140
3774.665	-144
3777.338	-138
3780.008	-141
3782.677	-140
3785.343	-141
3788.007	-141
3790.67	-146
3793.33	-139
3795.989	-144
3798.645	-135
3801.299	-139
3803.952	-148
3806.602	-134
3809.251	-145
3811.897	-150
3814.542	-147
3817.184	-139
3819.825	-138
3822.463	-138
3825.1	-146
3827.735	-148
3830.367	-148
3832.998	-150
3835.627	-149
3838.253	-138
3840.878	-145
3843.501	-138
3846.122	-143
3848.741	-149
3851.358	-140
3853.973	-155
3856.586	-148
3859.197	-154
3861.806	-140
3864.414	-147
3867.019	-139
3869.622	-140
3872.224	-140
3874.823	-128
3877.421	-113
3880.016	-84
3882.61	-56
3885.202	-56
3887.792	-75
3890.38	-108
3892.966	-131
3895.55	-139
3898.132	-142
3900.713	-141
3903.291	-144
3905.868	-146
3908.442	-142
3911.015	-147
3913.586	-147
3916.155	-150
3918.722	-150
3921.287	-149
3923.85	-149
3926.411	-148
3928.971	-145
3931.528	-150
3934.084	-149
3936.638	-145
3939.19	-156
3941.74	-147
3944.288	-148
3946.834	-146
3949.378	-149
3951.921	-149
3954.462	-152
3957	-148
3959.537	-146
3962.072	-149
3964.606	-139
3967.137	-146
3969.667	-143
3972.194	-150
3974.72	-146
3977.244	-149
3979.766	-151
3982.286	-149
3984.805	-146
3987.321	-146
3989.836	-139
3992.349	-143
3994.86	-147
3997.369	-152
3999.877	-148
4002.382	-149
4004.886	-151
4007.388	-146
4009.888	-142
4012.386	-147
4014.883	-145
4017.377	-149
4019.87	-145
4022.361	-145
4024.85	-148
4027.338	-145
4029.823	-143
4032.307	-140
4034.789	-144
4037.269	-148
4039.747	-148
4042.224	-147
4044.699	-148
4047.172	-146
4049.643	-141
4052.112	-143
4054.58	-146
4057.046	-149
4059.51	-147
4061.972	-147
4064.432	-150
4066.891	-146
4069.348	-141
4071.803	-148
4074.256	-142
4076.708	-146
4079.158	-150
4081.606	-140
4084.052	-150
4086.497	-146
4088.939	-140
4091.38	-141
4093.819	-146
4096.257	-154
4098.693	-150
4101.127	-150
4103.559	-151
4105.989	6
4108.418	-6
4110.845	-3
4113.27	-6
4115.694	-10
4118.115	-7
4120.535	-146
4122.954	-150
4125.37	-147
4127.785	-144
4130.198	-146
4132.609	-146
4135.019	-152
4137.427	-153
4139.833	-155
4142.237	-159
