Data from 2018-2-8_conc=2_n=6_RamanShift_04.txt Node
Date: Mon Mar 12 14:14:28 IST 2018
User: aro
Spectrometer: QEPB0276
Trigger mode: 0
Integration Time (sec): 3.000000E1
Scans to average: 1
Electric dark correction enabled: true
Nonlinearity correction enabled: false
Boxcar width: 0
XAxis mode: Raman Shifts
Number of Pixels in Spectrum: 1044
>>>>>Begin Spectral Data<<<<<
160.701	6
166.742	42
172.777	121
178.805	394
184.826	1068
190.841	2310
196.849	3856
202.85	5057
208.845	5562
214.833	5563
220.815	5477
226.789	5436
232.758	5446
238.719	5468
244.674	5412
250.623	5335
256.565	5279
262.5	5199
268.429	5138
274.351	5077
280.267	5051
286.176	5012
292.079	5000
297.975	4958
303.865	4955
309.748	4932
315.625	4941
321.495	4908
327.359	4937
333.217	4887
339.068	4906
344.912	4940
350.751	4910
356.583	4907
362.408	4910
368.227	4954
374.04	4946
379.847	4964
385.647	4981
391.44	5032
397.228	5028
403.009	5045
408.784	5043
414.553	5095
420.315	5099
426.071	5076
431.821	5100
437.565	5081
443.302	5053
449.033	5051
454.758	5029
460.477	5014
466.189	4990
471.896	4976
477.596	4936
483.29	4920
488.978	4905
494.66	4898
500.335	4817
506.005	4723
511.668	4591
517.325	4463
522.977	4392
528.622	4297
534.261	4263
539.894	4214
545.521	4121
551.141	4144
556.756	4116
562.365	4061
567.968	4090
573.565	4045
579.155	4024
584.74	4020
590.319	3978
595.892	4007
601.459	3949
607.02	3964
612.575	3933
618.124	3909
623.667	3858
629.204	3827
634.735	3787
640.261	3765
645.781	3743
651.294	3757
656.802	3753
662.304	3733
667.8	3734
673.29	3718
678.775	3714
684.254	3686
689.726	3676
695.193	3680
700.655	3663
706.11	3595
711.56	3615
717.004	3571
722.442	3572
727.874	3548
733.301	3535
738.722	3520
744.137	3524
749.547	3505
754.951	3495
760.349	3492
765.741	3513
771.128	3518
776.509	3535
781.885	3587
787.254	3571
792.618	3561
797.977	3536
803.33	3510
808.677	3504
814.019	3484
819.355	3418
824.686	3412
830.011	3424
835.33	3396
840.644	3381
845.952	3390
851.255	3380
856.552	3379
861.844	3352
867.13	3359
872.41	3304
877.686	3322
882.955	3274
888.219	3273
893.478	3218
898.731	3173
903.979	3121
909.221	3117
914.458	3082
919.69	3077
924.916	3079
930.136	3117
935.351	3098
940.561	3115
945.766	3083
950.965	3058
956.158	3055
961.347	3026
966.529	2973
971.707	2954
976.879	2893
982.046	2904
987.208	2863
992.364	2862
997.515	2874
1002.66	2904
1007.801	2921
1012.936	2970
1018.066	2954
1023.19	2950
1028.309	2987
1033.423	2964
1038.532	2938
1043.636	2934
1048.734	2888
1053.827	2834
1058.915	2824
1063.998	2774
1069.075	2802
1074.147	2802
1079.214	2785
1084.276	2807
1089.333	2834
1094.385	2838
1099.431	2831
1104.472	2838
1109.509	2829
1114.54	2806
1119.565	2747
1124.586	2697
1129.602	2699
1134.613	2668
1139.618	2630
1144.619	2639
1149.614	2621
1154.604	2656
1159.589	2624
1164.57	2635
1169.545	2650
1174.515	2640
1179.48	2628
1184.44	2616
1189.395	2601
1194.345	2575
1199.29	2545
1204.23	2557
1209.165	2549
1214.095	2582
1219.021	2609
1223.941	2597
1228.856	2625
1233.766	2613
1238.672	2625
1243.572	2622
1248.467	2599
1253.358	2580
1258.244	2531
1263.124	2491
1268	2460
1272.871	2441
1277.737	2405
1282.599	2413
1287.455	2384
1292.306	2379
1297.153	2414
1301.995	2416
1306.832	2442
1311.664	2459
1316.491	2464
1321.314	2438
1326.132	2451
1330.945	2418
1335.753	2365
1340.556	2325
1345.354	2297
1350.148	2253
1354.937	2237
1359.722	2176
1364.501	2162
1369.276	2099
1374.046	2072
1378.811	2048
1383.572	2044
1388.327	2018
1393.079	2029
1397.825	2032
1402.567	2034
1407.304	2049
1412.036	2050
1416.764	2041
1421.487	2058
1426.205	2050
1430.919	2080
1435.628	2089
1440.333	2115
1445.032	2129
1449.727	2146
1454.418	2149
1459.104	2121
1463.785	2087
1468.462	2062
1473.134	2030
1477.802	1995
1482.465	1939
1487.123	1886
1491.777	1888
1496.426	1850
1501.071	1830
1505.711	1805
1510.347	1810
1514.978	1803
1519.604	1787
1524.226	1815
1528.844	1799
1533.457	1782
1538.065	1758
1542.669	1765
1547.269	1764
1551.864	1776
1556.454	1792
1561.041	1826
1565.622	1816
1570.199	1827
1574.772	1843
1579.34	1883
1583.904	1892
1588.464	1917
1593.019	1921
1597.569	1899
1602.115	1921
1606.657	1878
1611.195	1903
1615.728	1891
1620.256	1888
1624.78	1893
1629.3	1903
1633.816	1910
1638.327	1890
1642.834	1916
1647.336	1911
1651.834	1905
1656.328	1922
1660.817	1924
1665.302	1899
1669.783	1851
1674.259	1814
1678.732	1783
1683.199	1721
1687.663	1678
1692.122	1612
1696.577	1547
1701.028	1478
1705.474	1416
1709.917	1375
1714.355	1342
1718.788	1349
1723.218	1360
1727.643	1350
1732.064	1350
1736.481	1316
1740.893	1291
1745.301	1288
1749.705	1243
1754.105	1220
1758.501	1219
1762.893	1194
1767.28	1171
1771.663	1171
1776.042	1150
1780.417	1139
1784.787	1128
1789.154	1113
1793.516	1119
1797.874	1085
1802.228	1086
1806.578	1064
1810.924	1045
1815.266	1038
1819.603	1032
1823.937	1036
1828.266	1032
1832.591	1037
1836.913	1032
1841.23	1059
1845.543	1044
1849.852	1030
1854.156	1043
1858.457	1047
1862.754	1057
1867.047	1050
1871.335	1045
1875.62	1046
1879.9	1042
1884.177	1005
1888.449	1015
1892.718	1022
1896.982	998
1901.243	977
1905.499	961
1909.752	938
1914	936
1918.245	915
1922.485	911
1926.722	909
1930.954	897
1935.183	890
1939.408	888
1943.628	892
1947.845	884
1952.058	863
1956.267	862
1960.472	856
1964.673	854
1968.87	826
1973.063	838
1977.252	826
1981.438	840
1985.619	836
1989.797	834
1993.971	829
1998.14	844
2002.306	829
2006.469	832
2010.627	840
2014.781	833
2018.932	850
2023.078	841
2027.221	839
2031.36	827
2035.495	808
2039.627	795
2043.754	790
2047.878	792
2051.998	782
2056.114	776
2060.226	788
2064.334	764
2068.439	762
2072.54	766
2076.637	762
2080.73	755
2084.82	752
2088.906	751
2092.988	733
2097.066	739
2101.14	727
2105.211	725
2109.278	708
2113.342	707
2117.401	690
2121.457	677
2125.509	679
2129.558	673
2133.602	682
2137.643	680
2141.681	679
2145.714	688
2149.744	684
2153.77	677
2157.793	675
2161.812	672
2165.827	661
2169.838	640
2173.846	640
2177.851	638
2181.851	618
2185.848	630
2189.841	621
2193.831	615
2197.817	607
2201.799	595
2205.778	599
2209.753	601
2213.725	609
2217.693	601
2221.657	602
2225.618	596
2229.575	600
2233.529	591
2237.479	585
2241.425	579
2245.368	558
2249.307	564
2253.243	550
2257.175	545
2261.104	535
2265.029	531
2268.95	522
2272.868	524
2276.783	496
2280.694	506
2284.601	493
2288.505	494
2292.405	498
2296.302	482
2300.195	481
2304.085	467
2307.971	461
2311.854	458
2315.734	450
2319.609	451
2323.482	448
2327.351	449
2331.216	452
2335.078	473
2338.937	443
2342.792	436
2346.643	420
2350.492	424
2354.336	425
2358.178	424
2362.015	429
2365.85	438
2369.681	427
2373.508	438
2377.333	428
2381.153	432
2384.971	438
2388.785	424
2392.595	424
2396.402	416
2400.206	421
2404.007	417
2407.804	420
2411.597	412
2415.388	405
2419.174	419
2422.958	396
2426.738	407
2430.515	414
2434.289	404
2438.059	397
2441.825	384
2445.589	392
2449.349	369
2453.106	372
2456.859	380
2460.61	379
2464.356	362
2468.1	360
2471.84	354
2475.577	353
2479.311	343
2483.041	341
2486.768	344
2490.492	336
2494.213	340
2497.93	332
2501.644	342
2505.355	323
2509.062	325
2512.766	328
2516.467	310
2520.165	314
2523.859	314
2527.551	315
2531.239	303
2534.923	300
2538.605	289
2542.283	290
2545.958	277
2549.63	288
2553.299	281
2556.964	294
2560.626	270
2564.285	275
2567.941	261
2571.594	267
2575.243	262
2578.89	265
2582.533	250
2586.173	256
2589.809	253
2593.443	253
2597.073	245
2600.701	240
2604.325	237
2607.946	236
2611.564	238
2615.178	248
2618.79	237
2622.398	239
2626.004	234
2629.606	230
2633.205	221
2636.801	219
2640.394	225
2643.983	219
2647.57	216
2651.153	222
2654.734	217
2658.311	202
2661.885	201
2665.456	207
2669.025	203
2672.589	208
2676.151	207
2679.71	198
2683.266	200
2686.819	197
2690.368	194
2693.915	186
2697.458	181
2700.999	181
2704.536	185
2708.071	173
2711.602	168
2715.13	163
2718.656	159
2722.178	162
2725.697	150
2729.214	152
2732.727	171
2736.237	165
2739.744	159
2743.249	147
2746.75	140
2750.248	138
2753.743	133
2757.236	137
2760.725	130
2764.211	127
2767.695	122
2771.175	118
2774.652	115
2778.127	127
2781.598	114
2785.067	129
2788.532	126
2791.995	125
2795.455	125
2798.911	130
2802.365	125
2805.816	133
2809.264	126
2812.709	134
2816.151	130
2819.59	134
2823.026	128
2826.46	118
2829.89	132
2833.318	117
2836.742	133
2840.164	123
2843.583	133
2846.999	143
2850.412	130
2853.822	122
2857.229	133
2860.634	137
2864.035	148
2867.434	146
2870.83	157
2874.223	162
2877.613	165
2881	177
2884.385	172
2887.766	164
2891.145	163
2894.521	169
2897.894	176
2901.264	171
2904.631	179
2907.996	178
2911.358	182
2914.717	180
2918.073	186
2921.426	189
2924.777	201
2928.124	209
2931.469	205
2934.811	208
2938.15	215
2941.487	220
2944.821	214
2948.152	223
2951.48	223
2954.805	225
2958.128	219
2961.447	217
2964.765	219
2968.079	210
2971.39	210
2974.699	223
2978.005	217
2981.308	222
2984.609	216
2987.907	214
2991.202	228
2994.494	231
2997.784	224
3001.07	231
3004.355	251
3007.636	246
3010.915	236
3014.191	235
3017.464	248
3020.734	248
3024.002	247
3027.267	255
3030.53	259
3033.789	271
3037.046	268
3040.301	284
3043.552	289
3046.801	297
3050.048	307
3053.291	314
3056.532	320
3059.771	340
3063.006	347
3066.239	363
3069.469	372
3072.697	381
3075.922	391
3079.144	401
3082.364	420
3085.581	427
3088.795	425
3092.007	438
3095.216	446
3098.423	453
3101.627	477
3104.828	479
3108.026	488
3111.222	496
3114.416	508
3117.607	512
3120.795	521
3123.98	536
3127.163	551
3130.344	583
3133.521	592
3136.696	602
3139.869	599
3143.039	601
3146.206	601
3149.371	630
3152.533	630
3155.693	641
3158.85	635
3162.005	650
3165.157	659
3168.306	655
3171.453	655
3174.597	655
3177.739	668
3180.878	664
3184.014	678
3187.149	668
3190.28	675
3193.409	675
3196.536	674
3199.659	678
3202.781	693
3205.9	682
3209.016	696
3212.13	689
3215.241	688
3218.35	674
3221.456	665
3224.56	658
3227.661	645
3230.76	658
3233.856	631
3236.95	628
3240.041	621
3243.13	600
3246.216	603
3249.3	582
3252.382	599
3255.46	591
3258.537	581
3261.611	570
3264.682	556
3267.751	562
3270.818	553
3273.882	556
3276.943	551
3280.002	549
3283.059	557
3286.113	539
3289.165	531
3292.214	533
3295.261	505
3298.306	511
3301.348	510
3304.387	513
3307.425	487
3310.459	491
3313.492	498
3316.521	492
3319.549	488
3322.574	480
3325.597	477
3328.617	473
3331.635	478
3334.65	463
3337.663	452
3340.674	469
3343.682	464
3346.688	467
3349.691	470
3352.692	467
3355.691	461
3358.687	454
3361.681	455
3364.673	444
3367.662	437
3370.649	428
3373.633	427
3376.615	415
3379.595	417
3382.572	410
3385.547	394
3388.52	394
3391.49	386
3394.458	381
3397.424	362
3400.387	368
3403.348	358
3406.307	349
3409.263	354
3412.217	347
3415.168	352
3418.118	348
3421.065	327
3424.009	327
3426.951	329
3429.891	308
3432.829	300
3435.764	307
3438.697	294
3441.628	289
3444.557	277
3447.483	274
3450.407	251
3453.328	233
3456.247	237
3459.164	221
3462.079	210
3464.991	212
3467.902	198
3470.809	201
3473.715	178
3476.618	176
3479.519	168
3482.418	163
3485.315	151
3488.209	148
3491.101	142
3493.99	133
3496.878	134
3499.763	118
3502.646	115
3505.527	96
3508.405	103
3511.281	95
3514.155	94
3517.027	84
3519.897	66
3522.764	56
3525.629	60
3528.492	46
3531.352	40
3534.211	33
3537.067	33
3539.921	31
3542.773	14
3545.622	12
3548.469	10
3551.315	7
3554.157	-1
3556.998	-15
3559.837	-10
3562.673	-15
3565.507	-19
3568.339	-25
3571.169	-29
3573.996	-24
3576.822	-30
3579.645	-29
3582.466	-30
3585.285	-43
3588.101	-36
3590.916	-55
3593.728	-65
3596.538	-53
3599.346	-59
3602.152	-54
3604.956	-58
3607.757	-63
3610.556	-71
3613.354	-66
3616.149	-72
3618.942	-75
3621.732	-75
3624.521	-76
3627.307	-81
3630.092	-80
3632.874	-77
3635.654	-84
3638.432	-79
3641.208	-90
3643.982	-92
3646.753	-91
3649.523	-95
3652.29	-89
3655.055	-92
3657.818	-95
3660.579	-96
3663.338	-102
3666.095	-96
3668.849	-107
3671.602	-106
3674.352	-107
3677.101	-107
3679.847	-111
3682.591	-108
3685.333	-107
3688.073	-110
3690.811	-108
3693.547	-117
3696.281	-119
3699.013	-119
3701.742	-119
3704.47	-124
3707.195	-108
3709.919	-114
3712.64	-117
3715.359	-130
3718.076	-119
3720.792	-125
3723.505	-125
3726.216	-118
3728.925	-122
3731.632	-119
3734.336	-127
3737.039	-125
3739.74	-124
3742.439	-136
3745.136	-121
3747.83	-133
3750.523	-129
3753.213	-132
3755.902	-122
3758.589	-131
3761.273	-127
3763.956	-128
3766.636	-129
3769.315	-128
3771.991	-126
3774.665	-135
3777.338	-125
3780.008	-127
3782.677	-128
3785.343	-128
3788.007	-131
3790.67	-134
3793.33	-137
3795.989	-138
3798.645	-130
3801.299	-126
3803.952	-140
3806.602	-125
3809.251	-138
3811.897	-138
3814.542	-139
3817.184	-129
3819.825	-129
3822.463	-132
3825.1	-134
3827.735	-130
3830.367	-132
3832.998	-138
3835.627	-139
3838.253	-132
3840.878	-131
3843.501	-126
3846.122	-135
3848.741	-135
3851.358	-137
3853.973	-141
3856.586	-132
3859.197	-141
3861.806	-132
3864.414	-133
3867.019	-125
3869.622	-132
3872.224	-126
3874.823	-116
3877.421	-109
3880.016	-88
3882.61	-71
3885.202	-73
3887.792	-85
3890.38	-113
3892.966	-131
3895.55	-133
3898.132	-134
3900.713	-131
3903.291	-141
3905.868	-133
3908.442	-131
3911.015	-136
3913.586	-134
3916.155	-140
3918.722	-138
3921.287	-138
3923.85	-135
3926.411	-136
3928.971	-135
3931.528	-136
3934.084	-132
3936.638	-131
3939.19	-142
3941.74	-140
3944.288	-141
3946.834	-133
3949.378	-133
3951.921	-138
3954.462	-140
3957	-138
3959.537	-135
3962.072	-142
3964.606	-135
3967.137	-135
3969.667	-140
3972.194	-136
3974.72	-135
3977.244	-138
3979.766	-142
3982.286	-136
3984.805	-139
3987.321	-133
3989.836	-129
3992.349	-131
3994.86	-134
3997.369	-133
3999.877	-135
4002.382	-131
4004.886	-142
4007.388	-134
4009.888	-133
4012.386	-133
4014.883	-136
4017.377	-136
4019.87	-134
4022.361	-136
4024.85	-136
4027.338	-135
4029.823	-131
4032.307	-128
4034.789	-135
4037.269	-136
4039.747	-133
4042.224	-135
4044.699	-139
4047.172	-135
4049.643	-133
4052.112	-130
4054.58	-133
4057.046	-136
4059.51	-140
4061.972	-128
4064.432	-131
4066.891	-133
4069.348	-130
4071.803	-137
4074.256	-134
4076.708	-135
4079.158	-131
4081.606	-130
4084.052	-135
4086.497	-131
4088.939	-129
4091.38	-133
4093.819	-131
4096.257	-142
4098.693	-140
4101.127	-144
4103.559	-137
4105.989	-17
4108.418	-23
4110.845	-18
4113.27	-12
4115.694	-21
4118.115	-16
4120.535	-136
4122.954	-138
4125.37	-133
4127.785	-136
4130.198	-135
4132.609	-137
4135.019	-137
4137.427	-143
4139.833	-141
4142.237	-142
