Data from 2018-2-8_conc=4_n=9_RamanShift_04.txt Node
Date: Mon Mar 12 15:37:58 IST 2018
User: aro
Spectrometer: QEPB0276
Trigger mode: 0
Integration Time (sec): 3.000000E1
Scans to average: 1
Electric dark correction enabled: true
Nonlinearity correction enabled: false
Boxcar width: 0
XAxis mode: Raman Shifts
Number of Pixels in Spectrum: 1044
>>>>>Begin Spectral Data<<<<<
160.701	19.1
166.742	52.1
172.777	157.1
178.805	456.1
184.826	1253.1
190.841	2725.1
196.849	4553.1
202.85	5983.1
208.845	6541.1
214.833	6539.1
220.815	6469.1
226.789	6421.1
232.758	6407.1
238.719	6407.1
244.674	6347.1
250.623	6257.1
256.565	6182.1
262.5	6099.1
268.429	6018.1
274.351	5911.1
280.267	5918.1
286.176	5857.1
292.079	5845.1
297.975	5783.1
303.865	5780.1
309.748	5783.1
315.625	5741.1
321.495	5716.1
327.359	5720.1
333.217	5726.1
339.068	5719.1
344.912	5746.1
350.751	5727.1
356.583	5721.1
362.408	5716.1
368.227	5726.1
374.04	5770.1
379.847	5783.1
385.647	5810.1
391.44	5839.1
397.228	5873.1
403.009	5905.1
408.784	5932.1
414.553	5896.1
420.315	5973.1
426.071	5949.1
431.821	5912.1
437.565	5963.1
443.302	5940.1
449.033	5905.1
454.758	5896.1
460.477	5858.1
466.189	5828.1
471.896	5841.1
477.596	5775.1
483.29	5746.1
488.978	5757.1
494.66	5740.1
500.335	5653.1
506.005	5567.1
511.668	5392.1
517.325	5261.1
522.977	5148.1
528.622	5095.1
534.261	5008.1
539.894	4918.1
545.521	4911.1
551.141	4888.1
556.756	4828.1
562.365	4819.1
567.968	4769.1
573.565	4765.1
579.155	4727.1
584.74	4722.1
590.319	4727.1
595.892	4698.1
601.459	4663.1
607.02	4675.1
612.575	4606.1
618.124	4590.1
623.667	4552.1
629.204	4521.1
634.735	4489.1
640.261	4492.1
645.781	4448.1
651.294	4450.1
656.802	4431.1
662.304	4408.1
667.8	4401.1
673.29	4373.1
678.775	4394.1
684.254	4348.1
689.726	4342.1
695.193	4323.1
700.655	4287.1
706.11	4300.1
711.56	4259.1
717.004	4236.1
722.442	4210.1
727.874	4182.1
733.301	4186.1
738.722	4150.1
744.137	4119.1
749.547	4133.1
754.951	4125.1
760.349	4171.1
765.741	4115.1
771.128	4175.1
776.509	4205.1
781.885	4194.1
787.254	4183.1
792.618	4194.1
797.977	4175.1
803.33	4136.1
808.677	4116.1
814.019	4094.1
819.355	4067.1
824.686	4055.1
830.011	3990.1
835.33	4000.1
840.644	3994.1
845.952	3991.1
851.255	4005.1
856.552	3984.1
861.844	3975.1
867.13	3933.1
872.41	3926.1
877.686	3909.1
882.955	3884.1
888.219	3851.1
893.478	3785.1
898.731	3758.1
903.979	3706.1
909.221	3686.1
914.458	3648.1
919.69	3632.1
924.916	3639.1
930.136	3671.1
935.351	3676.1
940.561	3681.1
945.766	3663.1
950.965	3642.1
956.158	3629.1
961.347	3569.1
966.529	3520.1
971.707	3501.1
976.879	3453.1
982.046	3403.1
987.208	3392.1
992.364	3400.1
997.515	3421.1
1002.66	3446.1
1007.801	3479.1
1012.936	3492.1
1018.066	3493.1
1023.19	3510.1
1028.309	3528.1
1033.423	3511.1
1038.532	3434.1
1043.636	3442.1
1048.734	3433.1
1053.827	3385.1
1058.915	3323.1
1063.998	3330.1
1069.075	3303.1
1074.147	3305.1
1079.214	3311.1
1084.276	3336.1
1089.333	3337.1
1094.385	3346.1
1099.431	3349.1
1104.472	3333.1
1109.509	3327.1
1114.54	3289.1
1119.565	3234.1
1124.586	3214.1
1129.602	3146.1
1134.613	3170.1
1139.618	3127.1
1144.619	3126.1
1149.614	3110.1
1154.604	3128.1
1159.589	3139.1
1164.57	3135.1
1169.545	3121.1
1174.515	3141.1
1179.48	3128.1
1184.44	3102.1
1189.395	3095.1
1194.345	3065.1
1199.29	3012.1
1204.23	3048.1
1209.165	3051.1
1214.095	3046.1
1219.021	3074.1
1223.941	3073.1
1228.856	3100.1
1233.766	3101.1
1238.672	3108.1
1243.572	3096.1
1248.467	3084.1
1253.358	3061.1
1258.244	2997.1
1263.124	2961.1
1268	2908.1
1272.871	2866.1
1277.737	2848.1
1282.599	2840.1
1287.455	2815.1
1292.306	2839.1
1297.153	2848.1
1301.995	2870.1
1306.832	2871.1
1311.664	2925.1
1316.491	2923.1
1321.314	2907.1
1326.132	2875.1
1330.945	2847.1
1335.753	2808.1
1340.556	2763.1
1345.354	2741.1
1350.148	2685.1
1354.937	2640.1
1359.722	2591.1
1364.501	2572.1
1369.276	2510.1
1374.046	2457.1
1378.811	2452.1
1383.572	2416.1
1388.327	2436.1
1393.079	2419.1
1397.825	2437.1
1402.567	2423.1
1407.304	2434.1
1412.036	2438.1
1416.764	2431.1
1421.487	2466.1
1426.205	2453.1
1430.919	2429.1
1435.628	2488.1
1440.333	2484.1
1445.032	2524.1
1449.727	2552.1
1454.418	2536.1
1459.104	2534.1
1463.785	2489.1
1468.462	2448.1
1473.134	2416.1
1477.802	2383.1
1482.465	2311.1
1487.123	2246.1
1491.777	2215.1
1496.426	2224.1
1501.071	2219.1
1505.711	2190.1
1510.347	2193.1
1514.978	2192.1
1519.604	2175.1
1524.226	2172.1
1528.844	2157.1
1533.457	2157.1
1538.065	2144.1
1542.669	2143.1
1547.269	2136.1
1551.864	2122.1
1556.454	2141.1
1561.041	2152.1
1565.622	2191.1
1570.199	2178.1
1574.772	2202.1
1579.34	2224.1
1583.904	2264.1
1588.464	2264.1
1593.019	2271.1
1597.569	2271.1
1602.115	2279.1
1606.657	2281.1
1611.195	2280.1
1615.728	2256.1
1620.256	2254.1
1624.78	2257.1
1629.3	2264.1
1633.816	2269.1
1638.327	2270.1
1642.834	2298.1
1647.336	2315.1
1651.834	2304.1
1656.328	2312.1
1660.817	2307.1
1665.302	2276.1
1669.783	2238.1
1674.259	2200.1
1678.732	2151.1
1683.199	2080.1
1687.663	2013.1
1692.122	1950.1
1696.577	1865.1
1701.028	1789.1
1705.474	1718.1
1709.917	1667.1
1714.355	1629.1
1718.788	1622.1
1723.218	1644.1
1727.643	1619.1
1732.064	1607.1
1736.481	1608.1
1740.893	1573.1
1745.301	1537.1
1749.705	1504.1
1754.105	1478.1
1758.501	1455.1
1762.893	1429.1
1767.28	1420.1
1771.663	1408.1
1776.042	1391.1
1780.417	1370.1
1784.787	1371.1
1789.154	1356.1
1793.516	1332.1
1797.874	1311.1
1802.228	1305.1
1806.578	1282.1
1810.924	1270.1
1815.266	1260.1
1819.603	1264.1
1823.937	1243.1
1828.266	1268.1
1832.591	1254.1
1836.913	1231.1
1841.23	1239.1
1845.543	1250.1
1849.852	1251.1
1854.156	1255.1
1858.457	1264.1
1862.754	1255.1
1867.047	1251.1
1871.335	1276.1
1875.62	1277.1
1879.9	1260.1
1884.177	1244.1
1888.449	1235.1
1892.718	1223.1
1896.982	1209.1
1901.243	1180.1
1905.499	1184.1
1909.752	1144.1
1914	1153.1
1918.245	1133.1
1922.485	1130.1
1926.722	1120.1
1930.954	1128.1
1935.183	1090.1
1939.408	1074.1
1943.628	1084.1
1947.845	1069.1
1952.058	1057.1
1956.267	1054.1
1960.472	1048.1
1964.673	1045.1
1968.87	1028.1
1973.063	1021.1
1977.252	1014.1
1981.438	1018.1
1985.619	1018.1
1989.797	1006.1
1993.971	1017.1
1998.14	1015.1
2002.306	1023.1
2006.469	1030.1
2010.627	1012.1
2014.781	1022.1
2018.932	1024.1
2023.078	1022.1
2027.221	1016.1
2031.36	1003.1
2035.495	985.1
2039.627	975.1
2043.754	963.1
2047.878	953.1
2051.998	963.1
2056.114	948.1
2060.226	941.1
2064.334	928.1
2068.439	940.1
2072.54	927.1
2076.637	937.1
2080.73	924.1
2084.82	936.1
2088.906	925.1
2092.988	915.1
2097.066	893.1
2101.14	896.1
2105.211	870.1
2109.278	860.1
2113.342	863.1
2117.401	845.1
2121.457	836.1
2125.509	838.1
2129.558	820.1
2133.602	827.1
2137.643	834.1
2141.681	831.1
2145.714	830.1
2149.744	830.1
2153.77	828.1
2157.793	833.1
2161.812	825.1
2165.827	806.1
2169.838	812.1
2173.846	794.1
2177.851	762.1
2181.851	753.1
2185.848	760.1
2189.841	749.1
2193.831	742.1
2197.817	751.1
2201.799	743.1
2205.778	729.1
2209.753	720.1
2213.725	728.1
2217.693	725.1
2221.657	722.1
2225.618	728.1
2229.575	712.1
2233.529	718.1
2237.479	709.1
2241.425	688.1
2245.368	689.1
2249.307	668.1
2253.243	681.1
2257.175	652.1
2261.104	660.1
2265.029	638.1
2268.95	649.1
2272.868	621.1
2276.783	607.1
2280.694	606.1
2284.601	596.1
2288.505	601.1
2292.405	586.1
2296.302	589.1
2300.195	580.1
2304.085	566.1
2307.971	569.1
2311.854	563.1
2315.734	539.1
2319.609	546.1
2323.482	531.1
2327.351	528.1
2331.216	549.1
2335.078	549.1
2338.937	540.1
2342.792	516.1
2346.643	517.1
2350.492	512.1
2354.336	516.1
2358.178	514.1
2362.015	511.1
2365.85	524.1
2369.681	521.1
2373.508	531.1
2377.333	520.1
2381.153	517.1
2384.971	518.1
2388.785	505.1
2392.595	508.1
2396.402	502.1
2400.206	500.1
2404.007	498.1
2407.804	492.1
2411.597	492.1
2415.388	477.1
2419.174	487.1
2422.958	469.1
2426.738	479.1
2430.515	491.1
2434.289	488.1
2438.059	480.1
2441.825	467.1
2445.589	467.1
2449.349	456.1
2453.106	449.1
2456.859	453.1
2460.61	445.1
2464.356	428.1
2468.1	430.1
2471.84	421.1
2475.577	425.1
2479.311	412.1
2483.041	417.1
2486.768	410.1
2490.492	415.1
2494.213	421.1
2497.93	408.1
2501.644	398.1
2505.355	390.1
2509.062	396.1
2512.766	394.1
2516.467	385.1
2520.165	378.1
2523.859	380.1
2527.551	371.1
2531.239	370.1
2534.923	351.1
2538.605	351.1
2542.283	353.1
2545.958	347.1
2549.63	360.1
2553.299	338.1
2556.964	353.1
2560.626	330.1
2564.285	334.1
2567.941	337.1
2571.594	326.1
2575.243	317.1
2578.89	311.1
2582.533	314.1
2586.173	308.1
2589.809	297.1
2593.443	295.1
2597.073	297.1
2600.701	294.1
2604.325	275.1
2607.946	289.1
2611.564	283.1
2615.178	284.1
2618.79	292.1
2622.398	282.1
2626.004	289.1
2629.606	273.1
2633.205	272.1
2636.801	264.1
2640.394	273.1
2643.983	269.1
2647.57	272.1
2651.153	265.1
2654.734	259.1
2658.311	249.1
2661.885	251.1
2665.456	249.1
2669.025	239.1
2672.589	251.1
2676.151	250.1
2679.71	242.1
2683.266	236.1
2686.819	225.1
2690.368	227.1
2693.915	233.1
2697.458	215.1
2700.999	221.1
2704.536	219.1
2708.071	209.1
2711.602	212.1
2715.13	214.1
2718.656	205.1
2722.178	201.1
2725.697	191.1
2729.214	194.1
2732.727	189.1
2736.237	193.1
2739.744	188.1
2743.249	180.1
2746.75	180.1
2750.248	180.1
2753.743	176.1
2757.236	175.1
2760.725	171.1
2764.211	163.1
2767.695	157.1
2771.175	149.1
2774.652	141.1
2778.127	152.1
2781.598	156.1
2785.067	163.1
2788.532	165.1
2791.995	157.1
2795.455	155.1
2798.911	151.1
2802.365	167.1
2805.816	166.1
2809.264	162.1
2812.709	164.1
2816.151	172.1
2819.59	161.1
2823.026	157.1
2826.46	161.1
2829.89	154.1
2833.318	153.1
2836.742	164.1
2840.164	156.1
2843.583	164.1
2846.999	165.1
2850.412	160.1
2853.822	167.1
2857.229	162.1
2860.634	174.1
2864.035	171.1
2867.434	187.1
2870.83	185.1
2874.223	194.1
2877.613	204.1
2881	208.1
2884.385	214.1
2887.766	201.1
2891.145	208.1
2894.521	210.1
2897.894	220.1
2901.264	219.1
2904.631	214.1
2907.996	210.1
2911.358	216.1
2914.717	218.1
2918.073	233.1
2921.426	226.1
2924.777	240.1
2928.124	248.1
2931.469	241.1
2934.811	256.1
2938.15	262.1
2941.487	266.1
2944.821	267.1
2948.152	269.1
2951.48	264.1
2954.805	265.1
2958.128	263.1
2961.447	255.1
2964.765	256.1
2968.079	256.1
2971.39	266.1
2974.699	270.1
2978.005	270.1
2981.308	274.1
2984.609	261.1
2987.907	256.1
2991.202	269.1
2994.494	275.1
2997.784	280.1
3001.07	289.1
3004.355	285.1
3007.636	290.1
3010.915	292.1
3014.191	289.1
3017.464	296.1
3020.734	295.1
3024.002	303.1
3027.267	323.1
3030.53	320.1
3033.789	332.1
3037.046	336.1
3040.301	332.1
3043.552	363.1
3046.801	364.1
3050.048	375.1
3053.291	377.1
3056.532	396.1
3059.771	410.1
3063.006	430.1
3066.239	441.1
3069.469	444.1
3072.697	468.1
3075.922	482.1
3079.144	487.1
3082.364	512.1
3085.581	520.1
3088.795	526.1
3092.007	537.1
3095.216	541.1
3098.423	549.1
3101.627	565.1
3104.828	580.1
3108.026	600.1
3111.222	619.1
3114.416	613.1
3117.607	637.1
3120.795	644.1
3123.98	661.1
3127.163	672.1
3130.344	699.1
3133.521	703.1
3136.696	724.1
3139.869	725.1
3143.039	744.1
3146.206	760.1
3149.371	763.1
3152.533	777.1
3155.693	788.1
3158.85	796.1
3162.005	800.1
3165.157	802.1
3168.306	798.1
3171.453	810.1
3174.597	815.1
3177.739	811.1
3180.878	825.1
3184.014	829.1
3187.149	814.1
3190.28	827.1
3193.409	815.1
3196.536	837.1
3199.659	833.1
3202.781	845.1
3205.9	838.1
3209.016	843.1
3212.13	845.1
3215.241	834.1
3218.35	832.1
3221.456	819.1
3224.56	805.1
3227.661	797.1
3230.76	785.1
3233.856	786.1
3236.95	771.1
3240.041	766.1
3243.13	747.1
3246.216	733.1
3249.3	728.1
3252.382	730.1
3255.46	706.1
3258.537	717.1
3261.611	703.1
3264.682	681.1
3267.751	698.1
3270.818	680.1
3273.882	684.1
3276.943	675.1
3280.002	679.1
3283.059	673.1
3286.113	658.1
3289.165	675.1
3292.214	655.1
3295.261	640.1
3298.306	634.1
3301.348	622.1
3304.387	630.1
3307.425	609.1
3310.459	600.1
3313.492	594.1
3316.521	591.1
3319.549	589.1
3322.574	577.1
3325.597	586.1
3328.617	581.1
3331.635	571.1
3334.65	568.1
3337.663	555.1
3340.674	578.1
3343.682	550.1
3346.688	564.1
3349.691	575.1
3352.692	561.1
3355.691	549.1
3358.687	553.1
3361.681	542.1
3364.673	544.1
3367.662	542.1
3370.649	542.1
3373.633	510.1
3376.615	505.1
3379.595	498.1
3382.572	499.1
3385.547	490.1
3388.52	479.1
3391.49	472.1
3394.458	470.1
3397.424	457.1
3400.387	457.1
3403.348	436.1
3406.307	439.1
3409.263	422.1
3412.217	417.1
3415.168	423.1
3418.118	418.1
3421.065	406.1
3424.009	403.1
3426.951	401.1
3429.891	387.1
3432.829	372.1
3435.764	364.1
3438.697	358.1
3441.628	351.1
3444.557	339.1
3447.483	323.1
3450.407	306.1
3453.328	297.1
3456.247	280.1
3459.164	272.1
3462.079	263.1
3464.991	263.1
3467.902	239.1
3470.809	231.1
3473.715	212.1
3476.618	216.1
3479.519	197.1
3482.418	195.1
3485.315	185.1
3488.209	168.1
3491.101	171.1
3493.99	168.1
3496.878	159.1
3499.763	144.1
3502.646	140.1
3505.527	139.1
3508.405	128.1
3511.281	110.1
3514.155	101.1
3517.027	93.1
3519.897	83.1
3522.764	74.1
3525.629	68.1
3528.492	54.1
3531.352	52.1
3534.211	43.1
3537.067	27.1
3539.921	33.1
3542.773	25.1
3545.622	12.1
3548.469	7.1
3551.315	5.1
3554.157	1.1
3556.998	-12.9
3559.837	-16.9
3562.673	-20.9
3565.507	-15.9
3568.339	-24.9
3571.169	-38.9
3573.996	-37.9
3576.822	-37.9
3579.645	-45.9
3582.466	-43.9
3585.285	-51.9
3588.101	-40.9
3590.916	-56.9
3593.728	-68.9
3596.538	-70.9
3599.346	-72.9
3602.152	-71.9
3604.956	-74.9
3607.757	-71.9
3610.556	-83.9
3613.354	-77.9
3616.149	-91.9
3618.942	-92.9
3621.732	-93.9
3624.521	-91.9
3627.307	-94.9
3630.092	-94.9
3632.874	-93.9
3635.654	-102.9
3638.432	-101.9
3641.208	-103.9
3643.982	-109.9
3646.753	-109.9
3649.523	-110.9
3652.29	-107.9
3655.055	-107.9
3657.818	-118.9
3660.579	-118.9
3663.338	-115.9
3666.095	-127.9
3668.849	-122.9
3671.602	-125.9
3674.352	-126.9
3677.101	-132.9
3679.847	-132.9
3682.591	-133.9
3685.333	-133.9
3688.073	-131.9
3690.811	-132.9
3693.547	-141.9
3696.281	-137.9
3699.013	-138.9
3701.742	-143.9
3704.47	-141.9
3707.195	-141.9
3709.919	-140.9
3712.64	-142.9
3715.359	-144.9
3718.076	-151.9
3720.792	-149.9
3723.505	-150.9
3726.216	-147.9
3728.925	-147.9
3731.632	-149.9
3734.336	-158.9
3737.039	-148.9
3739.74	-154.9
3742.439	-161.9
3745.136	-148.9
3747.83	-159.9
3750.523	-157.9
3753.213	-151.9
3755.902	-151.9
3758.589	-159.9
3761.273	-151.9
3763.956	-155.9
3766.636	-151.9
3769.315	-152.9
3771.991	-152.9
3774.665	-161.9
3777.338	-149.9
3780.008	-155.9
3782.677	-157.9
3785.343	-156.9
3788.007	-160.9
3790.67	-159.9
3793.33	-157.9
3795.989	-160.9
3798.645	-147.9
3801.299	-161.9
3803.952	-160.9
3806.602	-156.9
3809.251	-160.9
3811.897	-165.9
3814.542	-165.9
3817.184	-155.9
3819.825	-157.9
3822.463	-159.9
3825.1	-157.9
3827.735	-163.9
3830.367	-164.9
3832.998	-168.9
3835.627	-162.9
3838.253	-157.9
3840.878	-160.9
3843.501	-155.9
3846.122	-160.9
3848.741	-165.9
3851.358	-156.9
3853.973	-162.9
3856.586	-161.9
3859.197	-166.9
3861.806	-158.9
3864.414	-160.9
3867.019	-155.9
3869.622	-157.9
3872.224	-147.9
3874.823	-141.9
3877.421	-126.9
3880.016	-101.9
3882.61	-76.9
3885.202	-74.9
3887.792	-89.9
3890.38	-119.9
3892.966	-147.9
3895.55	-152.9
3898.132	-158.9
3900.713	-164.9
3903.291	-166.9
3905.868	-165.9
3908.442	-158.9
3911.015	-161.9
3913.586	-163.9
3916.155	-162.9
3918.722	-163.9
3921.287	-164.9
3923.85	-163.9
3926.411	-163.9
3928.971	-160.9
3931.528	-166.9
3934.084	-162.9
3936.638	-156.9
3939.19	-172.9
3941.74	-166.9
3944.288	-166.9
3946.834	-159.9
3949.378	-163.9
3951.921	-167.9
3954.462	-172.9
3957	-167.9
3959.537	-162.9
3962.072	-166.9
3964.606	-160.9
3967.137	-163.9
3969.667	-163.9
3972.194	-164.9
3974.72	-159.9
3977.244	-164.9
3979.766	-169.9
3982.286	-161.9
3984.805	-165.9
3987.321	-161.9
3989.836	-154.9
3992.349	-157.9
3994.86	-158.9
3997.369	-170.9
3999.877	-165.9
4002.382	-158.9
4004.886	-165.9
4007.388	-164.9
4009.888	-159.9
4012.386	-164.9
4014.883	-165.9
4017.377	-162.9
4019.87	-163.9
4022.361	-164.9
4024.85	-164.9
4027.338	-161.9
4029.823	-157.9
4032.307	-156.9
4034.789	-160.9
4037.269	-163.9
4039.747	-159.9
4042.224	-158.9
4044.699	-167.9
4047.172	-160.9
4049.643	-161.9
4052.112	-159.9
4054.58	-157.9
4057.046	-163.9
4059.51	-163.9
4061.972	-160.9
4064.432	-160.9
4066.891	-159.9
4069.348	-158.9
4071.803	-164.9
4074.256	-158.9
4076.708	-161.9
4079.158	-159.9
4081.606	-158.9
4084.052	-162.9
4086.497	-164.9
4088.939	-153.9
4091.38	-159.9
4093.819	-160.9
4096.257	-172.9
4098.693	-167.9
4101.127	-169.9
4103.559	-168.9
4105.989	0.1
4108.418	-0.9
4110.845	-1.9
4113.27	-2.9
4115.694	-7.9
4118.115	-0.9
4120.535	-167.9
4122.954	-167.9
4125.37	-162.9
4127.785	-160.9
4130.198	-159.9
4132.609	-155.9
4135.019	-166.9
4137.427	-172.9
4139.833	-172.9
4142.237	-171.9
