Data from 2018-2-8_conc=4_n=5_RamanShift_02.txt Node
Date: Mon Mar 12 15:19:28 IST 2018
User: aro
Spectrometer: QEPB0276
Trigger mode: 0
Integration Time (sec): 3.000000E1
Scans to average: 1
Electric dark correction enabled: true
Nonlinearity correction enabled: false
Boxcar width: 0
XAxis mode: Raman Shifts
Number of Pixels in Spectrum: 1044
>>>>>Begin Spectral Data<<<<<
160.701	26.1
166.742	52.1
172.777	137.1
178.805	415.1
184.826	1110.1
190.841	2353.1
196.849	3914.1
202.85	5113.1
208.845	5599.1
214.833	5583.1
220.815	5531.1
226.789	5512.1
232.758	5523.1
238.719	5512.1
244.674	5451.1
250.623	5404.1
256.565	5332.1
262.5	5250.1
268.429	5185.1
274.351	5116.1
280.267	5120.1
286.176	5055.1
292.079	5059.1
297.975	5016.1
303.865	5003.1
309.748	5024.1
315.625	4966.1
321.495	4999.1
327.359	4962.1
333.217	4965.1
339.068	4959.1
344.912	4962.1
350.751	5001.1
356.583	5018.1
362.408	4994.1
368.227	5046.1
374.04	5027.1
379.847	5071.1
385.647	5046.1
391.44	5089.1
397.228	5135.1
403.009	5140.1
408.784	5137.1
414.553	5196.1
420.315	5215.1
426.071	5194.1
431.821	5209.1
437.565	5198.1
443.302	5203.1
449.033	5178.1
454.758	5148.1
460.477	5098.1
466.189	5076.1
471.896	5039.1
477.596	5048.1
483.29	5014.1
488.978	4998.1
494.66	4986.1
500.335	4930.1
506.005	4799.1
511.668	4656.1
517.325	4539.1
522.977	4397.1
528.622	4288.1
534.261	4256.1
539.894	4186.1
545.521	4169.1
551.141	4153.1
556.756	4099.1
562.365	4092.1
567.968	4068.1
573.565	4053.1
579.155	4007.1
584.74	3979.1
590.319	3975.1
595.892	3981.1
601.459	3964.1
607.02	3926.1
612.575	3892.1
618.124	3883.1
623.667	3832.1
629.204	3819.1
634.735	3769.1
640.261	3736.1
645.781	3746.1
651.294	3727.1
656.802	3706.1
662.304	3701.1
667.8	3695.1
673.29	3694.1
678.775	3671.1
684.254	3659.1
689.726	3651.1
695.193	3649.1
700.655	3599.1
706.11	3608.1
711.56	3563.1
717.004	3556.1
722.442	3537.1
727.874	3525.1
733.301	3516.1
738.722	3484.1
744.137	3465.1
749.547	3470.1
754.951	3451.1
760.349	3495.1
765.741	3496.1
771.128	3482.1
776.509	3521.1
781.885	3557.1
787.254	3550.1
792.618	3555.1
797.977	3545.1
803.33	3534.1
808.677	3499.1
814.019	3472.1
819.355	3456.1
824.686	3409.1
830.011	3392.1
835.33	3373.1
840.644	3383.1
845.952	3382.1
851.255	3373.1
856.552	3369.1
861.844	3306.1
867.13	3309.1
872.41	3285.1
877.686	3282.1
882.955	3272.1
888.219	3226.1
893.478	3189.1
898.731	3150.1
903.979	3110.1
909.221	3038.1
914.458	3063.1
919.69	3031.1
924.916	3041.1
930.136	3059.1
935.351	3066.1
940.561	3076.1
945.766	3070.1
950.965	3045.1
956.158	3024.1
961.347	2997.1
966.529	2964.1
971.707	2910.1
976.879	2859.1
982.046	2826.1
987.208	2836.1
992.364	2839.1
997.515	2843.1
1002.66	2850.1
1007.801	2905.1
1012.936	2914.1
1018.066	2921.1
1023.19	2935.1
1028.309	2936.1
1033.423	2923.1
1038.532	2905.1
1043.636	2890.1
1048.734	2872.1
1053.827	2843.1
1058.915	2773.1
1063.998	2798.1
1069.075	2763.1
1074.147	2764.1
1079.214	2768.1
1084.276	2775.1
1089.333	2790.1
1094.385	2793.1
1099.431	2786.1
1104.472	2792.1
1109.509	2764.1
1114.54	2749.1
1119.565	2724.1
1124.586	2647.1
1129.602	2621.1
1134.613	2631.1
1139.618	2609.1
1144.619	2586.1
1149.614	2590.1
1154.604	2586.1
1159.589	2592.1
1164.57	2608.1
1169.545	2617.1
1174.515	2630.1
1179.48	2583.1
1184.44	2579.1
1189.395	2560.1
1194.345	2563.1
1199.29	2515.1
1204.23	2538.1
1209.165	2518.1
1214.095	2543.1
1219.021	2551.1
1223.941	2552.1
1228.856	2557.1
1233.766	2572.1
1238.672	2600.1
1243.572	2559.1
1248.467	2579.1
1253.358	2537.1
1258.244	2502.1
1263.124	2455.1
1268	2425.1
1272.871	2386.1
1277.737	2366.1
1282.599	2357.1
1287.455	2345.1
1292.306	2347.1
1297.153	2355.1
1301.995	2383.1
1306.832	2401.1
1311.664	2403.1
1316.491	2405.1
1321.314	2424.1
1326.132	2387.1
1330.945	2354.1
1335.753	2331.1
1340.556	2295.1
1345.354	2268.1
1350.148	2230.1
1354.937	2198.1
1359.722	2171.1
1364.501	2131.1
1369.276	2096.1
1374.046	2053.1
1378.811	2028.1
1383.572	2020.1
1388.327	2032.1
1393.079	2021.1
1397.825	2040.1
1402.567	2020.1
1407.304	2019.1
1412.036	2038.1
1416.764	2034.1
1421.487	2041.1
1426.205	2023.1
1430.919	2034.1
1435.628	2062.1
1440.333	2070.1
1445.032	2073.1
1449.727	2088.1
1454.418	2113.1
1459.104	2113.1
1463.785	2071.1
1468.462	2035.1
1473.134	2011.1
1477.802	1969.1
1482.465	1923.1
1487.123	1872.1
1491.777	1869.1
1496.426	1856.1
1501.071	1839.1
1505.711	1819.1
1510.347	1814.1
1514.978	1807.1
1519.604	1817.1
1524.226	1803.1
1528.844	1816.1
1533.457	1783.1
1538.065	1774.1
1542.669	1767.1
1547.269	1780.1
1551.864	1775.1
1556.454	1780.1
1561.041	1825.1
1565.622	1800.1
1570.199	1808.1
1574.772	1856.1
1579.34	1862.1
1583.904	1880.1
1588.464	1894.1
1593.019	1908.1
1597.569	1890.1
1602.115	1892.1
1606.657	1898.1
1611.195	1878.1
1615.728	1901.1
1620.256	1859.1
1624.78	1871.1
1629.3	1892.1
1633.816	1884.1
1638.327	1906.1
1642.834	1896.1
1647.336	1924.1
1651.834	1906.1
1656.328	1929.1
1660.817	1907.1
1665.302	1890.1
1669.783	1868.1
1674.259	1812.1
1678.732	1785.1
1683.199	1733.1
1687.663	1691.1
1692.122	1612.1
1696.577	1548.1
1701.028	1499.1
1705.474	1432.1
1709.917	1366.1
1714.355	1359.1
1718.788	1363.1
1723.218	1359.1
1727.643	1348.1
1732.064	1347.1
1736.481	1332.1
1740.893	1308.1
1745.301	1298.1
1749.705	1252.1
1754.105	1233.1
1758.501	1202.1
1762.893	1205.1
1767.28	1173.1
1771.663	1172.1
1776.042	1150.1
1780.417	1150.1
1784.787	1140.1
1789.154	1131.1
1793.516	1129.1
1797.874	1108.1
1802.228	1069.1
1806.578	1079.1
1810.924	1050.1
1815.266	1046.1
1819.603	1072.1
1823.937	1041.1
1828.266	1050.1
1832.591	1041.1
1836.913	1043.1
1841.23	1047.1
1845.543	1057.1
1849.852	1038.1
1854.156	1044.1
1858.457	1051.1
1862.754	1050.1
1867.047	1030.1
1871.335	1040.1
1875.62	1046.1
1879.9	1042.1
1884.177	1035.1
1888.449	1024.1
1892.718	1013.1
1896.982	997.1
1901.243	982.1
1905.499	973.1
1909.752	963.1
1914	947.1
1918.245	941.1
1922.485	934.1
1926.722	922.1
1930.954	921.1
1935.183	898.1
1939.408	916.1
1943.628	907.1
1947.845	885.1
1952.058	893.1
1956.267	891.1
1960.472	876.1
1964.673	866.1
1968.87	854.1
1973.063	850.1
1977.252	844.1
1981.438	845.1
1985.619	850.1
1989.797	837.1
1993.971	836.1
1998.14	864.1
2002.306	849.1
2006.469	848.1
2010.627	860.1
2014.781	863.1
2018.932	842.1
2023.078	849.1
2027.221	839.1
2031.36	842.1
2035.495	838.1
2039.627	811.1
2043.754	790.1
2047.878	791.1
2051.998	776.1
2056.114	785.1
2060.226	785.1
2064.334	782.1
2068.439	776.1
2072.54	775.1
2076.637	774.1
2080.73	778.1
2084.82	764.1
2088.906	760.1
2092.988	750.1
2097.066	754.1
2101.14	725.1
2105.211	721.1
2109.278	729.1
2113.342	713.1
2117.401	706.1
2121.457	699.1
2125.509	698.1
2129.558	699.1
2133.602	683.1
2137.643	693.1
2141.681	690.1
2145.714	694.1
2149.744	680.1
2153.77	685.1
2157.793	681.1
2161.812	682.1
2165.827	676.1
2169.838	662.1
2173.846	644.1
2177.851	636.1
2181.851	625.1
2185.848	624.1
2189.841	629.1
2193.831	625.1
2197.817	608.1
2201.799	607.1
2205.778	607.1
2209.753	605.1
2213.725	587.1
2217.693	595.1
2221.657	607.1
2225.618	600.1
2229.575	591.1
2233.529	588.1
2237.479	577.1
2241.425	579.1
2245.368	561.1
2249.307	564.1
2253.243	557.1
2257.175	537.1
2261.104	539.1
2265.029	521.1
2268.95	532.1
2272.868	512.1
2276.783	495.1
2280.694	500.1
2284.601	492.1
2288.505	484.1
2292.405	487.1
2296.302	478.1
2300.195	471.1
2304.085	463.1
2307.971	449.1
2311.854	459.1
2315.734	445.1
2319.609	441.1
2323.482	426.1
2327.351	426.1
2331.216	432.1
2335.078	444.1
2338.937	443.1
2342.792	416.1
2346.643	416.1
2350.492	417.1
2354.336	410.1
2358.178	410.1
2362.015	409.1
2365.85	425.1
2369.681	411.1
2373.508	416.1
2377.333	413.1
2381.153	415.1
2384.971	422.1
2388.785	410.1
2392.595	402.1
2396.402	399.1
2400.206	400.1
2404.007	400.1
2407.804	391.1
2411.597	395.1
2415.388	389.1
2419.174	395.1
2422.958	380.1
2426.738	377.1
2430.515	378.1
2434.289	378.1
2438.059	376.1
2441.825	358.1
2445.589	360.1
2449.349	355.1
2453.106	352.1
2456.859	346.1
2460.61	352.1
2464.356	341.1
2468.1	335.1
2471.84	331.1
2475.577	333.1
2479.311	323.1
2483.041	319.1
2486.768	328.1
2490.492	317.1
2494.213	324.1
2497.93	318.1
2501.644	322.1
2505.355	311.1
2509.062	305.1
2512.766	317.1
2516.467	302.1
2520.165	301.1
2523.859	299.1
2527.551	301.1
2531.239	273.1
2534.923	279.1
2538.605	273.1
2542.283	269.1
2545.958	279.1
2549.63	273.1
2553.299	269.1
2556.964	275.1
2560.626	263.1
2564.285	251.1
2567.941	251.1
2571.594	254.1
2575.243	246.1
2578.89	251.1
2582.533	238.1
2586.173	233.1
2589.809	229.1
2593.443	222.1
2597.073	228.1
2600.701	226.1
2604.325	222.1
2607.946	224.1
2611.564	225.1
2615.178	232.1
2618.79	216.1
2622.398	219.1
2626.004	223.1
2629.606	208.1
2633.205	207.1
2636.801	208.1
2640.394	218.1
2643.983	208.1
2647.57	201.1
2651.153	200.1
2654.734	200.1
2658.311	190.1
2661.885	196.1
2665.456	194.1
2669.025	197.1
2672.589	190.1
2676.151	193.1
2679.71	194.1
2683.266	186.1
2686.819	174.1
2690.368	179.1
2693.915	174.1
2697.458	168.1
2700.999	169.1
2704.536	161.1
2708.071	150.1
2711.602	158.1
2715.13	160.1
2718.656	141.1
2722.178	144.1
2725.697	141.1
2729.214	143.1
2732.727	141.1
2736.237	145.1
2739.744	133.1
2743.249	133.1
2746.75	132.1
2750.248	126.1
2753.743	134.1
2757.236	130.1
2760.725	128.1
2764.211	126.1
2767.695	116.1
2771.175	111.1
2774.652	105.1
2778.127	124.1
2781.598	120.1
2785.067	119.1
2788.532	112.1
2791.995	124.1
2795.455	118.1
2798.911	110.1
2802.365	126.1
2805.816	122.1
2809.264	120.1
2812.709	125.1
2816.151	118.1
2819.59	118.1
2823.026	122.1
2826.46	113.1
2829.89	119.1
2833.318	111.1
2836.742	126.1
2840.164	113.1
2843.583	123.1
2846.999	121.1
2850.412	130.1
2853.822	124.1
2857.229	116.1
2860.634	134.1
2864.035	138.1
2867.434	141.1
2870.83	150.1
2874.223	154.1
2877.613	160.1
2881	161.1
2884.385	157.1
2887.766	156.1
2891.145	152.1
2894.521	165.1
2897.894	173.1
2901.264	166.1
2904.631	166.1
2907.996	157.1
2911.358	164.1
2914.717	171.1
2918.073	185.1
2921.426	188.1
2924.777	193.1
2928.124	193.1
2931.469	205.1
2934.811	201.1
2938.15	203.1
2941.487	211.1
2944.821	211.1
2948.152	211.1
2951.48	208.1
2954.805	219.1
2958.128	210.1
2961.447	203.1
2964.765	209.1
2968.079	209.1
2971.39	208.1
2974.699	207.1
2978.005	212.1
2981.308	214.1
2984.609	213.1
2987.907	201.1
2991.202	222.1
2994.494	218.1
2997.784	211.1
3001.07	227.1
3004.355	241.1
3007.636	237.1
3010.915	231.1
3014.191	235.1
3017.464	245.1
3020.734	240.1
3024.002	240.1
3027.267	253.1
3030.53	257.1
3033.789	272.1
3037.046	272.1
3040.301	276.1
3043.552	297.1
3046.801	299.1
3050.048	311.1
3053.291	310.1
3056.532	322.1
3059.771	344.1
3063.006	348.1
3066.239	365.1
3069.469	373.1
3072.697	379.1
3075.922	394.1
3079.144	400.1
3082.364	416.1
3085.581	430.1
3088.795	436.1
3092.007	455.1
3095.216	440.1
3098.423	467.1
3101.627	474.1
3104.828	489.1
3108.026	479.1
3111.222	493.1
3114.416	506.1
3117.607	531.1
3120.795	525.1
3123.98	543.1
3127.163	553.1
3130.344	570.1
3133.521	588.1
3136.696	596.1
3139.869	603.1
3143.039	607.1
3146.206	631.1
3149.371	635.1
3152.533	634.1
3155.693	646.1
3158.85	653.1
3162.005	666.1
3165.157	663.1
3168.306	661.1
3171.453	667.1
3174.597	675.1
3177.739	682.1
3180.878	685.1
3184.014	700.1
3187.149	685.1
3190.28	686.1
3193.409	683.1
3196.536	695.1
3199.659	711.1
3202.781	692.1
3205.9	722.1
3209.016	699.1
3212.13	693.1
3215.241	694.1
3218.35	689.1
3221.456	693.1
3224.56	679.1
3227.661	669.1
3230.76	655.1
3233.856	669.1
3236.95	638.1
3240.041	633.1
3243.13	629.1
3246.216	613.1
3249.3	608.1
3252.382	604.1
3255.46	609.1
3258.537	592.1
3261.611	584.1
3264.682	577.1
3267.751	570.1
3270.818	566.1
3273.882	563.1
3276.943	560.1
3280.002	563.1
3283.059	575.1
3286.113	552.1
3289.165	549.1
3292.214	538.1
3295.261	530.1
3298.306	530.1
3301.348	522.1
3304.387	515.1
3307.425	510.1
3310.459	498.1
3313.492	495.1
3316.521	496.1
3319.549	488.1
3322.574	485.1
3325.597	488.1
3328.617	477.1
3331.635	460.1
3334.65	486.1
3337.663	466.1
3340.674	473.1
3343.682	470.1
3346.688	466.1
3349.691	474.1
3352.692	464.1
3355.691	463.1
3358.687	446.1
3361.681	446.1
3364.673	452.1
3367.662	447.1
3370.649	442.1
3373.633	422.1
3376.615	416.1
3379.595	410.1
3382.572	410.1
3385.547	402.1
3388.52	402.1
3391.49	400.1
3394.458	370.1
3397.424	371.1
3400.387	357.1
3403.348	359.1
3406.307	352.1
3409.263	351.1
3412.217	344.1
3415.168	348.1
3418.118	347.1
3421.065	329.1
3424.009	327.1
3426.951	330.1
3429.891	317.1
3432.829	308.1
3435.764	302.1
3438.697	296.1
3441.628	290.1
3444.557	276.1
3447.483	263.1
3450.407	251.1
3453.328	241.1
3456.247	235.1
3459.164	223.1
3462.079	224.1
3464.991	203.1
3467.902	198.1
3470.809	200.1
3473.715	180.1
3476.618	174.1
3479.519	164.1
3482.418	152.1
3485.315	144.1
3488.209	139.1
3491.101	135.1
3493.99	135.1
3496.878	130.1
3499.763	117.1
3502.646	108.1
3505.527	97.1
3508.405	97.1
3511.281	87.1
3514.155	76.1
3517.027	74.1
3519.897	73.1
3522.764	61.1
3525.629	45.1
3528.492	39.1
3531.352	34.1
3534.211	27.1
3537.067	16.1
3539.921	16.1
3542.773	12.1
3545.622	5.1
3548.469	-3.9
3551.315	-9.9
3554.157	-6.9
3556.998	-16.9
3559.837	-12.9
3562.673	-19.9
3565.507	-19.9
3568.339	-29.9
3571.169	-46.9
3573.996	-34.9
3576.822	-38.9
3579.645	-38.9
3582.466	-44.9
3585.285	-54.9
3588.101	-46.9
3590.916	-58.9
3593.728	-67.9
3596.538	-62.9
3599.346	-67.9
3602.152	-67.9
3604.956	-68.9
3607.757	-67.9
3610.556	-77.9
3613.354	-72.9
3616.149	-85.9
3618.942	-84.9
3621.732	-89.9
3624.521	-89.9
3627.307	-87.9
3630.092	-86.9
3632.874	-90.9
3635.654	-97.9
3638.432	-98.9
3641.208	-102.9
3643.982	-105.9
3646.753	-103.9
3649.523	-103.9
3652.29	-102.9
3655.055	-98.9
3657.818	-111.9
3660.579	-108.9
3663.338	-110.9
3666.095	-110.9
3668.849	-112.9
3671.602	-117.9
3674.352	-122.9
3677.101	-118.9
3679.847	-123.9
3682.591	-127.9
3685.333	-119.9
3688.073	-122.9
3690.811	-130.9
3693.547	-135.9
3696.281	-130.9
3699.013	-128.9
3701.742	-132.9
3704.47	-132.9
3707.195	-124.9
3709.919	-130.9
3712.64	-132.9
3715.359	-142.9
3718.076	-131.9
3720.792	-131.9
3723.505	-135.9
3726.216	-131.9
3728.925	-139.9
3731.632	-133.9
3734.336	-142.9
3737.039	-142.9
3739.74	-143.9
3742.439	-144.9
3745.136	-133.9
3747.83	-142.9
3750.523	-140.9
3753.213	-148.9
3755.902	-144.9
3758.589	-149.9
3761.273	-137.9
3763.956	-142.9
3766.636	-147.9
3769.315	-132.9
3771.991	-139.9
3774.665	-146.9
3777.338	-138.9
3780.008	-142.9
3782.677	-147.9
3785.343	-145.9
3788.007	-147.9
3790.67	-142.9
3793.33	-141.9
3795.989	-143.9
3798.645	-144.9
3801.299	-145.9
3803.952	-149.9
3806.602	-141.9
3809.251	-149.9
3811.897	-148.9
3814.542	-148.9
3817.184	-139.9
3819.825	-144.9
3822.463	-145.9
3825.1	-146.9
3827.735	-146.9
3830.367	-147.9
3832.998	-149.9
3835.627	-145.9
3838.253	-140.9
3840.878	-143.9
3843.501	-134.9
3846.122	-148.9
3848.741	-152.9
3851.358	-144.9
3853.973	-152.9
3856.586	-152.9
3859.197	-153.9
3861.806	-146.9
3864.414	-148.9
3867.019	-142.9
3869.622	-143.9
3872.224	-136.9
3874.823	-123.9
3877.421	-106.9
3880.016	-74.9
3882.61	-56.9
3885.202	-47.9
3887.792	-70.9
3890.38	-102.9
3892.966	-137.9
3895.55	-139.9
3898.132	-140.9
3900.713	-142.9
3903.291	-151.9
3905.868	-151.9
3908.442	-144.9
3911.015	-154.9
3913.586	-152.9
3916.155	-148.9
3918.722	-152.9
3921.287	-147.9
3923.85	-149.9
3926.411	-151.9
3928.971	-152.9
3931.528	-156.9
3934.084	-143.9
3936.638	-145.9
3939.19	-149.9
3941.74	-152.9
3944.288	-148.9
3946.834	-149.9
3949.378	-147.9
3951.921	-155.9
3954.462	-157.9
3957	-145.9
3959.537	-141.9
3962.072	-150.9
3964.606	-143.9
3967.137	-147.9
3969.667	-151.9
3972.194	-153.9
3974.72	-147.9
3977.244	-150.9
3979.766	-147.9
3982.286	-145.9
3984.805	-150.9
3987.321	-149.9
3989.836	-140.9
3992.349	-153.9
3994.86	-151.9
3997.369	-146.9
3999.877	-146.9
4002.382	-141.9
4004.886	-146.9
4007.388	-147.9
4009.888	-145.9
4012.386	-155.9
4014.883	-150.9
4017.377	-147.9
4019.87	-149.9
4022.361	-144.9
4024.85	-147.9
4027.338	-145.9
4029.823	-146.9
4032.307	-143.9
4034.789	-152.9
4037.269	-151.9
4039.747	-149.9
4042.224	-144.9
4044.699	-151.9
4047.172	-146.9
4049.643	-142.9
4052.112	-145.9
4054.58	-152.9
4057.046	-149.9
4059.51	-153.9
4061.972	-140.9
4064.432	-144.9
4066.891	-147.9
4069.348	-145.9
4071.803	-152.9
4074.256	-148.9
4076.708	-146.9
4079.158	-152.9
4081.606	-143.9
4084.052	-146.9
4086.497	-142.9
4088.939	-142.9
4091.38	-146.9
4093.819	-147.9
4096.257	-154.9
4098.693	-151.9
4101.127	-155.9
4103.559	-148.9
4105.989	19.1
4108.418	10.1
4110.845	10.1
4113.27	13.1
4115.694	1.1
4118.115	-0.9
4120.535	-153.9
4122.954	-153.9
4125.37	-146.9
4127.785	-146.9
4130.198	-146.9
4132.609	-147.9
4135.019	-154.9
4137.427	-158.9
4139.833	-157.9
4142.237	-158.9
