Data from 2018-2-8_conc=3_n=10_RamanShift_05.txt Node
Date: Mon Mar 12 15:00:58 IST 2018
User: aro
Spectrometer: QEPB0276
Trigger mode: 0
Integration Time (sec): 3.000000E1
Scans to average: 1
Electric dark correction enabled: true
Nonlinearity correction enabled: false
Boxcar width: 0
XAxis mode: Raman Shifts
Number of Pixels in Spectrum: 1044
>>>>>Begin Spectral Data<<<<<
160.701	70.1
166.742	42.1
172.777	144.1
178.805	468.1
184.826	1255.1
190.841	2753.1
196.849	4599.1
202.85	6040.1
208.845	6630.1
214.833	6589.1
220.815	6518.1
226.789	6538.1
232.758	6507.1
238.719	6482.1
244.674	6438.1
250.623	6351.1
256.565	6253.1
262.5	6155.1
268.429	6069.1
274.351	5988.1
280.267	5910.1
286.176	5896.1
292.079	5856.1
297.975	5798.1
303.865	5849.1
309.748	5820.1
315.625	5783.1
321.495	5770.1
327.359	5752.1
333.217	5709.1
339.068	5758.1
344.912	5758.1
350.751	5732.1
356.583	5763.1
362.408	5750.1
368.227	5790.1
374.04	5813.1
379.847	5793.1
385.647	5852.1
391.44	5847.1
397.228	5855.1
403.009	5910.1
408.784	5905.1
414.553	5935.1
420.315	5943.1
426.071	5962.1
431.821	5945.1
437.565	5953.1
443.302	5944.1
449.033	5944.1
454.758	5901.1
460.477	5884.1
466.189	5884.1
471.896	5853.1
477.596	5804.1
483.29	5761.1
488.978	5779.1
494.66	5727.1
500.335	5677.1
506.005	5561.1
511.668	5400.1
517.325	5261.1
522.977	5144.1
528.622	5071.1
534.261	4998.1
539.894	4981.1
545.521	4910.1
551.141	4874.1
556.756	4877.1
562.365	4836.1
567.968	4776.1
573.565	4779.1
579.155	4755.1
584.74	4716.1
590.319	4693.1
595.892	4676.1
601.459	4700.1
607.02	4660.1
612.575	4624.1
618.124	4597.1
623.667	4557.1
629.204	4531.1
634.735	4485.1
640.261	4466.1
645.781	4419.1
651.294	4406.1
656.802	4432.1
662.304	4409.1
667.8	4382.1
673.29	4360.1
678.775	4371.1
684.254	4360.1
689.726	4339.1
695.193	4329.1
700.655	4312.1
706.11	4292.1
711.56	4251.1
717.004	4234.1
722.442	4212.1
727.874	4173.1
733.301	4187.1
738.722	4146.1
744.137	4160.1
749.547	4127.1
754.951	4156.1
760.349	4147.1
765.741	4141.1
771.128	4151.1
776.509	4174.1
781.885	4192.1
787.254	4206.1
792.618	4200.1
797.977	4145.1
803.33	4151.1
808.677	4106.1
814.019	4096.1
819.355	4039.1
824.686	4022.1
830.011	4028.1
835.33	3990.1
840.644	3974.1
845.952	3995.1
851.255	3973.1
856.552	3972.1
861.844	3956.1
867.13	3949.1
872.41	3946.1
877.686	3878.1
882.955	3856.1
888.219	3829.1
893.478	3780.1
898.731	3739.1
903.979	3692.1
909.221	3658.1
914.458	3632.1
919.69	3611.1
924.916	3627.1
930.136	3658.1
935.351	3646.1
940.561	3649.1
945.766	3641.1
950.965	3628.1
956.158	3603.1
961.347	3576.1
966.529	3551.1
971.707	3483.1
976.879	3437.1
982.046	3393.1
987.208	3384.1
992.364	3360.1
997.515	3393.1
1002.66	3422.1
1007.801	3430.1
1012.936	3486.1
1018.066	3474.1
1023.19	3476.1
1028.309	3500.1
1033.423	3463.1
1038.532	3464.1
1043.636	3444.1
1048.734	3401.1
1053.827	3354.1
1058.915	3324.1
1063.998	3305.1
1069.075	3273.1
1074.147	3290.1
1079.214	3261.1
1084.276	3292.1
1089.333	3307.1
1094.385	3354.1
1099.431	3345.1
1104.472	3345.1
1109.509	3317.1
1114.54	3255.1
1119.565	3242.1
1124.586	3157.1
1129.602	3155.1
1134.613	3109.1
1139.618	3079.1
1144.619	3091.1
1149.614	3078.1
1154.604	3103.1
1159.589	3121.1
1164.57	3125.1
1169.545	3100.1
1174.515	3121.1
1179.48	3102.1
1184.44	3070.1
1189.395	3051.1
1194.345	3024.1
1199.29	3014.1
1204.23	2993.1
1209.165	3021.1
1214.095	3040.1
1219.021	3041.1
1223.941	3055.1
1228.856	3067.1
1233.766	3072.1
1238.672	3089.1
1243.572	3082.1
1248.467	3075.1
1253.358	3047.1
1258.244	2996.1
1263.124	2951.1
1268	2877.1
1272.871	2852.1
1277.737	2824.1
1282.599	2834.1
1287.455	2819.1
1292.306	2832.1
1297.153	2833.1
1301.995	2834.1
1306.832	2836.1
1311.664	2888.1
1316.491	2880.1
1321.314	2877.1
1326.132	2880.1
1330.945	2832.1
1335.753	2774.1
1340.556	2740.1
1345.354	2734.1
1350.148	2669.1
1354.937	2637.1
1359.722	2593.1
1364.501	2530.1
1369.276	2483.1
1374.046	2430.1
1378.811	2405.1
1383.572	2395.1
1388.327	2406.1
1393.079	2395.1
1397.825	2415.1
1402.567	2397.1
1407.304	2401.1
1412.036	2397.1
1416.764	2426.1
1421.487	2422.1
1426.205	2446.1
1430.919	2432.1
1435.628	2455.1
1440.333	2463.1
1445.032	2469.1
1449.727	2501.1
1454.418	2523.1
1459.104	2518.1
1463.785	2469.1
1468.462	2436.1
1473.134	2379.1
1477.802	2353.1
1482.465	2284.1
1487.123	2238.1
1491.777	2202.1
1496.426	2182.1
1501.071	2143.1
1505.711	2154.1
1510.347	2149.1
1514.978	2137.1
1519.604	2145.1
1524.226	2132.1
1528.844	2115.1
1533.457	2095.1
1538.065	2093.1
1542.669	2078.1
1547.269	2090.1
1551.864	2086.1
1556.454	2113.1
1561.041	2143.1
1565.622	2143.1
1570.199	2152.1
1574.772	2193.1
1579.34	2201.1
1583.904	2231.1
1588.464	2244.1
1593.019	2266.1
1597.569	2259.1
1602.115	2243.1
1606.657	2265.1
1611.195	2235.1
1615.728	2243.1
1620.256	2223.1
1624.78	2242.1
1629.3	2243.1
1633.816	2223.1
1638.327	2257.1
1642.834	2266.1
1647.336	2273.1
1651.834	2280.1
1656.328	2289.1
1660.817	2258.1
1665.302	2248.1
1669.783	2208.1
1674.259	2154.1
1678.732	2102.1
1683.199	2061.1
1687.663	1986.1
1692.122	1918.1
1696.577	1839.1
1701.028	1750.1
1705.474	1703.1
1709.917	1635.1
1714.355	1584.1
1718.788	1587.1
1723.218	1582.1
1727.643	1601.1
1732.064	1585.1
1736.481	1567.1
1740.893	1529.1
1745.301	1496.1
1749.705	1476.1
1754.105	1448.1
1758.501	1417.1
1762.893	1389.1
1767.28	1387.1
1771.663	1377.1
1776.042	1342.1
1780.417	1333.1
1784.787	1311.1
1789.154	1302.1
1793.516	1302.1
1797.874	1263.1
1802.228	1252.1
1806.578	1246.1
1810.924	1239.1
1815.266	1224.1
1819.603	1206.1
1823.937	1223.1
1828.266	1212.1
1832.591	1222.1
1836.913	1232.1
1841.23	1226.1
1845.543	1223.1
1849.852	1215.1
1854.156	1219.1
1858.457	1226.1
1862.754	1215.1
1867.047	1232.1
1871.335	1220.1
1875.62	1227.1
1879.9	1209.1
1884.177	1218.1
1888.449	1192.1
1892.718	1181.1
1896.982	1166.1
1901.243	1139.1
1905.499	1146.1
1909.752	1121.1
1914	1096.1
1918.245	1091.1
1922.485	1075.1
1926.722	1077.1
1930.954	1066.1
1935.183	1058.1
1939.408	1052.1
1943.628	1044.1
1947.845	1034.1
1952.058	1023.1
1956.267	1008.1
1960.472	1006.1
1964.673	1001.1
1968.87	992.1
1973.063	978.1
1977.252	969.1
1981.438	994.1
1985.619	971.1
1989.797	971.1
1993.971	974.1
1998.14	981.1
2002.306	984.1
2006.469	999.1
2010.627	991.1
2014.781	1006.1
2018.932	997.1
2023.078	991.1
2027.221	992.1
2031.36	978.1
2035.495	973.1
2039.627	954.1
2043.754	930.1
2047.878	936.1
2051.998	914.1
2056.114	918.1
2060.226	912.1
2064.334	921.1
2068.439	910.1
2072.54	904.1
2076.637	906.1
2080.73	908.1
2084.82	895.1
2088.906	881.1
2092.988	882.1
2097.066	876.1
2101.14	851.1
2105.211	837.1
2109.278	830.1
2113.342	821.1
2117.401	805.1
2121.457	811.1
2125.509	793.1
2129.558	812.1
2133.602	805.1
2137.643	793.1
2141.681	803.1
2145.714	801.1
2149.744	801.1
2153.77	799.1
2157.793	787.1
2161.812	788.1
2165.827	785.1
2169.838	781.1
2173.846	756.1
2177.851	752.1
2181.851	733.1
2185.848	724.1
2189.841	727.1
2193.831	719.1
2197.817	720.1
2201.799	717.1
2205.778	712.1
2209.753	705.1
2213.725	707.1
2217.693	695.1
2221.657	708.1
2225.618	697.1
2229.575	697.1
2233.529	696.1
2237.479	686.1
2241.425	673.1
2245.368	668.1
2249.307	652.1
2253.243	631.1
2257.175	634.1
2261.104	628.1
2265.029	610.1
2268.95	608.1
2272.868	607.1
2276.783	595.1
2280.694	603.1
2284.601	571.1
2288.505	575.1
2292.405	569.1
2296.302	569.1
2300.195	553.1
2304.085	549.1
2307.971	532.1
2311.854	538.1
2315.734	513.1
2319.609	515.1
2323.482	521.1
2327.351	516.1
2331.216	526.1
2335.078	531.1
2338.937	510.1
2342.792	504.1
2346.643	493.1
2350.492	503.1
2354.336	498.1
2358.178	502.1
2362.015	495.1
2365.85	500.1
2369.681	506.1
2373.508	494.1
2377.333	503.1
2381.153	482.1
2384.971	494.1
2388.785	490.1
2392.595	488.1
2396.402	485.1
2400.206	493.1
2404.007	478.1
2407.804	470.1
2411.597	467.1
2415.388	473.1
2419.174	475.1
2422.958	472.1
2426.738	461.1
2430.515	460.1
2434.289	455.1
2438.059	447.1
2441.825	451.1
2445.589	452.1
2449.349	448.1
2453.106	426.1
2456.859	433.1
2460.61	423.1
2464.356	415.1
2468.1	419.1
2471.84	412.1
2475.577	411.1
2479.311	396.1
2483.041	397.1
2486.768	391.1
2490.492	391.1
2494.213	391.1
2497.93	371.1
2501.644	386.1
2505.355	383.1
2509.062	376.1
2512.766	384.1
2516.467	363.1
2520.165	362.1
2523.859	363.1
2527.551	358.1
2531.239	349.1
2534.923	341.1
2538.605	345.1
2542.283	324.1
2545.958	327.1
2549.63	327.1
2553.299	315.1
2556.964	330.1
2560.626	318.1
2564.285	312.1
2567.941	305.1
2571.594	301.1
2575.243	302.1
2578.89	299.1
2582.533	296.1
2586.173	284.1
2589.809	280.1
2593.443	295.1
2597.073	279.1
2600.701	269.1
2604.325	261.1
2607.946	271.1
2611.564	267.1
2615.178	278.1
2618.79	270.1
2622.398	276.1
2626.004	269.1
2629.606	258.1
2633.205	260.1
2636.801	242.1
2640.394	258.1
2643.983	248.1
2647.57	246.1
2651.153	243.1
2654.734	236.1
2658.311	222.1
2661.885	233.1
2665.456	233.1
2669.025	226.1
2672.589	232.1
2676.151	233.1
2679.71	227.1
2683.266	210.1
2686.819	212.1
2690.368	221.1
2693.915	206.1
2697.458	205.1
2700.999	204.1
2704.536	199.1
2708.071	195.1
2711.602	194.1
2715.13	192.1
2718.656	188.1
2722.178	185.1
2725.697	184.1
2729.214	176.1
2732.727	182.1
2736.237	176.1
2739.744	172.1
2743.249	173.1
2746.75	166.1
2750.248	164.1
2753.743	157.1
2757.236	162.1
2760.725	152.1
2764.211	143.1
2767.695	138.1
2771.175	131.1
2774.652	134.1
2778.127	134.1
2781.598	142.1
2785.067	145.1
2788.532	142.1
2791.995	144.1
2795.455	142.1
2798.911	141.1
2802.365	144.1
2805.816	147.1
2809.264	143.1
2812.709	151.1
2816.151	152.1
2819.59	148.1
2823.026	141.1
2826.46	146.1
2829.89	144.1
2833.318	137.1
2836.742	143.1
2840.164	147.1
2843.583	150.1
2846.999	148.1
2850.412	154.1
2853.822	153.1
2857.229	153.1
2860.634	159.1
2864.035	162.1
2867.434	174.1
2870.83	171.1
2874.223	194.1
2877.613	181.1
2881	201.1
2884.385	201.1
2887.766	184.1
2891.145	191.1
2894.521	198.1
2897.894	209.1
2901.264	211.1
2904.631	199.1
2907.996	211.1
2911.358	210.1
2914.717	210.1
2918.073	222.1
2921.426	228.1
2924.777	235.1
2928.124	239.1
2931.469	235.1
2934.811	245.1
2938.15	245.1
2941.487	247.1
2944.821	253.1
2948.152	264.1
2951.48	268.1
2954.805	267.1
2958.128	260.1
2961.447	254.1
2964.765	256.1
2968.079	249.1
2971.39	250.1
2974.699	259.1
2978.005	260.1
2981.308	265.1
2984.609	273.1
2987.907	259.1
2991.202	270.1
2994.494	260.1
2997.784	268.1
3001.07	279.1
3004.355	292.1
3007.636	285.1
3010.915	282.1
3014.191	291.1
3017.464	292.1
3020.734	304.1
3024.002	292.1
3027.267	312.1
3030.53	313.1
3033.789	329.1
3037.046	340.1
3040.301	333.1
3043.552	364.1
3046.801	364.1
3050.048	366.1
3053.291	382.1
3056.532	398.1
3059.771	414.1
3063.006	421.1
3066.239	444.1
3069.469	453.1
3072.697	457.1
3075.922	476.1
3079.144	484.1
3082.364	509.1
3085.581	524.1
3088.795	522.1
3092.007	538.1
3095.216	545.1
3098.423	549.1
3101.627	578.1
3104.828	582.1
3108.026	599.1
3111.222	609.1
3114.416	620.1
3117.607	629.1
3120.795	645.1
3123.98	662.1
3127.163	680.1
3130.344	700.1
3133.521	702.1
3136.696	730.1
3139.869	737.1
3143.039	762.1
3146.206	768.1
3149.371	756.1
3152.533	785.1
3155.693	778.1
3158.85	800.1
3162.005	799.1
3165.157	812.1
3168.306	820.1
3171.453	805.1
3174.597	823.1
3177.739	816.1
3180.878	810.1
3184.014	845.1
3187.149	834.1
3190.28	837.1
3193.409	846.1
3196.536	849.1
3199.659	847.1
3202.781	863.1
3205.9	852.1
3209.016	850.1
3212.13	858.1
3215.241	848.1
3218.35	847.1
3221.456	821.1
3224.56	825.1
3227.661	797.1
3230.76	799.1
3233.856	798.1
3236.95	775.1
3240.041	768.1
3243.13	754.1
3246.216	756.1
3249.3	739.1
3252.382	735.1
3255.46	734.1
3258.537	714.1
3261.611	696.1
3264.682	699.1
3267.751	700.1
3270.818	690.1
3273.882	682.1
3276.943	675.1
3280.002	686.1
3283.059	673.1
3286.113	675.1
3289.165	654.1
3292.214	656.1
3295.261	648.1
3298.306	649.1
3301.348	633.1
3304.387	635.1
3307.425	624.1
3310.459	623.1
3313.492	592.1
3316.521	596.1
3319.549	581.1
3322.574	593.1
3325.597	575.1
3328.617	591.1
3331.635	578.1
3334.65	582.1
3337.663	558.1
3340.674	579.1
3343.682	568.1
3346.688	572.1
3349.691	576.1
3352.692	570.1
3355.691	563.1
3358.687	552.1
3361.681	555.1
3364.673	559.1
3367.662	537.1
3370.649	535.1
3373.633	515.1
3376.615	514.1
3379.595	504.1
3382.572	501.1
3385.547	486.1
3388.52	486.1
3391.49	482.1
3394.458	471.1
3397.424	462.1
3400.387	454.1
3403.348	460.1
3406.307	443.1
3409.263	434.1
3412.217	436.1
3415.168	422.1
3418.118	432.1
3421.065	407.1
3424.009	404.1
3426.951	411.1
3429.891	387.1
3432.829	382.1
3435.764	378.1
3438.697	361.1
3441.628	347.1
3444.557	346.1
3447.483	328.1
3450.407	304.1
3453.328	301.1
3456.247	297.1
3459.164	279.1
3462.079	263.1
3464.991	252.1
3467.902	244.1
3470.809	235.1
3473.715	217.1
3476.618	214.1
3479.519	205.1
3482.418	184.1
3485.315	181.1
3488.209	176.1
3491.101	165.1
3493.99	174.1
3496.878	153.1
3499.763	143.1
3502.646	129.1
3505.527	115.1
3508.405	118.1
3511.281	110.1
3514.155	98.1
3517.027	96.1
3519.897	84.1
3522.764	78.1
3525.629	62.1
3528.492	50.1
3531.352	41.1
3534.211	40.1
3537.067	30.1
3539.921	29.1
3542.773	20.1
3545.622	3.1
3548.469	-5.9
3551.315	-3.9
3554.157	-14.9
3556.998	-16.9
3559.837	-13.9
3562.673	-18.9
3565.507	-23.9
3568.339	-34.9
3571.169	-45.9
3573.996	-41.9
3576.822	-46.9
3579.645	-45.9
3582.466	-45.9
3585.285	-64.9
3588.101	-51.9
3590.916	-70.9
3593.728	-73.9
3596.538	-72.9
3599.346	-81.9
3602.152	-74.9
3604.956	-77.9
3607.757	-76.9
3610.556	-88.9
3613.354	-92.9
3616.149	-98.9
3618.942	-99.9
3621.732	-105.9
3624.521	-99.9
3627.307	-97.9
3630.092	-103.9
3632.874	-105.9
3635.654	-109.9
3638.432	-110.9
3641.208	-110.9
3643.982	-113.9
3646.753	-119.9
3649.523	-118.9
3652.29	-117.9
3655.055	-118.9
3657.818	-123.9
3660.579	-124.9
3663.338	-123.9
3666.095	-132.9
3668.849	-127.9
3671.602	-134.9
3674.352	-136.9
3677.101	-139.9
3679.847	-141.9
3682.591	-143.9
3685.333	-138.9
3688.073	-139.9
3690.811	-142.9
3693.547	-149.9
3696.281	-150.9
3699.013	-149.9
3701.742	-152.9
3704.47	-151.9
3707.195	-144.9
3709.919	-154.9
3712.64	-150.9
3715.359	-157.9
3718.076	-157.9
3720.792	-159.9
3723.505	-159.9
3726.216	-151.9
3728.925	-159.9
3731.632	-156.9
3734.336	-165.9
3737.039	-160.9
3739.74	-166.9
3742.439	-167.9
3745.136	-159.9
3747.83	-163.9
3750.523	-162.9
3753.213	-158.9
3755.902	-164.9
3758.589	-168.9
3761.273	-160.9
3763.956	-161.9
3766.636	-161.9
3769.315	-161.9
3771.991	-157.9
3774.665	-169.9
3777.338	-165.9
3780.008	-166.9
3782.677	-167.9
3785.343	-163.9
3788.007	-165.9
3790.67	-170.9
3793.33	-159.9
3795.989	-162.9
3798.645	-162.9
3801.299	-172.9
3803.952	-170.9
3806.602	-160.9
3809.251	-169.9
3811.897	-172.9
3814.542	-170.9
3817.184	-164.9
3819.825	-166.9
3822.463	-172.9
3825.1	-166.9
3827.735	-167.9
3830.367	-172.9
3832.998	-176.9
3835.627	-165.9
3838.253	-165.9
3840.878	-169.9
3843.501	-166.9
3846.122	-170.9
3848.741	-170.9
3851.358	-166.9
3853.973	-176.9
3856.586	-168.9
3859.197	-179.9
3861.806	-168.9
3864.414	-176.9
3867.019	-165.9
3869.622	-166.9
3872.224	-156.9
3874.823	-150.9
3877.421	-141.9
3880.016	-115.9
3882.61	-89.9
3885.202	-93.9
3887.792	-102.9
3890.38	-134.9
3892.966	-157.9
3895.55	-168.9
3898.132	-168.9
3900.713	-171.9
3903.291	-172.9
3905.868	-175.9
3908.442	-169.9
3911.015	-176.9
3913.586	-170.9
3916.155	-177.9
3918.722	-173.9
3921.287	-176.9
3923.85	-175.9
3926.411	-174.9
3928.971	-171.9
3931.528	-173.9
3934.084	-174.9
3936.638	-173.9
3939.19	-178.9
3941.74	-180.9
3944.288	-171.9
3946.834	-173.9
3949.378	-171.9
3951.921	-173.9
3954.462	-180.9
3957	-171.9
3959.537	-174.9
3962.072	-174.9
3964.606	-170.9
3967.137	-173.9
3969.667	-169.9
3972.194	-177.9
3974.72	-172.9
3977.244	-175.9
3979.766	-173.9
3982.286	-171.9
3984.805	-175.9
3987.321	-169.9
3989.836	-163.9
3992.349	-172.9
3994.86	-170.9
3997.369	-169.9
3999.877	-168.9
4002.382	-170.9
4004.886	-179.9
4007.388	-175.9
4009.888	-165.9
4012.386	-171.9
4014.883	-170.9
4017.377	-168.9
4019.87	-169.9
4022.361	-179.9
4024.85	-177.9
4027.338	-173.9
4029.823	-169.9
4032.307	-169.9
4034.789	-170.9
4037.269	-172.9
4039.747	-172.9
4042.224	-176.9
4044.699	-169.9
4047.172	-172.9
4049.643	-170.9
4052.112	-170.9
4054.58	-169.9
4057.046	-170.9
4059.51	-174.9
4061.972	-170.9
4064.432	-172.9
4066.891	-173.9
4069.348	-166.9
4071.803	-174.9
4074.256	-173.9
4076.708	-166.9
4079.158	-172.9
4081.606	-168.9
4084.052	-175.9
4086.497	-170.9
4088.939	-165.9
4091.38	-170.9
4093.819	-171.9
4096.257	-180.9
4098.693	-177.9
4101.127	-177.9
4103.559	-171.9
4105.989	-9.9
4108.418	-7.9
4110.845	138.1
4113.27	107.1
4115.694	108.1
4118.115	103.1
4120.535	-177.9
4122.954	-174.9
4125.37	-170.9
4127.785	-174.9
4130.198	-171.9
4132.609	-167.9
4135.019	-180.9
4137.427	-181.9
4139.833	-180.9
4142.237	-180.9
