Data from 2018-2-8_conc=6_n=4_RamanShift_04.txt Node
Date: Mon Mar 12 16:34:28 IST 2018
User: aro
Spectrometer: QEPB0276
Trigger mode: 0
Integration Time (sec): 3.000000E1
Scans to average: 1
Electric dark correction enabled: true
Nonlinearity correction enabled: false
Boxcar width: 0
XAxis mode: Raman Shifts
Number of Pixels in Spectrum: 1044
>>>>>Begin Spectral Data<<<<<
160.701	15
166.742	41
172.777	130
178.805	407
184.826	1139
190.841	2427
196.849	4053
202.85	5283
208.845	5767
214.833	5769
220.815	5701
226.789	5680
232.758	5656
238.719	5682
244.674	5626
250.623	5559
256.565	5470
262.5	5401
268.429	5355
274.351	5285
280.267	5267
286.176	5222
292.079	5211
297.975	5172
303.865	5141
309.748	5147
315.625	5101
321.495	5090
327.359	5086
333.217	5088
339.068	5106
344.912	5112
350.751	5109
356.583	5113
362.408	5130
368.227	5143
374.04	5141
379.847	5185
385.647	5179
391.44	5196
397.228	5231
403.009	5246
408.784	5263
414.553	5296
420.315	5316
426.071	5299
431.821	5317
437.565	5281
443.302	5291
449.033	5284
454.758	5235
460.477	5222
466.189	5224
471.896	5163
477.596	5135
483.29	5125
488.978	5126
494.66	5106
500.335	5055
506.005	4940
511.668	4777
517.325	4634
522.977	4538
528.622	4466
534.261	4422
539.894	4346
545.521	4331
551.141	4317
556.756	4279
562.365	4231
567.968	4195
573.565	4165
579.155	4163
584.74	4171
590.319	4131
595.892	4138
601.459	4096
607.02	4090
612.575	4065
618.124	4046
623.667	3986
629.204	3981
634.735	3932
640.261	3906
645.781	3889
651.294	3902
656.802	3877
662.304	3863
667.8	3834
673.29	3839
678.775	3847
684.254	3819
689.726	3807
695.193	3796
700.655	3793
706.11	3750
711.56	3746
717.004	3723
722.442	3678
727.874	3675
733.301	3640
738.722	3661
744.137	3621
749.547	3645
754.951	3623
760.349	3629
765.741	3631
771.128	3660
776.509	3682
781.885	3702
787.254	3701
792.618	3718
797.977	3694
803.33	3660
808.677	3645
814.019	3588
819.355	3562
824.686	3540
830.011	3541
835.33	3516
840.644	3500
845.952	3521
851.255	3505
856.552	3484
861.844	3470
867.13	3466
872.41	3441
877.686	3421
882.955	3402
888.219	3376
893.478	3312
898.731	3300
903.979	3240
909.221	3212
914.458	3212
919.69	3196
924.916	3176
930.136	3216
935.351	3197
940.561	3235
945.766	3207
950.965	3196
956.158	3174
961.347	3115
966.529	3094
971.707	3045
976.879	3003
982.046	2979
987.208	2975
992.364	2953
997.515	2978
1002.66	3013
1007.801	3041
1012.936	3054
1018.066	3064
1023.19	3083
1028.309	3072
1033.423	3063
1038.532	3077
1043.636	3021
1048.734	3002
1053.827	2953
1058.915	2911
1063.998	2896
1069.075	2900
1074.147	2897
1079.214	2900
1084.276	2904
1089.333	2911
1094.385	2916
1099.431	2918
1104.472	2939
1109.509	2913
1114.54	2881
1119.565	2852
1124.586	2801
1129.602	2787
1134.613	2750
1139.618	2717
1144.619	2722
1149.614	2717
1154.604	2731
1159.589	2747
1164.57	2738
1169.545	2735
1174.515	2750
1179.48	2715
1184.44	2719
1189.395	2696
1194.345	2662
1199.29	2648
1204.23	2647
1209.165	2647
1214.095	2666
1219.021	2678
1223.941	2706
1228.856	2699
1233.766	2739
1238.672	2732
1243.572	2716
1248.467	2705
1253.358	2672
1258.244	2619
1263.124	2597
1268	2549
1272.871	2513
1277.737	2497
1282.599	2465
1287.455	2484
1292.306	2484
1297.153	2519
1301.995	2494
1306.832	2514
1311.664	2548
1316.491	2569
1321.314	2538
1326.132	2512
1330.945	2514
1335.753	2460
1340.556	2437
1345.354	2386
1350.148	2359
1354.937	2327
1359.722	2271
1364.501	2251
1369.276	2201
1374.046	2168
1378.811	2149
1383.572	2127
1388.327	2145
1393.079	2130
1397.825	2135
1402.567	2129
1407.304	2124
1412.036	2114
1416.764	2138
1421.487	2131
1426.205	2148
1430.919	2149
1435.628	2167
1440.333	2171
1445.032	2184
1449.727	2210
1454.418	2235
1459.104	2224
1463.785	2187
1468.462	2149
1473.134	2099
1477.802	2064
1482.465	2029
1487.123	1972
1491.777	1963
1496.426	1942
1501.071	1919
1505.711	1922
1510.347	1899
1514.978	1929
1519.604	1917
1524.226	1919
1528.844	1881
1533.457	1888
1538.065	1895
1542.669	1880
1547.269	1870
1551.864	1881
1556.454	1892
1561.041	1913
1565.622	1923
1570.199	1928
1574.772	1949
1579.34	1972
1583.904	1984
1588.464	2003
1593.019	1992
1597.569	2017
1602.115	1972
1606.657	2001
1611.195	1986
1615.728	1997
1620.256	2001
1624.78	1989
1629.3	1978
1633.816	1987
1638.327	1999
1642.834	2018
1647.336	2031
1651.834	2021
1656.328	2004
1660.817	2023
1665.302	1995
1669.783	1947
1674.259	1911
1678.732	1877
1683.199	1817
1687.663	1778
1692.122	1697
1696.577	1659
1701.028	1573
1705.474	1520
1709.917	1467
1714.355	1441
1718.788	1435
1723.218	1427
1727.643	1422
1732.064	1439
1736.481	1411
1740.893	1387
1745.301	1359
1749.705	1336
1754.105	1317
1758.501	1284
1762.893	1275
1767.28	1265
1771.663	1247
1776.042	1235
1780.417	1212
1784.787	1204
1789.154	1183
1793.516	1185
1797.874	1172
1802.228	1158
1806.578	1149
1810.924	1128
1815.266	1110
1819.603	1107
1823.937	1113
1828.266	1110
1832.591	1108
1836.913	1113
1841.23	1138
1845.543	1100
1849.852	1114
1854.156	1120
1858.457	1110
1862.754	1103
1867.047	1114
1871.335	1117
1875.62	1117
1879.9	1106
1884.177	1112
1888.449	1088
1892.718	1084
1896.982	1055
1901.243	1041
1905.499	1049
1909.752	1027
1914	1004
1918.245	997
1922.485	987
1926.722	968
1930.954	973
1935.183	971
1939.408	936
1943.628	980
1947.845	957
1952.058	948
1956.267	937
1960.472	925
1964.673	914
1968.87	919
1973.063	904
1977.252	901
1981.438	914
1985.619	899
1989.797	891
1993.971	908
1998.14	913
2002.306	906
2006.469	918
2010.627	929
2014.781	910
2018.932	912
2023.078	908
2027.221	898
2031.36	891
2035.495	893
2039.627	870
2043.754	852
2047.878	851
2051.998	853
2056.114	829
2060.226	844
2064.334	841
2068.439	827
2072.54	838
2076.637	829
2080.73	807
2084.82	821
2088.906	805
2092.988	803
2097.066	807
2101.14	788
2105.211	772
2109.278	760
2113.342	752
2117.401	750
2121.457	736
2125.509	737
2129.558	741
2133.602	733
2137.643	740
2141.681	735
2145.714	738
2149.744	748
2153.77	738
2157.793	738
2161.812	719
2165.827	710
2169.838	712
2173.846	704
2177.851	676
2181.851	678
2185.848	672
2189.841	675
2193.831	659
2197.817	669
2201.799	647
2205.778	652
2209.753	644
2213.725	641
2217.693	641
2221.657	640
2225.618	636
2229.575	642
2233.529	633
2237.479	621
2241.425	632
2245.368	611
2249.307	605
2253.243	588
2257.175	583
2261.104	573
2265.029	555
2268.95	574
2272.868	563
2276.783	543
2280.694	545
2284.601	528
2288.505	531
2292.405	534
2296.302	526
2300.195	514
2304.085	501
2307.971	490
2311.854	494
2315.734	476
2319.609	469
2323.482	488
2327.351	484
2331.216	486
2335.078	486
2338.937	462
2342.792	459
2346.643	447
2350.492	444
2354.336	460
2358.178	456
2362.015	456
2365.85	452
2369.681	447
2373.508	468
2377.333	452
2381.153	456
2384.971	453
2388.785	446
2392.595	445
2396.402	428
2400.206	428
2404.007	434
2407.804	440
2411.597	431
2415.388	424
2419.174	435
2422.958	421
2426.738	419
2430.515	424
2434.289	414
2438.059	410
2441.825	409
2445.589	401
2449.349	387
2453.106	392
2456.859	388
2460.61	392
2464.356	381
2468.1	372
2471.84	369
2475.577	360
2479.311	360
2483.041	357
2486.768	366
2490.492	371
2494.213	360
2497.93	364
2501.644	356
2505.355	339
2509.062	340
2512.766	347
2516.467	342
2520.165	341
2523.859	343
2527.551	326
2531.239	313
2534.923	304
2538.605	321
2542.283	304
2545.958	304
2549.63	298
2553.299	299
2556.964	302
2560.626	295
2564.285	275
2567.941	289
2571.594	287
2575.243	281
2578.89	276
2582.533	267
2586.173	270
2589.809	267
2593.443	266
2597.073	258
2600.701	251
2604.325	245
2607.946	260
2611.564	257
2615.178	250
2618.79	253
2622.398	254
2626.004	251
2629.606	247
2633.205	228
2636.801	231
2640.394	242
2643.983	232
2647.57	230
2651.153	231
2654.734	237
2658.311	220
2661.885	218
2665.456	219
2669.025	226
2672.589	221
2676.151	217
2679.71	208
2683.266	205
2686.819	196
2690.368	206
2693.915	192
2697.458	198
2700.999	199
2704.536	196
2708.071	187
2711.602	180
2715.13	187
2718.656	172
2722.178	170
2725.697	170
2729.214	169
2732.727	172
2736.237	168
2739.744	159
2743.249	159
2746.75	160
2750.248	158
2753.743	147
2757.236	146
2760.725	146
2764.211	146
2767.695	139
2771.175	127
2774.652	134
2778.127	135
2781.598	132
2785.067	138
2788.532	142
2791.995	133
2795.455	139
2798.911	141
2802.365	143
2805.816	144
2809.264	138
2812.709	148
2816.151	147
2819.59	143
2823.026	140
2826.46	135
2829.89	140
2833.318	138
2836.742	145
2840.164	132
2843.583	146
2846.999	143
2850.412	140
2853.822	139
2857.229	143
2860.634	153
2864.035	158
2867.434	153
2870.83	169
2874.223	172
2877.613	176
2881	179
2884.385	177
2887.766	180
2891.145	181
2894.521	186
2897.894	199
2901.264	187
2904.631	185
2907.996	193
2911.358	195
2914.717	203
2918.073	191
2921.426	210
2924.777	214
2928.124	215
2931.469	214
2934.811	225
2938.15	230
2941.487	233
2944.821	235
2948.152	236
2951.48	240
2954.805	242
2958.128	224
2961.447	235
2964.765	232
2968.079	225
2971.39	229
2974.699	236
2978.005	236
2981.308	244
2984.609	234
2987.907	240
2991.202	243
2994.494	241
2997.784	239
3001.07	260
3004.355	261
3007.636	257
3010.915	258
3014.191	267
3017.464	264
3020.734	258
3024.002	270
3027.267	283
3030.53	285
3033.789	302
3037.046	301
3040.301	293
3043.552	314
3046.801	312
3050.048	328
3053.291	349
3056.532	357
3059.771	362
3063.006	378
3066.239	379
3069.469	402
3072.697	412
3075.922	425
3079.144	447
3082.364	444
3085.581	455
3088.795	461
3092.007	469
3095.216	481
3098.423	479
3101.627	496
3104.828	522
3108.026	524
3111.222	538
3114.416	548
3117.607	571
3120.795	559
3123.98	573
3127.163	596
3130.344	605
3133.521	624
3136.696	648
3139.869	646
3143.039	653
3146.206	665
3149.371	677
3152.533	699
3155.693	696
3158.85	699
3162.005	700
3165.157	709
3168.306	698
3171.453	714
3174.597	717
3177.739	730
3180.878	719
3184.014	738
3187.149	725
3190.28	726
3193.409	732
3196.536	736
3199.659	740
3202.781	748
3205.9	735
3209.016	747
3212.13	747
3215.241	749
3218.35	730
3221.456	723
3224.56	717
3227.661	709
3230.76	705
3233.856	693
3236.95	679
3240.041	656
3243.13	667
3246.216	646
3249.3	639
3252.382	631
3255.46	624
3258.537	635
3261.611	621
3264.682	611
3267.751	615
3270.818	614
3273.882	599
3276.943	599
3280.002	599
3283.059	592
3286.113	586
3289.165	602
3292.214	584
3295.261	560
3298.306	555
3301.348	558
3304.387	553
3307.425	539
3310.459	536
3313.492	535
3316.521	529
3319.549	511
3322.574	517
3325.597	507
3328.617	514
3331.635	507
3334.65	510
3337.663	486
3340.674	512
3343.682	499
3346.688	505
3349.691	508
3352.692	495
3355.691	500
3358.687	491
3361.681	495
3364.673	481
3367.662	480
3370.649	464
3373.633	445
3376.615	441
3379.595	441
3382.572	444
3385.547	433
3388.52	425
3391.49	410
3394.458	414
3397.424	400
3400.387	400
3403.348	394
3406.307	385
3409.263	377
3412.217	372
3415.168	376
3418.118	374
3421.065	367
3424.009	347
3426.951	354
3429.891	349
3432.829	335
3435.764	324
3438.697	319
3441.628	312
3444.557	305
3447.483	283
3450.407	275
3453.328	259
3456.247	254
3459.164	244
3462.079	226
3464.991	231
3467.902	218
3470.809	216
3473.715	198
3476.618	194
3479.519	195
3482.418	175
3485.315	166
3488.209	156
3491.101	148
3493.99	160
3496.878	139
3499.763	133
3502.646	130
3505.527	115
3508.405	101
3511.281	97
3514.155	96
3517.027	91
3519.897	78
3522.764	80
3525.629	59
3528.492	55
3531.352	52
3534.211	34
3537.067	30
3539.921	34
3542.773	25
3545.622	19
3548.469	4
3551.315	10
3554.157	2
3556.998	-6
3559.837	-12
3562.673	-11
3565.507	-18
3568.339	-19
3571.169	-31
3573.996	-30
3576.822	-26
3579.645	-30
3582.466	-34
3585.285	-43
3588.101	-37
3590.916	-56
3593.728	-57
3596.538	-61
3599.346	-62
3602.152	-58
3604.956	-61
3607.757	-63
3610.556	-62
3613.354	-69
3616.149	-73
3618.942	-78
3621.732	-86
3624.521	-76
3627.307	-78
3630.092	-81
3632.874	-82
3635.654	-87
3638.432	-85
3641.208	-90
3643.982	-94
3646.753	-98
3649.523	-93
3652.29	-92
3655.055	-96
3657.818	-103
3660.579	-104
3663.338	-104
3666.095	-109
3668.849	-107
3671.602	-104
3674.352	-106
3677.101	-113
3679.847	-114
3682.591	-117
3685.333	-110
3688.073	-112
3690.811	-119
3693.547	-121
3696.281	-120
3699.013	-120
3701.742	-121
3704.47	-118
3707.195	-123
3709.919	-121
3712.64	-125
3715.359	-135
3718.076	-125
3720.792	-127
3723.505	-129
3726.216	-124
3728.925	-131
3731.632	-126
3734.336	-132
3737.039	-133
3739.74	-137
3742.439	-144
3745.136	-128
3747.83	-136
3750.523	-134
3753.213	-131
3755.902	-132
3758.589	-140
3761.273	-131
3763.956	-129
3766.636	-136
3769.315	-132
3771.991	-137
3774.665	-140
3777.338	-128
3780.008	-138
3782.677	-140
3785.343	-132
3788.007	-137
3790.67	-139
3793.33	-135
3795.989	-137
3798.645	-141
3801.299	-138
3803.952	-145
3806.602	-133
3809.251	-141
3811.897	-143
3814.542	-142
3817.184	-130
3819.825	-138
3822.463	-137
3825.1	-138
3827.735	-137
3830.367	-142
3832.998	-140
3835.627	-140
3838.253	-141
3840.878	-142
3843.501	-135
3846.122	-141
3848.741	-142
3851.358	-135
3853.973	-145
3856.586	-140
3859.197	-145
3861.806	-139
3864.414	-138
3867.019	-137
3869.622	-139
3872.224	-130
3874.823	-125
3877.421	-113
3880.016	-92
3882.61	-81
3885.202	-74
3887.792	-88
3890.38	-111
3892.966	-128
3895.55	-132
3898.132	-139
3900.713	-142
3903.291	-147
3905.868	-143
3908.442	-136
3911.015	-146
3913.586	-144
3916.155	-147
3918.722	-144
3921.287	-144
3923.85	-143
3926.411	-145
3928.971	-139
3931.528	-142
3934.084	-140
3936.638	-139
3939.19	-146
3941.74	-143
3944.288	-148
3946.834	-143
3949.378	-143
3951.921	-145
3954.462	-147
3957	-143
3959.537	-141
3962.072	-148
3964.606	-138
3967.137	-139
3969.667	-138
3972.194	-143
3974.72	-144
3977.244	-145
3979.766	-143
3982.286	-143
3984.805	-148
3987.321	-144
3989.836	-128
3992.349	-141
3994.86	-144
3997.369	-148
3999.877	-144
4002.382	-141
4004.886	-142
4007.388	-141
4009.888	-136
4012.386	-139
4014.883	-142
4017.377	-141
4019.87	-142
4022.361	-144
4024.85	-143
4027.338	-137
4029.823	-138
4032.307	-136
4034.789	-142
4037.269	-140
4039.747	-140
4042.224	-143
4044.699	-142
4047.172	-144
4049.643	-136
4052.112	-138
4054.58	-138
4057.046	-139
4059.51	-146
4061.972	-143
4064.432	-138
4066.891	-139
4069.348	-142
4071.803	-142
4074.256	-138
4076.708	-139
4079.158	-144
4081.606	-140
4084.052	-144
4086.497	-143
4088.939	-134
4091.38	-137
4093.819	-139
4096.257	-148
4098.693	-150
4101.127	-148
4103.559	-147
4105.989	-3
4108.418	-13
4110.845	-9
4113.27	-10
4115.694	-14
4118.115	-13
4120.535	-146
4122.954	-148
4125.37	-143
4127.785	-144
4130.198	-136
4132.609	-138
4135.019	-145
4137.427	-148
4139.833	-149
4142.237	-151
