Data from 2018-2-8_conc=2_n=1_RamanShift_03.txt Node
Date: Mon Mar 12 13:55:58 IST 2018
User: aro
Spectrometer: QEPB0276
Trigger mode: 0
Integration Time (sec): 3.000000E1
Scans to average: 1
Electric dark correction enabled: true
Nonlinearity correction enabled: false
Boxcar width: 0
XAxis mode: Raman Shifts
Number of Pixels in Spectrum: 1044
>>>>>Begin Spectral Data<<<<<
160.701	16
166.742	49
172.777	147
178.805	442
184.826	1197
190.841	2558
196.849	4212
202.85	5582
208.845	6069
214.833	6085
220.815	5985
226.789	5930
232.758	5945
238.719	5954
244.674	5916
250.623	5848
256.565	5762
262.5	5654
268.429	5586
274.351	5503
280.267	5487
286.176	5445
292.079	5421
297.975	5396
303.865	5356
309.748	5359
315.625	5320
321.495	5333
327.359	5308
333.217	5304
339.068	5313
344.912	5320
350.751	5325
356.583	5350
362.408	5332
368.227	5326
374.04	5370
379.847	5396
385.647	5411
391.44	5456
397.228	5456
403.009	5485
408.784	5523
414.553	5499
420.315	5579
426.071	5516
431.821	5543
437.565	5554
443.302	5531
449.033	5493
454.758	5495
460.477	5467
466.189	5425
471.896	5415
477.596	5344
483.29	5339
488.978	5332
494.66	5329
500.335	5268
506.005	5122
511.668	4972
517.325	4863
522.977	4716
528.622	4639
534.261	4585
539.894	4546
545.521	4511
551.141	4476
556.756	4432
562.365	4414
567.968	4375
573.565	4335
579.155	4339
584.74	4323
590.319	4308
595.892	4294
601.459	4269
607.02	4260
612.575	4229
618.124	4205
623.667	4151
629.204	4142
634.735	4091
640.261	4086
645.781	4067
651.294	4065
656.802	4036
662.304	4041
667.8	4013
673.29	3993
678.775	3972
684.254	3969
689.726	3950
695.193	3952
700.655	3933
706.11	3930
711.56	3870
717.004	3860
722.442	3816
727.874	3818
733.301	3803
738.722	3786
744.137	3773
749.547	3795
754.951	3790
760.349	3758
765.741	3770
771.128	3790
776.509	3812
781.885	3819
787.254	3817
792.618	3846
797.977	3818
803.33	3789
808.677	3734
814.019	3723
819.355	3734
824.686	3668
830.011	3673
835.33	3651
840.644	3635
845.952	3647
851.255	3620
856.552	3613
861.844	3593
867.13	3587
872.41	3562
877.686	3550
882.955	3499
888.219	3495
893.478	3438
898.731	3400
903.979	3337
909.221	3318
914.458	3324
919.69	3295
924.916	3294
930.136	3310
935.351	3303
940.561	3346
945.766	3290
950.965	3299
956.158	3272
961.347	3230
966.529	3200
971.707	3153
976.879	3117
982.046	3092
987.208	3065
992.364	3080
997.515	3089
1002.66	3109
1007.801	3147
1012.936	3169
1018.066	3161
1023.19	3146
1028.309	3171
1033.423	3162
1038.532	3147
1043.636	3131
1048.734	3105
1053.827	3055
1058.915	3029
1063.998	2999
1069.075	2971
1074.147	2981
1079.214	2970
1084.276	3004
1089.333	3017
1094.385	3018
1099.431	3034
1104.472	3028
1109.509	3003
1114.54	2972
1119.565	2924
1124.586	2882
1129.602	2832
1134.613	2847
1139.618	2792
1144.619	2802
1149.614	2800
1154.604	2814
1159.589	2839
1164.57	2814
1169.545	2848
1174.515	2836
1179.48	2813
1184.44	2780
1189.395	2778
1194.345	2766
1199.29	2725
1204.23	2739
1209.165	2734
1214.095	2766
1219.021	2756
1223.941	2764
1228.856	2774
1233.766	2785
1238.672	2795
1243.572	2803
1248.467	2769
1253.358	2740
1258.244	2702
1263.124	2676
1268	2615
1272.871	2584
1277.737	2545
1282.599	2540
1287.455	2548
1292.306	2552
1297.153	2564
1301.995	2574
1306.832	2579
1311.664	2615
1316.491	2610
1321.314	2571
1326.132	2601
1330.945	2546
1335.753	2514
1340.556	2465
1345.354	2437
1350.148	2397
1354.937	2351
1359.722	2308
1364.501	2296
1369.276	2246
1374.046	2203
1378.811	2182
1383.572	2189
1388.327	2175
1393.079	2180
1397.825	2181
1402.567	2198
1407.304	2174
1412.036	2192
1416.764	2167
1421.487	2175
1426.205	2200
1430.919	2194
1435.628	2204
1440.333	2236
1445.032	2254
1449.727	2257
1454.418	2252
1459.104	2254
1463.785	2213
1468.462	2198
1473.134	2146
1477.802	2103
1482.465	2065
1487.123	2022
1491.777	1989
1496.426	1950
1501.071	1950
1505.711	1923
1510.347	1910
1514.978	1925
1519.604	1940
1524.226	1928
1528.844	1933
1533.457	1905
1538.065	1900
1542.669	1902
1547.269	1895
1551.864	1898
1556.454	1918
1561.041	1946
1565.622	1953
1570.199	1937
1574.772	1981
1579.34	1991
1583.904	2027
1588.464	2058
1593.019	2038
1597.569	2041
1602.115	2041
1606.657	2023
1611.195	2015
1615.728	2013
1620.256	2039
1624.78	2015
1629.3	2028
1633.816	2015
1638.327	2055
1642.834	2052
1647.336	2065
1651.834	2055
1656.328	2042
1660.817	2050
1665.302	2004
1669.783	1980
1674.259	1935
1678.732	1894
1683.199	1834
1687.663	1785
1692.122	1704
1696.577	1653
1701.028	1574
1705.474	1517
1709.917	1471
1714.355	1429
1718.788	1413
1723.218	1444
1727.643	1428
1732.064	1408
1736.481	1405
1740.893	1378
1745.301	1355
1749.705	1323
1754.105	1299
1758.501	1284
1762.893	1277
1767.28	1243
1771.663	1226
1776.042	1218
1780.417	1209
1784.787	1186
1789.154	1173
1793.516	1175
1797.874	1142
1802.228	1133
1806.578	1129
1810.924	1119
1815.266	1098
1819.603	1087
1823.937	1096
1828.266	1089
1832.591	1099
1836.913	1102
1841.23	1103
1845.543	1092
1849.852	1095
1854.156	1086
1858.457	1099
1862.754	1089
1867.047	1095
1871.335	1095
1875.62	1095
1879.9	1103
1884.177	1077
1888.449	1072
1892.718	1056
1896.982	1019
1901.243	1026
1905.499	1009
1909.752	986
1914	978
1918.245	984
1922.485	955
1926.722	951
1930.954	943
1935.183	942
1939.408	945
1943.628	935
1947.845	921
1952.058	914
1956.267	909
1960.472	888
1964.673	893
1968.87	892
1973.063	870
1977.252	878
1981.438	885
1985.619	880
1989.797	869
1993.971	887
1998.14	874
2002.306	899
2006.469	897
2010.627	896
2014.781	888
2018.932	876
2023.078	887
2027.221	887
2031.36	875
2035.495	855
2039.627	846
2043.754	834
2047.878	830
2051.998	815
2056.114	823
2060.226	815
2064.334	810
2068.439	810
2072.54	799
2076.637	796
2080.73	796
2084.82	772
2088.906	784
2092.988	763
2097.066	782
2101.14	744
2105.211	749
2109.278	746
2113.342	742
2117.401	722
2121.457	720
2125.509	724
2129.558	717
2133.602	713
2137.643	713
2141.681	715
2145.714	708
2149.744	714
2153.77	708
2157.793	708
2161.812	697
2165.827	688
2169.838	680
2173.846	673
2177.851	654
2181.851	652
2185.848	654
2189.841	649
2193.831	651
2197.817	627
2201.799	629
2205.778	623
2209.753	627
2213.725	635
2217.693	621
2221.657	630
2225.618	628
2229.575	629
2233.529	606
2237.479	608
2241.425	603
2245.368	589
2249.307	576
2253.243	572
2257.175	568
2261.104	558
2265.029	562
2268.95	546
2272.868	524
2276.783	520
2280.694	523
2284.601	521
2288.505	519
2292.405	511
2296.302	506
2300.195	494
2304.085	494
2307.971	473
2311.854	465
2315.734	455
2319.609	457
2323.482	458
2327.351	459
2331.216	459
2335.078	476
2338.937	452
2342.792	445
2346.643	435
2350.492	440
2354.336	438
2358.178	443
2362.015	438
2365.85	439
2369.681	438
2373.508	442
2377.333	444
2381.153	440
2384.971	448
2388.785	433
2392.595	431
2396.402	426
2400.206	428
2404.007	406
2407.804	414
2411.597	411
2415.388	413
2419.174	409
2422.958	413
2426.738	410
2430.515	393
2434.289	404
2438.059	399
2441.825	390
2445.589	391
2449.349	365
2453.106	383
2456.859	371
2460.61	384
2464.356	355
2468.1	348
2471.84	351
2475.577	357
2479.311	350
2483.041	341
2486.768	344
2490.492	342
2494.213	343
2497.93	337
2501.644	327
2505.355	333
2509.062	330
2512.766	323
2516.467	317
2520.165	313
2523.859	313
2527.551	311
2531.239	299
2534.923	291
2538.605	283
2542.283	295
2545.958	275
2549.63	276
2553.299	278
2556.964	280
2560.626	274
2564.285	268
2567.941	258
2571.594	269
2575.243	252
2578.89	260
2582.533	244
2586.173	256
2589.809	240
2593.443	248
2597.073	242
2600.701	237
2604.325	235
2607.946	229
2611.564	233
2615.178	243
2618.79	226
2622.398	234
2626.004	226
2629.606	229
2633.205	220
2636.801	220
2640.394	220
2643.983	213
2647.57	207
2651.153	211
2654.734	207
2658.311	207
2661.885	202
2665.456	197
2669.025	196
2672.589	201
2676.151	192
2679.71	192
2683.266	191
2686.819	191
2690.368	183
2693.915	177
2697.458	175
2700.999	180
2704.536	161
2708.071	162
2711.602	159
2715.13	160
2718.656	149
2722.178	156
2725.697	160
2729.214	149
2732.727	161
2736.237	148
2739.744	138
2743.249	140
2746.75	137
2750.248	137
2753.743	129
2757.236	121
2760.725	129
2764.211	115
2767.695	114
2771.175	109
2774.652	116
2778.127	125
2781.598	115
2785.067	121
2788.532	119
2791.995	118
2795.455	113
2798.911	122
2802.365	127
2805.816	136
2809.264	124
2812.709	121
2816.151	126
2819.59	126
2823.026	117
2826.46	118
2829.89	126
2833.318	123
2836.742	122
2840.164	123
2843.583	125
2846.999	128
2850.412	125
2853.822	123
2857.229	125
2860.634	141
2864.035	137
2867.434	155
2870.83	164
2874.223	167
2877.613	167
2881	171
2884.385	182
2887.766	169
2891.145	175
2894.521	176
2897.894	176
2901.264	176
2904.631	169
2907.996	179
2911.358	181
2914.717	193
2918.073	189
2921.426	206
2924.777	206
2928.124	214
2931.469	203
2934.811	217
2938.15	219
2941.487	230
2944.821	237
2948.152	234
2951.48	224
2954.805	233
2958.128	232
2961.447	220
2964.765	228
2968.079	224
2971.39	225
2974.699	234
2978.005	229
2981.308	233
2984.609	233
2987.907	235
2991.202	247
2994.494	242
2997.784	237
3001.07	241
3004.355	250
3007.636	257
3010.915	252
3014.191	261
3017.464	260
3020.734	277
3024.002	272
3027.267	284
3030.53	291
3033.789	274
3037.046	290
3040.301	307
3043.552	317
3046.801	324
3050.048	339
3053.291	344
3056.532	355
3059.771	379
3063.006	392
3066.239	403
3069.469	407
3072.697	415
3075.922	439
3079.144	439
3082.364	459
3085.581	464
3088.795	474
3092.007	483
3095.216	500
3098.423	508
3101.627	510
3104.828	526
3108.026	526
3111.222	551
3114.416	563
3117.607	579
3120.795	587
3123.98	592
3127.163	615
3130.344	639
3133.521	635
3136.696	656
3139.869	666
3143.039	689
3146.206	684
3149.371	704
3152.533	721
3155.693	716
3158.85	719
3162.005	729
3165.157	723
3168.306	731
3171.453	726
3174.597	732
3177.739	752
3180.878	753
3184.014	757
3187.149	760
3190.28	766
3193.409	765
3196.536	776
3199.659	764
3202.781	781
3205.9	766
3209.016	767
3212.13	779
3215.241	775
3218.35	765
3221.456	762
3224.56	738
3227.661	734
3230.76	731
3233.856	714
3236.95	705
3240.041	697
3243.13	673
3246.216	674
3249.3	656
3252.382	656
3255.46	639
3258.537	634
3261.611	642
3264.682	626
3267.751	635
3270.818	634
3273.882	618
3276.943	618
3280.002	619
3283.059	616
3286.113	604
3289.165	607
3292.214	595
3295.261	595
3298.306	584
3301.348	572
3304.387	567
3307.425	567
3310.459	543
3313.492	549
3316.521	554
3319.549	544
3322.574	522
3325.597	535
3328.617	537
3331.635	511
3334.65	525
3337.663	521
3340.674	519
3343.682	519
3346.688	520
3349.691	541
3352.692	521
3355.691	521
3358.687	500
3361.681	512
3364.673	504
3367.662	502
3370.649	480
3373.633	479
3376.615	459
3379.595	451
3382.572	458
3385.547	444
3388.52	444
3391.49	437
3394.458	419
3397.424	409
3400.387	407
3403.348	402
3406.307	394
3409.263	388
3412.217	384
3415.168	384
3418.118	383
3421.065	379
3424.009	379
3426.951	360
3429.891	355
3432.829	332
3435.764	335
3438.697	330
3441.628	309
3444.557	314
3447.483	293
3450.407	273
3453.328	267
3456.247	253
3459.164	250
3462.079	237
3464.991	235
3467.902	224
3470.809	220
3473.715	201
3476.618	195
3479.519	189
3482.418	180
3485.315	168
3488.209	162
3491.101	156
3493.99	153
3496.878	144
3499.763	125
3502.646	123
3505.527	107
3508.405	110
3511.281	100
3514.155	96
3517.027	86
3519.897	85
3522.764	67
3525.629	54
3528.492	44
3531.352	41
3534.211	40
3537.067	37
3539.921	33
3542.773	22
3545.622	17
3548.469	5
3551.315	1
3554.157	-5
3556.998	-16
3559.837	-12
3562.673	-17
3565.507	-15
3568.339	-26
3571.169	-37
3573.996	-36
3576.822	-46
3579.645	-40
3582.466	-46
3585.285	-52
3588.101	-42
3590.916	-56
3593.728	-64
3596.538	-67
3599.346	-61
3602.152	-65
3604.956	-73
3607.757	-68
3610.556	-71
3613.354	-79
3616.149	-89
3618.942	-90
3621.732	-83
3624.521	-94
3627.307	-87
3630.092	-94
3632.874	-87
3635.654	-98
3638.432	-96
3641.208	-98
3643.982	-103
3646.753	-109
3649.523	-109
3652.29	-109
3655.055	-111
3657.818	-116
3660.579	-110
3663.338	-115
3666.095	-114
3668.849	-117
3671.602	-121
3674.352	-123
3677.101	-126
3679.847	-126
3682.591	-123
3685.333	-127
3688.073	-126
3690.811	-134
3693.547	-141
3696.281	-136
3699.013	-136
3701.742	-132
3704.47	-132
3707.195	-131
3709.919	-133
3712.64	-137
3715.359	-143
3718.076	-138
3720.792	-139
3723.505	-143
3726.216	-139
3728.925	-140
3731.632	-136
3734.336	-146
3737.039	-142
3739.74	-146
3742.439	-150
3745.136	-140
3747.83	-148
3750.523	-146
3753.213	-154
3755.902	-143
3758.589	-149
3761.273	-142
3763.956	-146
3766.636	-150
3769.315	-143
3771.991	-144
3774.665	-153
3777.338	-139
3780.008	-144
3782.677	-148
3785.343	-146
3788.007	-153
3790.67	-149
3793.33	-149
3795.989	-149
3798.645	-143
3801.299	-151
3803.952	-155
3806.602	-149
3809.251	-153
3811.897	-157
3814.542	-154
3817.184	-148
3819.825	-147
3822.463	-148
3825.1	-155
3827.735	-151
3830.367	-151
3832.998	-160
3835.627	-156
3838.253	-151
3840.878	-151
3843.501	-147
3846.122	-151
3848.741	-158
3851.358	-152
3853.973	-160
3856.586	-154
3859.197	-156
3861.806	-149
3864.414	-152
3867.019	-145
3869.622	-153
3872.224	-140
3874.823	-127
3877.421	-114
3880.016	-88
3882.61	-51
3885.202	-57
3887.792	-81
3890.38	-112
3892.966	-135
3895.55	-144
3898.132	-147
3900.713	-151
3903.291	-152
3905.868	-158
3908.442	-149
3911.015	-154
3913.586	-149
3916.155	-164
3918.722	-156
3921.287	-155
3923.85	-152
3926.411	-161
3928.971	-153
3931.528	-159
3934.084	-153
3936.638	-156
3939.19	-163
3941.74	-156
3944.288	-156
3946.834	-158
3949.378	-150
3951.921	-157
3954.462	-160
3957	-158
3959.537	-155
3962.072	-150
3964.606	-150
3967.137	-150
3969.667	-154
3972.194	-157
3974.72	-151
3977.244	-163
3979.766	-158
3982.286	-158
3984.805	-158
3987.321	-151
3989.836	-144
3992.349	-151
3994.86	-155
3997.369	-153
3999.877	-153
4002.382	-149
4004.886	-154
4007.388	-154
4009.888	-148
4012.386	-156
4014.883	-157
4017.377	-157
4019.87	-156
4022.361	-154
4024.85	-151
4027.338	-150
4029.823	-146
4032.307	-152
4034.789	-159
4037.269	-152
4039.747	-149
4042.224	-148
4044.699	-155
4047.172	-150
4049.643	-147
4052.112	-153
4054.58	-156
4057.046	-153
4059.51	-154
4061.972	-148
4064.432	-156
4066.891	-153
4069.348	-147
4071.803	-155
4074.256	-153
4076.708	-150
4079.158	-155
4081.606	-146
4084.052	-156
4086.497	-151
4088.939	-144
4091.38	-151
4093.819	-152
4096.257	-160
4098.693	-157
4101.127	-159
4103.559	-152
4105.989	11
4108.418	9
4110.845	5
4113.27	1
4115.694	6
4118.115	-4
4120.535	-158
4122.954	-159
4125.37	-152
4127.785	-152
4130.198	-151
4132.609	-151
4135.019	-160
4137.427	-164
4139.833	-166
4142.237	-164
