Data from 2018-2-8_conc=6_n=6_RamanShift_05.txt Node
Date: Mon Mar 12 16:40:57 IST 2018
User: aro
Spectrometer: QEPB0276
Trigger mode: 0
Integration Time (sec): 3.000000E1
Scans to average: 1
Electric dark correction enabled: true
Nonlinearity correction enabled: false
Boxcar width: 0
XAxis mode: Raman Shifts
Number of Pixels in Spectrum: 1044
>>>>>Begin Spectral Data<<<<<
160.701	6
166.742	36
172.777	123
178.805	356
184.826	984
190.841	2148
196.849	3592
202.85	4684
208.845	5113
214.833	5141
220.815	5058
226.789	5036
232.758	5022
238.719	4994
244.674	4987
250.623	4912
256.565	4818
262.5	4724
268.429	4690
274.351	4645
280.267	4579
286.176	4581
292.079	4539
297.975	4535
303.865	4488
309.748	4479
315.625	4475
321.495	4480
327.359	4460
333.217	4456
339.068	4464
344.912	4481
350.751	4448
356.583	4460
362.408	4469
368.227	4464
374.04	4476
379.847	4516
385.647	4527
391.44	4543
397.228	4565
403.009	4587
408.784	4595
414.553	4622
420.315	4667
426.071	4647
431.821	4639
437.565	4629
443.302	4624
449.033	4613
454.758	4578
460.477	4562
466.189	4563
471.896	4494
477.596	4520
483.29	4483
488.978	4483
494.66	4491
500.335	4417
506.005	4307
511.668	4156
517.325	4038
522.977	3942
528.622	3862
534.261	3814
539.894	3787
545.521	3734
551.141	3718
556.756	3707
562.365	3679
567.968	3659
573.565	3592
579.155	3590
584.74	3590
590.319	3569
595.892	3564
601.459	3550
607.02	3529
612.575	3515
618.124	3501
623.667	3432
629.204	3424
634.735	3410
640.261	3368
645.781	3356
651.294	3358
656.802	3352
662.304	3360
667.8	3312
673.29	3312
678.775	3323
684.254	3291
689.726	3287
695.193	3295
700.655	3254
706.11	3242
711.56	3188
717.004	3195
722.442	3169
727.874	3166
733.301	3158
738.722	3149
744.137	3134
749.547	3122
754.951	3126
760.349	3148
765.741	3130
771.128	3181
776.509	3192
781.885	3166
787.254	3186
792.618	3193
797.977	3186
803.33	3153
808.677	3135
814.019	3097
819.355	3093
824.686	3075
830.011	3059
835.33	3052
840.644	3049
845.952	3036
851.255	3048
856.552	3032
861.844	2993
867.13	3012
872.41	2975
877.686	2962
882.955	2905
888.219	2882
893.478	2881
898.731	2830
903.979	2793
909.221	2746
914.458	2761
919.69	2743
924.916	2769
930.136	2757
935.351	2761
940.561	2771
945.766	2757
950.965	2742
956.158	2723
961.347	2724
966.529	2662
971.707	2642
976.879	2610
982.046	2554
987.208	2533
992.364	2548
997.515	2580
1002.66	2602
1007.801	2604
1012.936	2651
1018.066	2666
1023.19	2629
1028.309	2656
1033.423	2652
1038.532	2646
1043.636	2630
1048.734	2597
1053.827	2553
1058.915	2503
1063.998	2489
1069.075	2497
1074.147	2501
1079.214	2497
1084.276	2525
1089.333	2531
1094.385	2522
1099.431	2541
1104.472	2537
1109.509	2514
1114.54	2486
1119.565	2442
1124.586	2434
1129.602	2391
1134.613	2369
1139.618	2345
1144.619	2347
1149.614	2337
1154.604	2364
1159.589	2359
1164.57	2367
1169.545	2382
1174.515	2378
1179.48	2364
1184.44	2341
1189.395	2314
1194.345	2310
1199.29	2294
1204.23	2275
1209.165	2295
1214.095	2307
1219.021	2309
1223.941	2335
1228.856	2366
1233.766	2358
1238.672	2344
1243.572	2334
1248.467	2333
1253.358	2304
1258.244	2276
1263.124	2208
1268	2195
1272.871	2175
1277.737	2134
1282.599	2152
1287.455	2157
1292.306	2143
1297.153	2176
1301.995	2165
1306.832	2200
1311.664	2222
1316.491	2194
1321.314	2196
1326.132	2186
1330.945	2171
1335.753	2129
1340.556	2095
1345.354	2084
1350.148	2045
1354.937	1998
1359.722	1949
1364.501	1937
1369.276	1897
1374.046	1886
1378.811	1842
1383.572	1830
1388.327	1855
1393.079	1841
1397.825	1849
1402.567	1844
1407.304	1845
1412.036	1857
1416.764	1853
1421.487	1850
1426.205	1859
1430.919	1866
1435.628	1876
1440.333	1897
1445.032	1895
1449.727	1914
1454.418	1904
1459.104	1916
1463.785	1899
1468.462	1878
1473.134	1847
1477.802	1799
1482.465	1767
1487.123	1727
1491.777	1696
1496.426	1684
1501.071	1688
1505.711	1661
1510.347	1645
1514.978	1657
1519.604	1664
1524.226	1673
1528.844	1646
1533.457	1624
1538.065	1613
1542.669	1612
1547.269	1609
1551.864	1641
1556.454	1657
1561.041	1651
1565.622	1657
1570.199	1677
1574.772	1676
1579.34	1711
1583.904	1729
1588.464	1731
1593.019	1733
1597.569	1742
1602.115	1772
1606.657	1731
1611.195	1732
1615.728	1724
1620.256	1734
1624.78	1715
1629.3	1727
1633.816	1732
1638.327	1756
1642.834	1760
1647.336	1760
1651.834	1768
1656.328	1758
1660.817	1760
1665.302	1748
1669.783	1720
1674.259	1669
1678.732	1626
1683.199	1588
1687.663	1533
1692.122	1501
1696.577	1424
1701.028	1369
1705.474	1329
1709.917	1301
1714.355	1250
1718.788	1248
1723.218	1253
1727.643	1247
1732.064	1222
1736.481	1238
1740.893	1195
1745.301	1183
1749.705	1163
1754.105	1128
1758.501	1107
1762.893	1105
1767.28	1084
1771.663	1078
1776.042	1056
1780.417	1057
1784.787	1042
1789.154	1033
1793.516	1028
1797.874	1012
1802.228	993
1806.578	1002
1810.924	969
1815.266	966
1819.603	967
1823.937	961
1828.266	950
1832.591	965
1836.913	972
1841.23	968
1845.543	956
1849.852	942
1854.156	961
1858.457	977
1862.754	957
1867.047	966
1871.335	957
1875.62	979
1879.9	974
1884.177	960
1888.449	937
1892.718	941
1896.982	918
1901.243	908
1905.499	898
1909.752	879
1914	886
1918.245	874
1922.485	863
1926.722	854
1930.954	858
1935.183	849
1939.408	833
1943.628	837
1947.845	832
1952.058	815
1956.267	828
1960.472	811
1964.673	796
1968.87	790
1973.063	794
1977.252	778
1981.438	782
1985.619	785
1989.797	781
1993.971	794
1998.14	783
2002.306	780
2006.469	803
2010.627	795
2014.781	804
2018.932	793
2023.078	782
2027.221	779
2031.36	769
2035.495	755
2039.627	760
2043.754	740
2047.878	746
2051.998	743
2056.114	727
2060.226	735
2064.334	721
2068.439	725
2072.54	720
2076.637	720
2080.73	725
2084.82	713
2088.906	700
2092.988	714
2097.066	698
2101.14	683
2105.211	672
2109.278	672
2113.342	664
2117.401	646
2121.457	645
2125.509	650
2129.558	636
2133.602	650
2137.643	639
2141.681	636
2145.714	638
2149.744	645
2153.77	637
2157.793	633
2161.812	628
2165.827	636
2169.838	614
2173.846	602
2177.851	600
2181.851	594
2185.848	580
2189.841	582
2193.831	573
2197.817	573
2201.799	559
2205.778	556
2209.753	566
2213.725	556
2217.693	566
2221.657	570
2225.618	557
2229.575	562
2233.529	555
2237.479	555
2241.425	537
2245.368	525
2249.307	522
2253.243	513
2257.175	512
2261.104	507
2265.029	489
2268.95	489
2272.868	484
2276.783	470
2280.694	460
2284.601	464
2288.505	459
2292.405	453
2296.302	458
2300.195	454
2304.085	440
2307.971	418
2311.854	425
2315.734	417
2319.609	408
2323.482	416
2327.351	409
2331.216	424
2335.078	422
2338.937	429
2342.792	400
2346.643	393
2350.492	396
2354.336	398
2358.178	398
2362.015	396
2365.85	398
2369.681	406
2373.508	396
2377.333	399
2381.153	399
2384.971	404
2388.785	393
2392.595	392
2396.402	376
2400.206	386
2404.007	385
2407.804	378
2411.597	375
2415.388	377
2419.174	369
2422.958	372
2426.738	378
2430.515	375
2434.289	368
2438.059	370
2441.825	358
2445.589	359
2449.349	346
2453.106	348
2456.859	345
2460.61	343
2464.356	328
2468.1	328
2471.84	331
2475.577	324
2479.311	313
2483.041	303
2486.768	327
2490.492	322
2494.213	318
2497.93	308
2501.644	315
2505.355	310
2509.062	306
2512.766	298
2516.467	294
2520.165	297
2523.859	294
2527.551	289
2531.239	288
2534.923	278
2538.605	267
2542.283	273
2545.958	271
2549.63	261
2553.299	272
2556.964	263
2560.626	269
2564.285	259
2567.941	259
2571.594	250
2575.243	253
2578.89	245
2582.533	233
2586.173	233
2589.809	229
2593.443	239
2597.073	234
2600.701	228
2604.325	226
2607.946	220
2611.564	219
2615.178	229
2618.79	224
2622.398	223
2626.004	223
2629.606	215
2633.205	219
2636.801	213
2640.394	202
2643.983	204
2647.57	211
2651.153	207
2654.734	208
2658.311	198
2661.885	194
2665.456	204
2669.025	190
2672.589	189
2676.151	188
2679.71	185
2683.266	179
2686.819	185
2690.368	184
2693.915	174
2697.458	166
2700.999	177
2704.536	178
2708.071	167
2711.602	172
2715.13	164
2718.656	152
2722.178	153
2725.697	144
2729.214	143
2732.727	146
2736.237	163
2739.744	149
2743.249	142
2746.75	146
2750.248	136
2753.743	130
2757.236	137
2760.725	128
2764.211	128
2767.695	127
2771.175	118
2774.652	114
2778.127	123
2781.598	125
2785.067	124
2788.532	132
2791.995	125
2795.455	123
2798.911	120
2802.365	131
2805.816	134
2809.264	126
2812.709	137
2816.151	124
2819.59	133
2823.026	128
2826.46	118
2829.89	120
2833.318	120
2836.742	129
2840.164	129
2843.583	133
2846.999	131
2850.412	132
2853.822	134
2857.229	138
2860.634	139
2864.035	133
2867.434	141
2870.83	144
2874.223	165
2877.613	162
2881	174
2884.385	168
2887.766	157
2891.145	162
2894.521	163
2897.894	169
2901.264	168
2904.631	169
2907.996	171
2911.358	175
2914.717	186
2918.073	181
2921.426	188
2924.777	188
2928.124	196
2931.469	189
2934.811	203
2938.15	211
2941.487	214
2944.821	218
2948.152	219
2951.48	212
2954.805	212
2958.128	202
2961.447	210
2964.765	212
2968.079	207
2971.39	212
2974.699	221
2978.005	209
2981.308	226
2984.609	216
2987.907	219
2991.202	213
2994.494	229
2997.784	218
3001.07	228
3004.355	239
3007.636	236
3010.915	234
3014.191	240
3017.464	243
3020.734	246
3024.002	251
3027.267	249
3030.53	256
3033.789	273
3037.046	268
3040.301	271
3043.552	293
3046.801	304
3050.048	294
3053.291	319
3056.532	321
3059.771	342
3063.006	338
3066.239	355
3069.469	356
3072.697	365
3075.922	386
3079.144	400
3082.364	402
3085.581	412
3088.795	418
3092.007	433
3095.216	437
3098.423	440
3101.627	457
3104.828	477
3108.026	475
3111.222	485
3114.416	481
3117.607	508
3120.795	513
3123.98	522
3127.163	546
3130.344	551
3133.521	560
3136.696	576
3139.869	599
3143.039	580
3146.206	610
3149.371	616
3152.533	622
3155.693	627
3158.85	624
3162.005	634
3165.157	634
3168.306	645
3171.453	638
3174.597	652
3177.739	649
3180.878	660
3184.014	656
3187.149	662
3190.28	657
3193.409	675
3196.536	665
3199.659	679
3202.781	678
3205.9	681
3209.016	667
3212.13	684
3215.241	670
3218.35	660
3221.456	653
3224.56	657
3227.661	633
3230.76	643
3233.856	619
3236.95	621
3240.041	613
3243.13	591
3246.216	590
3249.3	582
3252.382	574
3255.46	574
3258.537	566
3261.611	576
3264.682	559
3267.751	569
3270.818	553
3273.882	542
3276.943	544
3280.002	547
3283.059	533
3286.113	538
3289.165	532
3292.214	528
3295.261	505
3298.306	512
3301.348	495
3304.387	486
3307.425	503
3310.459	484
3313.492	487
3316.521	482
3319.549	469
3322.574	467
3325.597	476
3328.617	475
3331.635	458
3334.65	450
3337.663	448
3340.674	460
3343.682	462
3346.688	451
3349.691	448
3352.692	445
3355.691	450
3358.687	439
3361.681	451
3364.673	431
3367.662	428
3370.649	422
3373.633	417
3376.615	398
3379.595	391
3382.572	397
3385.547	395
3388.52	393
3391.49	378
3394.458	373
3397.424	371
3400.387	360
3403.348	363
3406.307	345
3409.263	347
3412.217	344
3415.168	342
3418.118	340
3421.065	323
3424.009	322
3426.951	327
3429.891	313
3432.829	291
3435.764	304
3438.697	295
3441.628	288
3444.557	272
3447.483	260
3450.407	250
3453.328	245
3456.247	243
3459.164	228
3462.079	212
3464.991	211
3467.902	196
3470.809	200
3473.715	187
3476.618	172
3479.519	173
3482.418	163
3485.315	154
3488.209	146
3491.101	146
3493.99	145
3496.878	134
3499.763	122
3502.646	116
3505.527	117
3508.405	117
3511.281	96
3514.155	93
3517.027	83
3519.897	73
3522.764	66
3525.629	62
3528.492	52
3531.352	44
3534.211	43
3537.067	40
3539.921	37
3542.773	27
3545.622	24
3548.469	16
3551.315	17
3554.157	4
3556.998	0
3559.837	-2
3562.673	-4
3565.507	7
3568.339	-14
3571.169	-19
3573.996	-20
3576.822	-20
3579.645	-26
3582.466	-30
3585.285	-36
3588.101	-23
3590.916	-41
3593.728	-45
3596.538	-48
3599.346	-47
3602.152	-48
3604.956	-48
3607.757	-43
3610.556	-57
3613.354	-53
3616.149	-61
3618.942	-63
3621.732	-67
3624.521	-70
3627.307	-64
3630.092	-63
3632.874	-66
3635.654	-73
3638.432	-67
3641.208	-75
3643.982	-84
3646.753	-79
3649.523	-84
3652.29	-80
3655.055	-74
3657.818	-84
3660.579	-87
3663.338	-83
3666.095	-88
3668.849	-92
3671.602	-94
3674.352	-93
3677.101	-97
3679.847	-100
3682.591	-104
3685.333	-97
3688.073	-98
3690.811	-104
3693.547	-105
3696.281	-103
3699.013	-100
3701.742	-109
3704.47	-104
3707.195	-101
3709.919	-107
3712.64	-105
3715.359	-111
3718.076	-108
3720.792	-110
3723.505	-111
3726.216	-110
3728.925	-110
3731.632	-107
3734.336	-113
3737.039	-111
3739.74	-114
3742.439	-117
3745.136	-107
3747.83	-117
3750.523	-118
3753.213	-116
3755.902	-109
3758.589	-117
3761.273	-112
3763.956	-110
3766.636	-117
3769.315	-117
3771.991	-112
3774.665	-119
3777.338	-110
3780.008	-115
3782.677	-120
3785.343	-114
3788.007	-124
3790.67	-117
3793.33	-111
3795.989	-119
3798.645	-111
3801.299	-120
3803.952	-124
3806.602	-119
3809.251	-124
3811.897	-125
3814.542	-123
3817.184	-118
3819.825	-119
3822.463	-116
3825.1	-120
3827.735	-121
3830.367	-122
3832.998	-122
3835.627	-122
3838.253	-111
3840.878	-115
3843.501	-112
3846.122	-121
3848.741	-128
3851.358	-120
3853.973	-123
3856.586	-116
3859.197	-127
3861.806	-115
3864.414	-122
3867.019	-115
3869.622	-124
3872.224	-114
3874.823	-106
3877.421	-98
3880.016	-81
3882.61	-65
3885.202	-70
3887.792	-76
3890.38	-98
3892.966	-119
3895.55	-122
3898.132	-120
3900.713	-118
3903.291	-120
3905.868	-122
3908.442	-120
3911.015	-121
3913.586	-128
3916.155	-126
3918.722	-126
3921.287	-122
3923.85	-118
3926.411	-123
3928.971	-122
3931.528	-124
3934.084	-124
3936.638	-119
3939.19	-126
3941.74	-126
3944.288	-122
3946.834	-122
3949.378	-120
3951.921	-122
3954.462	-131
3957	-128
3959.537	-121
3962.072	-127
3964.606	-115
3967.137	-115
3969.667	-125
3972.194	-128
3974.72	-127
3977.244	-129
3979.766	-124
3982.286	-120
3984.805	-124
3987.321	-121
3989.836	-114
3992.349	-118
3994.86	-123
3997.369	-126
3999.877	-122
4002.382	-114
4004.886	-121
4007.388	-120
4009.888	-122
4012.386	-121
4014.883	-125
4017.377	-128
4019.87	-121
4022.361	-125
4024.85	-122
4027.338	-117
4029.823	-121
4032.307	-119
4034.789	-124
4037.269	-122
4039.747	-116
4042.224	-119
4044.699	-120
4047.172	-121
4049.643	-116
4052.112	-123
4054.58	-122
4057.046	-126
4059.51	-127
4061.972	-121
4064.432	-122
4066.891	-117
4069.348	-120
4071.803	-123
4074.256	-124
4076.708	-116
4079.158	-123
4081.606	-112
4084.052	-125
4086.497	-117
4088.939	-113
4091.38	-120
4093.819	-123
4096.257	-127
4098.693	-124
4101.127	-126
4103.559	-125
4105.989	-13
4108.418	-12
4110.845	-10
4113.27	-12
4115.694	-15
4118.115	-9
4120.535	-123
4122.954	-123
4125.37	-122
4127.785	-118
4130.198	-119
4132.609	-121
4135.019	-126
4137.427	-132
4139.833	-132
4142.237	-131
