Data from 2018-2-8_conc=0_n=7_RamanShift_04.txt Node
Date: Mon Mar 12 13:41:59 IST 2018
User: aro
Spectrometer: QEPB0276
Trigger mode: 0
Integration Time (sec): 3.000000E1
Scans to average: 1
Electric dark correction enabled: true
Nonlinearity correction enabled: false
Boxcar width: 0
XAxis mode: Raman Shifts
Number of Pixels in Spectrum: 1044
>>>>>Begin Spectral Data<<<<<
160.701	11.1
166.742	40.1
172.777	115.1
178.805	378.1
184.826	1046.1
190.841	2254.1
196.849	3762.1
202.85	4970.1
208.845	5398.1
214.833	5444.1
220.815	5340.1
226.789	5322.1
232.758	5367.1
238.719	5352.1
244.674	5292.1
250.623	5239.1
256.565	5195.1
262.5	5103.1
268.429	5099.1
274.351	5012.1
280.267	4965.1
286.176	4944.1
292.079	4918.1
297.975	4911.1
303.865	4860.1
309.748	4857.1
315.625	4852.1
321.495	4841.1
327.359	4842.1
333.217	4840.1
339.068	4857.1
344.912	4859.1
350.751	4854.1
356.583	4831.1
362.408	4867.1
368.227	4860.1
374.04	4868.1
379.847	4913.1
385.647	4907.1
391.44	4940.1
397.228	4962.1
403.009	4956.1
408.784	5020.1
414.553	5026.1
420.315	5020.1
426.071	5029.1
431.821	5059.1
437.565	5027.1
443.302	5031.1
449.033	4968.1
454.758	4957.1
460.477	4964.1
466.189	4934.1
471.896	4905.1
477.596	4885.1
483.29	4844.1
488.978	4815.1
494.66	4811.1
500.335	4749.1
506.005	4650.1
511.668	4547.1
517.325	4407.1
522.977	4292.1
528.622	4221.1
534.261	4163.1
539.894	4092.1
545.521	4068.1
551.141	4089.1
556.756	4035.1
562.365	4004.1
567.968	4004.1
573.565	3971.1
579.155	3930.1
584.74	3954.1
590.319	3906.1
595.892	3909.1
601.459	3888.1
607.02	3904.1
612.575	3851.1
618.124	3827.1
623.667	3773.1
629.204	3762.1
634.735	3714.1
640.261	3699.1
645.781	3686.1
651.294	3662.1
656.802	3662.1
662.304	3647.1
667.8	3628.1
673.29	3635.1
678.775	3645.1
684.254	3612.1
689.726	3597.1
695.193	3607.1
700.655	3606.1
706.11	3546.1
711.56	3526.1
717.004	3531.1
722.442	3504.1
727.874	3473.1
733.301	3471.1
738.722	3440.1
744.137	3425.1
749.547	3485.1
754.951	3445.1
760.349	3437.1
765.741	3444.1
771.128	3469.1
776.509	3456.1
781.885	3506.1
787.254	3498.1
792.618	3505.1
797.977	3477.1
803.33	3471.1
808.677	3417.1
814.019	3403.1
819.355	3381.1
824.686	3364.1
830.011	3341.1
835.33	3338.1
840.644	3334.1
845.952	3328.1
851.255	3308.1
856.552	3309.1
861.844	3296.1
867.13	3273.1
872.41	3277.1
877.686	3273.1
882.955	3246.1
888.219	3228.1
893.478	3175.1
898.731	3132.1
903.979	3026.1
909.221	3045.1
914.458	3026.1
919.69	3035.1
924.916	3038.1
930.136	3040.1
935.351	3042.1
940.561	3025.1
945.766	3047.1
950.965	3030.1
956.158	3009.1
961.347	2982.1
966.529	2937.1
971.707	2891.1
976.879	2868.1
982.046	2834.1
987.208	2839.1
992.364	2810.1
997.515	2854.1
1002.66	2843.1
1007.801	2895.1
1012.936	2897.1
1018.066	2887.1
1023.19	2910.1
1028.309	2911.1
1033.423	2897.1
1038.532	2914.1
1043.636	2872.1
1048.734	2843.1
1053.827	2803.1
1058.915	2791.1
1063.998	2751.1
1069.075	2745.1
1074.147	2752.1
1079.214	2752.1
1084.276	2778.1
1089.333	2799.1
1094.385	2829.1
1099.431	2805.1
1104.472	2771.1
1109.509	2750.1
1114.54	2727.1
1119.565	2706.1
1124.586	2659.1
1129.602	2622.1
1134.613	2618.1
1139.618	2599.1
1144.619	2600.1
1149.614	2571.1
1154.604	2575.1
1159.589	2592.1
1164.57	2641.1
1169.545	2612.1
1174.515	2596.1
1179.48	2604.1
1184.44	2567.1
1189.395	2556.1
1194.345	2529.1
1199.29	2534.1
1204.23	2492.1
1209.165	2523.1
1214.095	2525.1
1219.021	2542.1
1223.941	2556.1
1228.856	2575.1
1233.766	2598.1
1238.672	2592.1
1243.572	2581.1
1248.467	2579.1
1253.358	2521.1
1258.244	2492.1
1263.124	2464.1
1268	2418.1
1272.871	2409.1
1277.737	2372.1
1282.599	2347.1
1287.455	2367.1
1292.306	2367.1
1297.153	2379.1
1301.995	2393.1
1306.832	2396.1
1311.664	2404.1
1316.491	2426.1
1321.314	2403.1
1326.132	2375.1
1330.945	2362.1
1335.753	2340.1
1340.556	2303.1
1345.354	2266.1
1350.148	2215.1
1354.937	2165.1
1359.722	2145.1
1364.501	2102.1
1369.276	2084.1
1374.046	2036.1
1378.811	2018.1
1383.572	2019.1
1388.327	1995.1
1393.079	2004.1
1397.825	2013.1
1402.567	2015.1
1407.304	2022.1
1412.036	2027.1
1416.764	2031.1
1421.487	2021.1
1426.205	2031.1
1430.919	2037.1
1435.628	2052.1
1440.333	2059.1
1445.032	2090.1
1449.727	2107.1
1454.418	2125.1
1459.104	2115.1
1463.785	2068.1
1468.462	2029.1
1473.134	1990.1
1477.802	1938.1
1482.465	1911.1
1487.123	1856.1
1491.777	1845.1
1496.426	1836.1
1501.071	1790.1
1505.711	1802.1
1510.347	1804.1
1514.978	1790.1
1519.604	1787.1
1524.226	1772.1
1528.844	1754.1
1533.457	1749.1
1538.065	1743.1
1542.669	1746.1
1547.269	1757.1
1551.864	1749.1
1556.454	1768.1
1561.041	1774.1
1565.622	1793.1
1570.199	1808.1
1574.772	1815.1
1579.34	1834.1
1583.904	1857.1
1588.464	1872.1
1593.019	1883.1
1597.569	1870.1
1602.115	1873.1
1606.657	1882.1
1611.195	1867.1
1615.728	1870.1
1620.256	1869.1
1624.78	1852.1
1629.3	1841.1
1633.816	1848.1
1638.327	1872.1
1642.834	1845.1
1647.336	1871.1
1651.834	1882.1
1656.328	1882.1
1660.817	1856.1
1665.302	1844.1
1669.783	1824.1
1674.259	1770.1
1678.732	1737.1
1683.199	1675.1
1687.663	1633.1
1692.122	1565.1
1696.577	1516.1
1701.028	1439.1
1705.474	1408.1
1709.917	1347.1
1714.355	1322.1
1718.788	1312.1
1723.218	1323.1
1727.643	1325.1
1732.064	1306.1
1736.481	1324.1
1740.893	1280.1
1745.301	1265.1
1749.705	1239.1
1754.105	1206.1
1758.501	1199.1
1762.893	1159.1
1767.28	1159.1
1771.663	1150.1
1776.042	1131.1
1780.417	1116.1
1784.787	1104.1
1789.154	1096.1
1793.516	1068.1
1797.874	1050.1
1802.228	1044.1
1806.578	1039.1
1810.924	1017.1
1815.266	1010.1
1819.603	1015.1
1823.937	1014.1
1828.266	1018.1
1832.591	1013.1
1836.913	1021.1
1841.23	1029.1
1845.543	1010.1
1849.852	1023.1
1854.156	1016.1
1858.457	1030.1
1862.754	1022.1
1867.047	1013.1
1871.335	1019.1
1875.62	1018.1
1879.9	1020.1
1884.177	1009.1
1888.449	993.1
1892.718	987.1
1896.982	958.1
1901.243	950.1
1905.499	933.1
1909.752	924.1
1914	917.1
1918.245	905.1
1922.485	894.1
1926.722	886.1
1930.954	882.1
1935.183	886.1
1939.408	864.1
1943.628	860.1
1947.845	857.1
1952.058	853.1
1956.267	835.1
1960.472	827.1
1964.673	826.1
1968.87	817.1
1973.063	816.1
1977.252	805.1
1981.438	827.1
1985.619	825.1
1989.797	825.1
1993.971	825.1
1998.14	818.1
2002.306	821.1
2006.469	828.1
2010.627	831.1
2014.781	834.1
2018.932	818.1
2023.078	827.1
2027.221	824.1
2031.36	810.1
2035.495	798.1
2039.627	795.1
2043.754	769.1
2047.878	772.1
2051.998	755.1
2056.114	763.1
2060.226	760.1
2064.334	758.1
2068.439	743.1
2072.54	746.1
2076.637	747.1
2080.73	748.1
2084.82	738.1
2088.906	727.1
2092.988	730.1
2097.066	718.1
2101.14	699.1
2105.211	701.1
2109.278	690.1
2113.342	690.1
2117.401	680.1
2121.457	668.1
2125.509	665.1
2129.558	676.1
2133.602	673.1
2137.643	673.1
2141.681	667.1
2145.714	666.1
2149.744	666.1
2153.77	676.1
2157.793	662.1
2161.812	656.1
2165.827	661.1
2169.838	647.1
2173.846	649.1
2177.851	618.1
2181.851	624.1
2185.848	610.1
2189.841	618.1
2193.831	612.1
2197.817	598.1
2201.799	589.1
2205.778	603.1
2209.753	598.1
2213.725	599.1
2217.693	591.1
2221.657	594.1
2225.618	586.1
2229.575	598.1
2233.529	573.1
2237.479	588.1
2241.425	575.1
2245.368	570.1
2249.307	564.1
2253.243	555.1
2257.175	537.1
2261.104	533.1
2265.029	526.1
2268.95	521.1
2272.868	517.1
2276.783	510.1
2280.694	501.1
2284.601	500.1
2288.505	502.1
2292.405	482.1
2296.302	485.1
2300.195	474.1
2304.085	466.1
2307.971	463.1
2311.854	465.1
2315.734	453.1
2319.609	449.1
2323.482	439.1
2327.351	438.1
2331.216	470.1
2335.078	463.1
2338.937	454.1
2342.792	420.1
2346.643	433.1
2350.492	433.1
2354.336	431.1
2358.178	431.1
2362.015	431.1
2365.85	430.1
2369.681	433.1
2373.508	432.1
2377.333	438.1
2381.153	436.1
2384.971	440.1
2388.785	446.1
2392.595	427.1
2396.402	425.1
2400.206	431.1
2404.007	421.1
2407.804	432.1
2411.597	420.1
2415.388	402.1
2419.174	409.1
2422.958	410.1
2426.738	412.1
2430.515	404.1
2434.289	410.1
2438.059	396.1
2441.825	387.1
2445.589	394.1
2449.349	382.1
2453.106	382.1
2456.859	379.1
2460.61	377.1
2464.356	364.1
2468.1	367.1
2471.84	367.1
2475.577	364.1
2479.311	342.1
2483.041	347.1
2486.768	347.1
2490.492	353.1
2494.213	346.1
2497.93	346.1
2501.644	344.1
2505.355	331.1
2509.062	328.1
2512.766	330.1
2516.467	327.1
2520.165	312.1
2523.859	335.1
2527.551	314.1
2531.239	306.1
2534.923	302.1
2538.605	293.1
2542.283	301.1
2545.958	287.1
2549.63	291.1
2553.299	290.1
2556.964	292.1
2560.626	276.1
2564.285	268.1
2567.941	272.1
2571.594	271.1
2575.243	263.1
2578.89	268.1
2582.533	252.1
2586.173	260.1
2589.809	256.1
2593.443	256.1
2597.073	248.1
2600.701	246.1
2604.325	251.1
2607.946	237.1
2611.564	242.1
2615.178	250.1
2618.79	241.1
2622.398	248.1
2626.004	233.1
2629.606	237.1
2633.205	235.1
2636.801	231.1
2640.394	224.1
2643.983	235.1
2647.57	227.1
2651.153	228.1
2654.734	220.1
2658.311	209.1
2661.885	205.1
2665.456	225.1
2669.025	212.1
2672.589	217.1
2676.151	212.1
2679.71	203.1
2683.266	197.1
2686.819	202.1
2690.368	200.1
2693.915	186.1
2697.458	188.1
2700.999	199.1
2704.536	186.1
2708.071	179.1
2711.602	178.1
2715.13	170.1
2718.656	171.1
2722.178	170.1
2725.697	160.1
2729.214	160.1
2732.727	166.1
2736.237	161.1
2739.744	149.1
2743.249	149.1
2746.75	144.1
2750.248	150.1
2753.743	139.1
2757.236	140.1
2760.725	136.1
2764.211	132.1
2767.695	133.1
2771.175	122.1
2774.652	125.1
2778.127	131.1
2781.598	130.1
2785.067	138.1
2788.532	132.1
2791.995	133.1
2795.455	138.1
2798.911	131.1
2802.365	133.1
2805.816	139.1
2809.264	135.1
2812.709	147.1
2816.151	131.1
2819.59	143.1
2823.026	136.1
2826.46	129.1
2829.89	127.1
2833.318	132.1
2836.742	142.1
2840.164	131.1
2843.583	135.1
2846.999	142.1
2850.412	137.1
2853.822	139.1
2857.229	137.1
2860.634	150.1
2864.035	151.1
2867.434	154.1
2870.83	163.1
2874.223	171.1
2877.613	173.1
2881	186.1
2884.385	184.1
2887.766	178.1
2891.145	177.1
2894.521	184.1
2897.894	179.1
2901.264	187.1
2904.631	178.1
2907.996	186.1
2911.358	180.1
2914.717	190.1
2918.073	197.1
2921.426	196.1
2924.777	209.1
2928.124	211.1
2931.469	218.1
2934.811	221.1
2938.15	220.1
2941.487	234.1
2944.821	221.1
2948.152	229.1
2951.48	227.1
2954.805	229.1
2958.128	222.1
2961.447	210.1
2964.765	222.1
2968.079	213.1
2971.39	216.1
2974.699	216.1
2978.005	212.1
2981.308	226.1
2984.609	217.1
2987.907	206.1
2991.202	222.1
2994.494	214.1
2997.784	218.1
3001.07	234.1
3004.355	241.1
3007.636	234.1
3010.915	233.1
3014.191	227.1
3017.464	236.1
3020.734	235.1
3024.002	231.1
3027.267	254.1
3030.53	258.1
3033.789	259.1
3037.046	272.1
3040.301	277.1
3043.552	287.1
3046.801	286.1
3050.048	293.1
3053.291	315.1
3056.532	330.1
3059.771	335.1
3063.006	349.1
3066.239	360.1
3069.469	366.1
3072.697	363.1
3075.922	372.1
3079.144	388.1
3082.364	397.1
3085.581	412.1
3088.795	410.1
3092.007	419.1
3095.216	428.1
3098.423	434.1
3101.627	454.1
3104.828	453.1
3108.026	463.1
3111.222	485.1
3114.416	490.1
3117.607	508.1
3120.795	507.1
3123.98	512.1
3127.163	535.1
3130.344	559.1
3133.521	548.1
3136.696	570.1
3139.869	576.1
3143.039	578.1
3146.206	593.1
3149.371	599.1
3152.533	615.1
3155.693	620.1
3158.85	619.1
3162.005	615.1
3165.157	633.1
3168.306	630.1
3171.453	630.1
3174.597	639.1
3177.739	650.1
3180.878	642.1
3184.014	652.1
3187.149	633.1
3190.28	647.1
3193.409	644.1
3196.536	654.1
3199.659	651.1
3202.781	678.1
3205.9	646.1
3209.016	673.1
3212.13	670.1
3215.241	653.1
3218.35	632.1
3221.456	635.1
3224.56	633.1
3227.661	616.1
3230.76	615.1
3233.856	609.1
3236.95	598.1
3240.041	585.1
3243.13	574.1
3246.216	563.1
3249.3	562.1
3252.382	551.1
3255.46	548.1
3258.537	541.1
3261.611	544.1
3264.682	521.1
3267.751	524.1
3270.818	527.1
3273.882	515.1
3276.943	520.1
3280.002	521.1
3283.059	516.1
3286.113	516.1
3289.165	508.1
3292.214	512.1
3295.261	492.1
3298.306	489.1
3301.348	477.1
3304.387	487.1
3307.425	477.1
3310.459	474.1
3313.492	457.1
3316.521	454.1
3319.549	449.1
3322.574	449.1
3325.597	446.1
3328.617	461.1
3331.635	445.1
3334.65	457.1
3337.663	443.1
3340.674	439.1
3343.682	438.1
3346.688	434.1
3349.691	446.1
3352.692	432.1
3355.691	432.1
3358.687	431.1
3361.681	430.1
3364.673	425.1
3367.662	410.1
3370.649	405.1
3373.633	399.1
3376.615	380.1
3379.595	380.1
3382.572	396.1
3385.547	387.1
3388.52	374.1
3391.49	376.1
3394.458	364.1
3397.424	348.1
3400.387	349.1
3403.348	334.1
3406.307	331.1
3409.263	331.1
3412.217	330.1
3415.168	328.1
3418.118	329.1
3421.065	316.1
3424.009	305.1
3426.951	305.1
3429.891	302.1
3432.829	295.1
3435.764	281.1
3438.697	274.1
3441.628	263.1
3444.557	255.1
3447.483	252.1
3450.407	239.1
3453.328	232.1
3456.247	218.1
3459.164	214.1
3462.079	204.1
3464.991	192.1
3467.902	193.1
3470.809	183.1
3473.715	167.1
3476.618	159.1
3479.519	157.1
3482.418	157.1
3485.315	150.1
3488.209	135.1
3491.101	131.1
3493.99	131.1
3496.878	115.1
3499.763	102.1
3502.646	102.1
3505.527	89.1
3508.405	92.1
3511.281	88.1
3514.155	73.1
3517.027	65.1
3519.897	65.1
3522.764	54.1
3525.629	54.1
3528.492	43.1
3531.352	46.1
3534.211	38.1
3537.067	27.1
3539.921	27.1
3542.773	16.1
3545.622	7.1
3548.469	-1.9
3551.315	8.1
3554.157	-0.9
3556.998	-11.9
3559.837	-11.9
3562.673	-14.9
3565.507	-16.9
3568.339	-23.9
3571.169	-31.9
3573.996	-30.9
3576.822	-25.9
3579.645	-32.9
3582.466	-35.9
3585.285	-39.9
3588.101	-33.9
3590.916	-48.9
3593.728	-50.9
3596.538	-48.9
3599.346	-55.9
3602.152	-50.9
3604.956	-52.9
3607.757	-57.9
3610.556	-64.9
3613.354	-63.9
3616.149	-72.9
3618.942	-73.9
3621.732	-74.9
3624.521	-73.9
3627.307	-68.9
3630.092	-74.9
3632.874	-74.9
3635.654	-83.9
3638.432	-82.9
3641.208	-83.9
3643.982	-86.9
3646.753	-89.9
3649.523	-94.9
3652.29	-90.9
3655.055	-89.9
3657.818	-92.9
3660.579	-92.9
3663.338	-98.9
3666.095	-95.9
3668.849	-96.9
3671.602	-99.9
3674.352	-102.9
3677.101	-102.9
3679.847	-97.9
3682.591	-105.9
3685.333	-110.9
3688.073	-102.9
3690.811	-111.9
3693.547	-115.9
3696.281	-111.9
3699.013	-106.9
3701.742	-110.9
3704.47	-116.9
3707.195	-112.9
3709.919	-111.9
3712.64	-115.9
3715.359	-117.9
3718.076	-116.9
3720.792	-118.9
3723.505	-117.9
3726.216	-115.9
3728.925	-120.9
3731.632	-121.9
3734.336	-130.9
3737.039	-115.9
3739.74	-119.9
3742.439	-123.9
3745.136	-116.9
3747.83	-127.9
3750.523	-120.9
3753.213	-121.9
3755.902	-124.9
3758.589	-128.9
3761.273	-114.9
3763.956	-115.9
3766.636	-125.9
3769.315	-120.9
3771.991	-120.9
3774.665	-127.9
3777.338	-123.9
3780.008	-124.9
3782.677	-122.9
3785.343	-121.9
3788.007	-119.9
3790.67	-127.9
3793.33	-121.9
3795.989	-129.9
3798.645	-124.9
3801.299	-123.9
3803.952	-131.9
3806.602	-121.9
3809.251	-131.9
3811.897	-136.9
3814.542	-128.9
3817.184	-125.9
3819.825	-126.9
3822.463	-131.9
3825.1	-126.9
3827.735	-124.9
3830.367	-124.9
3832.998	-130.9
3835.627	-128.9
3838.253	-126.9
3840.878	-126.9
3843.501	-129.9
3846.122	-127.9
3848.741	-129.9
3851.358	-126.9
3853.973	-128.9
3856.586	-126.9
3859.197	-132.9
3861.806	-127.9
3864.414	-131.9
3867.019	-126.9
3869.622	-121.9
3872.224	-118.9
3874.823	-111.9
3877.421	-104.9
3880.016	-88.9
3882.61	-67.9
3885.202	-61.9
3887.792	-73.9
3890.38	-97.9
3892.966	-114.9
3895.55	-126.9
3898.132	-122.9
3900.713	-129.9
3903.291	-135.9
3905.868	-132.9
3908.442	-129.9
3911.015	-133.9
3913.586	-130.9
3916.155	-132.9
3918.722	-130.9
3921.287	-131.9
3923.85	-133.9
3926.411	-131.9
3928.971	-131.9
3931.528	-133.9
3934.084	-130.9
3936.638	-127.9
3939.19	-130.9
3941.74	-133.9
3944.288	-134.9
3946.834	-130.9
3949.378	-126.9
3951.921	-127.9
3954.462	-136.9
3957	-132.9
3959.537	-128.9
3962.072	-133.9
3964.606	-133.9
3967.137	-124.9
3969.667	-132.9
3972.194	-136.9
3974.72	-130.9
3977.244	-132.9
3979.766	-136.9
3982.286	-131.9
3984.805	-129.9
3987.321	-132.9
3989.836	-123.9
3992.349	-133.9
3994.86	-127.9
3997.369	-130.9
3999.877	-132.9
4002.382	-124.9
4004.886	-135.9
4007.388	-128.9
4009.888	-125.9
4012.386	-129.9
4014.883	-129.9
4017.377	-124.9
4019.87	-131.9
4022.361	-132.9
4024.85	-131.9
4027.338	-127.9
4029.823	-123.9
4032.307	-125.9
4034.789	-131.9
4037.269	-126.9
4039.747	-126.9
4042.224	-126.9
4044.699	-130.9
4047.172	-131.9
4049.643	-126.9
4052.112	-125.9
4054.58	-128.9
4057.046	-133.9
4059.51	-133.9
4061.972	-127.9
4064.432	-134.9
4066.891	-130.9
4069.348	-123.9
4071.803	-131.9
4074.256	-128.9
4076.708	-124.9
4079.158	-130.9
4081.606	-124.9
4084.052	-131.9
4086.497	-133.9
4088.939	-117.9
4091.38	-127.9
4093.819	-126.9
4096.257	-137.9
4098.693	-132.9
4101.127	-139.9
4103.559	-134.9
4105.989	-4.9
4108.418	-14.9
4110.845	-1.9
4113.27	-12.9
4115.694	-12.9
4118.115	-5.9
4120.535	-133.9
4122.954	-134.9
4125.37	-130.9
4127.785	-131.9
4130.198	-128.9
4132.609	-126.9
4135.019	-133.9
4137.427	-134.9
4139.833	-137.9
4142.237	-137.9
