Data from 2018-2-8_conc=0_n=2_RamanShift_06.txt Node
Date: Mon Mar 12 13:22:59 IST 2018
User: aro
Spectrometer: QEPB0276
Trigger mode: 0
Integration Time (sec): 3.000000E1
Scans to average: 1
Electric dark correction enabled: true
Nonlinearity correction enabled: false
Boxcar width: 0
XAxis mode: Raman Shifts
Number of Pixels in Spectrum: 1044
>>>>>Begin Spectral Data<<<<<
160.701	-0.9
166.742	30.1
172.777	145.1
178.805	457.1
184.826	1228.1
190.841	2684.1
196.849	4450.1
202.85	5846.1
208.845	6363.1
214.833	6384.1
220.815	6264.1
226.789	6282.1
232.758	6226.1
238.719	6211.1
244.674	6248.1
250.623	6115.1
256.565	6064.1
262.5	5967.1
268.429	5876.1
274.351	5833.1
280.267	5739.1
286.176	5722.1
292.079	5683.1
297.975	5649.1
303.865	5646.1
309.748	5607.1
315.625	5608.1
321.495	5574.1
327.359	5541.1
333.217	5565.1
339.068	5573.1
344.912	5560.1
350.751	5576.1
356.583	5545.1
362.408	5583.1
368.227	5587.1
374.04	5604.1
379.847	5594.1
385.647	5626.1
391.44	5666.1
397.228	5666.1
403.009	5719.1
408.784	5729.1
414.553	5749.1
420.315	5750.1
426.071	5787.1
431.821	5775.1
437.565	5756.1
443.302	5750.1
449.033	5747.1
454.758	5723.1
460.477	5706.1
466.189	5665.1
471.896	5643.1
477.596	5602.1
483.29	5608.1
488.978	5583.1
494.66	5582.1
500.335	5505.1
506.005	5415.1
511.668	5255.1
517.325	5121.1
522.977	5039.1
528.622	4976.1
534.261	4902.1
539.894	4843.1
545.521	4814.1
551.141	4808.1
556.756	4781.1
562.365	4730.1
567.968	4717.1
573.565	4697.1
579.155	4647.1
584.74	4673.1
590.319	4626.1
595.892	4622.1
601.459	4607.1
607.02	4571.1
612.575	4564.1
618.124	4550.1
623.667	4495.1
629.204	4469.1
634.735	4440.1
640.261	4415.1
645.781	4380.1
651.294	4366.1
656.802	4376.1
662.304	4329.1
667.8	4338.1
673.29	4333.1
678.775	4300.1
684.254	4326.1
689.726	4277.1
695.193	4270.1
700.655	4271.1
706.11	4216.1
711.56	4226.1
717.004	4158.1
722.442	4147.1
727.874	4123.1
733.301	4155.1
738.722	4070.1
744.137	4091.1
749.547	4093.1
754.951	4102.1
760.349	4107.1
765.741	4102.1
771.128	4087.1
776.509	4119.1
781.885	4146.1
787.254	4125.1
792.618	4152.1
797.977	4113.1
803.33	4087.1
808.677	4080.1
814.019	4011.1
819.355	4012.1
824.686	3947.1
830.011	3974.1
835.33	3951.1
840.644	3946.1
845.952	3975.1
851.255	3979.1
856.552	3957.1
861.844	3917.1
867.13	3907.1
872.41	3919.1
877.686	3894.1
882.955	3905.1
888.219	3848.1
893.478	3767.1
898.731	3707.1
903.979	3681.1
909.221	3639.1
914.458	3642.1
919.69	3599.1
924.916	3613.1
930.136	3631.1
935.351	3641.1
940.561	3635.1
945.766	3642.1
950.965	3598.1
956.158	3581.1
961.347	3563.1
966.529	3494.1
971.707	3418.1
976.879	3401.1
982.046	3369.1
987.208	3364.1
992.364	3372.1
997.515	3387.1
1002.66	3406.1
1007.801	3412.1
1012.936	3435.1
1018.066	3467.1
1023.19	3479.1
1028.309	3468.1
1033.423	3459.1
1038.532	3449.1
1043.636	3416.1
1048.734	3357.1
1053.827	3360.1
1058.915	3303.1
1063.998	3297.1
1069.075	3251.1
1074.147	3277.1
1079.214	3254.1
1084.276	3260.1
1089.333	3326.1
1094.385	3317.1
1099.431	3342.1
1104.472	3309.1
1109.509	3301.1
1114.54	3250.1
1119.565	3203.1
1124.586	3158.1
1129.602	3136.1
1134.613	3095.1
1139.618	3076.1
1144.619	3095.1
1149.614	3070.1
1154.604	3089.1
1159.589	3101.1
1164.57	3113.1
1169.545	3100.1
1174.515	3064.1
1179.48	3088.1
1184.44	3055.1
1189.395	3017.1
1194.345	3010.1
1199.29	2998.1
1204.23	2981.1
1209.165	3008.1
1214.095	3009.1
1219.021	3026.1
1223.941	3021.1
1228.856	3065.1
1233.766	3070.1
1238.672	3083.1
1243.572	3064.1
1248.467	3050.1
1253.358	2986.1
1258.244	2978.1
1263.124	2935.1
1268	2856.1
1272.871	2829.1
1277.737	2824.1
1282.599	2815.1
1287.455	2800.1
1292.306	2817.1
1297.153	2821.1
1301.995	2846.1
1306.832	2841.1
1311.664	2868.1
1316.491	2875.1
1321.314	2868.1
1326.132	2841.1
1330.945	2815.1
1335.753	2760.1
1340.556	2703.1
1345.354	2655.1
1350.148	2618.1
1354.937	2581.1
1359.722	2543.1
1364.501	2510.1
1369.276	2457.1
1374.046	2411.1
1378.811	2396.1
1383.572	2390.1
1388.327	2393.1
1393.079	2389.1
1397.825	2404.1
1402.567	2407.1
1407.304	2388.1
1412.036	2395.1
1416.764	2405.1
1421.487	2396.1
1426.205	2415.1
1430.919	2431.1
1435.628	2429.1
1440.333	2471.1
1445.032	2459.1
1449.727	2497.1
1454.418	2505.1
1459.104	2499.1
1463.785	2459.1
1468.462	2431.1
1473.134	2357.1
1477.802	2307.1
1482.465	2260.1
1487.123	2202.1
1491.777	2189.1
1496.426	2159.1
1501.071	2135.1
1505.711	2099.1
1510.347	2113.1
1514.978	2100.1
1519.604	2103.1
1524.226	2102.1
1528.844	2080.1
1533.457	2076.1
1538.065	2063.1
1542.669	2072.1
1547.269	2089.1
1551.864	2071.1
1556.454	2094.1
1561.041	2093.1
1565.622	2105.1
1570.199	2140.1
1574.772	2140.1
1579.34	2173.1
1583.904	2204.1
1588.464	2212.1
1593.019	2232.1
1597.569	2235.1
1602.115	2231.1
1606.657	2229.1
1611.195	2208.1
1615.728	2186.1
1620.256	2195.1
1624.78	2169.1
1629.3	2194.1
1633.816	2196.1
1638.327	2222.1
1642.834	2214.1
1647.336	2238.1
1651.834	2216.1
1656.328	2231.1
1660.817	2200.1
1665.302	2177.1
1669.783	2139.1
1674.259	2081.1
1678.732	2053.1
1683.199	1976.1
1687.663	1917.1
1692.122	1863.1
1696.577	1742.1
1701.028	1698.1
1705.474	1631.1
1709.917	1579.1
1714.355	1550.1
1718.788	1548.1
1723.218	1547.1
1727.643	1552.1
1732.064	1538.1
1736.481	1537.1
1740.893	1515.1
1745.301	1476.1
1749.705	1442.1
1754.105	1438.1
1758.501	1382.1
1762.893	1374.1
1767.28	1369.1
1771.663	1343.1
1776.042	1342.1
1780.417	1315.1
1784.787	1273.1
1789.154	1272.1
1793.516	1273.1
1797.874	1240.1
1802.228	1217.1
1806.578	1224.1
1810.924	1212.1
1815.266	1197.1
1819.603	1205.1
1823.937	1208.1
1828.266	1201.1
1832.591	1197.1
1836.913	1199.1
1841.23	1214.1
1845.543	1205.1
1849.852	1199.1
1854.156	1189.1
1858.457	1211.1
1862.754	1208.1
1867.047	1202.1
1871.335	1211.1
1875.62	1201.1
1879.9	1198.1
1884.177	1179.1
1888.449	1166.1
1892.718	1160.1
1896.982	1145.1
1901.243	1116.1
1905.499	1100.1
1909.752	1092.1
1914	1073.1
1918.245	1057.1
1922.485	1044.1
1926.722	1040.1
1930.954	1031.1
1935.183	1020.1
1939.408	1018.1
1943.628	1014.1
1947.845	996.1
1952.058	988.1
1956.267	987.1
1960.472	975.1
1964.673	978.1
1968.87	956.1
1973.063	964.1
1977.252	955.1
1981.438	956.1
1985.619	949.1
1989.797	958.1
1993.971	963.1
1998.14	971.1
2002.306	954.1
2006.469	967.1
2010.627	969.1
2014.781	984.1
2018.932	968.1
2023.078	967.1
2027.221	955.1
2031.36	959.1
2035.495	937.1
2039.627	926.1
2043.754	905.1
2047.878	896.1
2051.998	902.1
2056.114	897.1
2060.226	890.1
2064.334	899.1
2068.439	882.1
2072.54	875.1
2076.637	874.1
2080.73	879.1
2084.82	862.1
2088.906	857.1
2092.988	841.1
2097.066	853.1
2101.14	820.1
2105.211	819.1
2109.278	818.1
2113.342	804.1
2117.401	791.1
2121.457	783.1
2125.509	781.1
2129.558	788.1
2133.602	783.1
2137.643	777.1
2141.681	783.1
2145.714	785.1
2149.744	774.1
2153.77	781.1
2157.793	793.1
2161.812	768.1
2165.827	764.1
2169.838	767.1
2173.846	740.1
2177.851	724.1
2181.851	728.1
2185.848	731.1
2189.841	716.1
2193.831	704.1
2197.817	692.1
2201.799	697.1
2205.778	699.1
2209.753	697.1
2213.725	694.1
2217.693	699.1
2221.657	695.1
2225.618	698.1
2229.575	694.1
2233.529	683.1
2237.479	682.1
2241.425	673.1
2245.368	657.1
2249.307	638.1
2253.243	650.1
2257.175	646.1
2261.104	624.1
2265.029	605.1
2268.95	621.1
2272.868	607.1
2276.783	595.1
2280.694	591.1
2284.601	576.1
2288.505	588.1
2292.405	584.1
2296.302	571.1
2300.195	565.1
2304.085	554.1
2307.971	538.1
2311.854	534.1
2315.734	520.1
2319.609	525.1
2323.482	517.1
2327.351	518.1
2331.216	527.1
2335.078	531.1
2338.937	514.1
2342.792	500.1
2346.643	499.1
2350.492	508.1
2354.336	509.1
2358.178	499.1
2362.015	503.1
2365.85	503.1
2369.681	500.1
2373.508	508.1
2377.333	496.1
2381.153	499.1
2384.971	508.1
2388.785	508.1
2392.595	498.1
2396.402	487.1
2400.206	495.1
2404.007	488.1
2407.804	477.1
2411.597	480.1
2415.388	483.1
2419.174	482.1
2422.958	465.1
2426.738	465.1
2430.515	467.1
2434.289	472.1
2438.059	466.1
2441.825	457.1
2445.589	456.1
2449.349	439.1
2453.106	439.1
2456.859	437.1
2460.61	436.1
2464.356	424.1
2468.1	418.1
2471.84	414.1
2475.577	415.1
2479.311	404.1
2483.041	401.1
2486.768	406.1
2490.492	400.1
2494.213	403.1
2497.93	402.1
2501.644	392.1
2505.355	376.1
2509.062	373.1
2512.766	377.1
2516.467	374.1
2520.165	369.1
2523.859	369.1
2527.551	361.1
2531.239	348.1
2534.923	343.1
2538.605	335.1
2542.283	336.1
2545.958	339.1
2549.63	339.1
2553.299	332.1
2556.964	325.1
2560.626	318.1
2564.285	328.1
2567.941	307.1
2571.594	310.1
2575.243	309.1
2578.89	294.1
2582.533	301.1
2586.173	289.1
2589.809	292.1
2593.443	297.1
2597.073	293.1
2600.701	286.1
2604.325	269.1
2607.946	283.1
2611.564	279.1
2615.178	279.1
2618.79	273.1
2622.398	275.1
2626.004	265.1
2629.606	263.1
2633.205	273.1
2636.801	268.1
2640.394	263.1
2643.983	262.1
2647.57	265.1
2651.153	255.1
2654.734	254.1
2658.311	237.1
2661.885	232.1
2665.456	249.1
2669.025	236.1
2672.589	248.1
2676.151	238.1
2679.71	235.1
2683.266	229.1
2686.819	227.1
2690.368	229.1
2693.915	228.1
2697.458	213.1
2700.999	210.1
2704.536	214.1
2708.071	200.1
2711.602	205.1
2715.13	197.1
2718.656	201.1
2722.178	192.1
2725.697	185.1
2729.214	187.1
2732.727	184.1
2736.237	190.1
2739.744	176.1
2743.249	183.1
2746.75	170.1
2750.248	165.1
2753.743	162.1
2757.236	157.1
2760.725	162.1
2764.211	159.1
2767.695	153.1
2771.175	147.1
2774.652	141.1
2778.127	148.1
2781.598	145.1
2785.067	152.1
2788.532	150.1
2791.995	154.1
2795.455	152.1
2798.911	147.1
2802.365	154.1
2805.816	154.1
2809.264	155.1
2812.709	157.1
2816.151	152.1
2819.59	159.1
2823.026	158.1
2826.46	151.1
2829.89	149.1
2833.318	140.1
2836.742	156.1
2840.164	154.1
2843.583	156.1
2846.999	158.1
2850.412	155.1
2853.822	163.1
2857.229	149.1
2860.634	164.1
2864.035	170.1
2867.434	178.1
2870.83	183.1
2874.223	207.1
2877.613	202.1
2881	206.1
2884.385	217.1
2887.766	199.1
2891.145	199.1
2894.521	208.1
2897.894	217.1
2901.264	217.1
2904.631	224.1
2907.996	216.1
2911.358	218.1
2914.717	222.1
2918.073	236.1
2921.426	238.1
2924.777	246.1
2928.124	259.1
2931.469	256.1
2934.811	263.1
2938.15	274.1
2941.487	269.1
2944.821	283.1
2948.152	278.1
2951.48	275.1
2954.805	277.1
2958.128	266.1
2961.447	260.1
2964.765	257.1
2968.079	254.1
2971.39	267.1
2974.699	267.1
2978.005	270.1
2981.308	268.1
2984.609	261.1
2987.907	271.1
2991.202	263.1
2994.494	269.1
2997.784	272.1
3001.07	278.1
3004.355	288.1
3007.636	287.1
3010.915	291.1
3014.191	289.1
3017.464	294.1
3020.734	297.1
3024.002	288.1
3027.267	307.1
3030.53	312.1
3033.789	314.1
3037.046	331.1
3040.301	330.1
3043.552	342.1
3046.801	345.1
3050.048	354.1
3053.291	363.1
3056.532	387.1
3059.771	401.1
3063.006	406.1
3066.239	423.1
3069.469	432.1
3072.697	448.1
3075.922	449.1
3079.144	472.1
3082.364	487.1
3085.581	489.1
3088.795	501.1
3092.007	504.1
3095.216	520.1
3098.423	528.1
3101.627	543.1
3104.828	559.1
3108.026	576.1
3111.222	575.1
3114.416	587.1
3117.607	614.1
3120.795	623.1
3123.98	619.1
3127.163	636.1
3130.344	659.1
3133.521	668.1
3136.696	688.1
3139.869	692.1
3143.039	702.1
3146.206	710.1
3149.371	729.1
3152.533	724.1
3155.693	736.1
3158.85	736.1
3162.005	767.1
3165.157	752.1
3168.306	764.1
3171.453	767.1
3174.597	766.1
3177.739	772.1
3180.878	782.1
3184.014	791.1
3187.149	782.1
3190.28	780.1
3193.409	791.1
3196.536	780.1
3199.659	797.1
3202.781	799.1
3205.9	805.1
3209.016	799.1
3212.13	794.1
3215.241	800.1
3218.35	785.1
3221.456	771.1
3224.56	767.1
3227.661	750.1
3230.76	750.1
3233.856	734.1
3236.95	721.1
3240.041	707.1
3243.13	697.1
3246.216	699.1
3249.3	681.1
3252.382	670.1
3255.46	667.1
3258.537	661.1
3261.611	663.1
3264.682	646.1
3267.751	648.1
3270.818	648.1
3273.882	636.1
3276.943	640.1
3280.002	637.1
3283.059	633.1
3286.113	627.1
3289.165	621.1
3292.214	614.1
3295.261	603.1
3298.306	601.1
3301.348	569.1
3304.387	582.1
3307.425	575.1
3310.459	574.1
3313.492	570.1
3316.521	567.1
3319.549	546.1
3322.574	546.1
3325.597	557.1
3328.617	563.1
3331.635	546.1
3334.65	545.1
3337.663	533.1
3340.674	542.1
3343.682	537.1
3346.688	532.1
3349.691	541.1
3352.692	538.1
3355.691	528.1
3358.687	518.1
3361.681	515.1
3364.673	524.1
3367.662	503.1
3370.649	498.1
3373.633	488.1
3376.615	474.1
3379.595	473.1
3382.572	464.1
3385.547	459.1
3388.52	450.1
3391.49	451.1
3394.458	435.1
3397.424	427.1
3400.387	424.1
3403.348	416.1
3406.307	419.1
3409.263	408.1
3412.217	407.1
3415.168	414.1
3418.118	386.1
3421.065	373.1
3424.009	379.1
3426.951	374.1
3429.891	365.1
3432.829	346.1
3435.764	351.1
3438.697	347.1
3441.628	324.1
3444.557	321.1
3447.483	305.1
3450.407	287.1
3453.328	284.1
3456.247	274.1
3459.164	257.1
3462.079	254.1
3464.991	240.1
3467.902	232.1
3470.809	227.1
3473.715	198.1
3476.618	188.1
3479.519	195.1
3482.418	193.1
3485.315	172.1
3488.209	174.1
3491.101	161.1
3493.99	162.1
3496.878	148.1
3499.763	136.1
3502.646	126.1
3505.527	117.1
3508.405	128.1
3511.281	106.1
3514.155	100.1
3517.027	95.1
3519.897	83.1
3522.764	72.1
3525.629	56.1
3528.492	53.1
3531.352	52.1
3534.211	41.1
3537.067	35.1
3539.921	31.1
3542.773	21.1
3545.622	16.1
3548.469	0.1
3551.315	6.1
3554.157	-2.9
3556.998	-7.9
3559.837	-16.9
3562.673	-22.9
3565.507	-13.9
3568.339	-25.9
3571.169	-34.9
3573.996	-34.9
3576.822	-33.9
3579.645	-36.9
3582.466	-37.9
3585.285	-37.9
3588.101	-34.9
3590.916	-53.9
3593.728	-64.9
3596.538	-60.9
3599.346	-63.9
3602.152	-69.9
3604.956	-65.9
3607.757	-63.9
3610.556	-78.9
3613.354	-69.9
3616.149	-84.9
3618.942	-84.9
3621.732	-85.9
3624.521	-84.9
3627.307	-82.9
3630.092	-87.9
3632.874	-81.9
3635.654	-90.9
3638.432	-93.9
3641.208	-94.9
3643.982	-103.9
3646.753	-99.9
3649.523	-102.9
3652.29	-99.9
3655.055	-102.9
3657.818	-110.9
3660.579	-106.9
3663.338	-108.9
3666.095	-111.9
3668.849	-117.9
3671.602	-113.9
3674.352	-119.9
3677.101	-119.9
3679.847	-120.9
3682.591	-122.9
3685.333	-121.9
3688.073	-120.9
3690.811	-124.9
3693.547	-137.9
3696.281	-124.9
3699.013	-130.9
3701.742	-133.9
3704.47	-128.9
3707.195	-127.9
3709.919	-132.9
3712.64	-132.9
3715.359	-134.9
3718.076	-135.9
3720.792	-136.9
3723.505	-138.9
3726.216	-134.9
3728.925	-140.9
3731.632	-137.9
3734.336	-142.9
3737.039	-140.9
3739.74	-139.9
3742.439	-151.9
3745.136	-140.9
3747.83	-146.9
3750.523	-143.9
3753.213	-136.9
3755.902	-139.9
3758.589	-147.9
3761.273	-138.9
3763.956	-142.9
3766.636	-147.9
3769.315	-139.9
3771.991	-142.9
3774.665	-146.9
3777.338	-137.9
3780.008	-140.9
3782.677	-144.9
3785.343	-151.9
3788.007	-149.9
3790.67	-150.9
3793.33	-142.9
3795.989	-140.9
3798.645	-138.9
3801.299	-144.9
3803.952	-145.9
3806.602	-144.9
3809.251	-153.9
3811.897	-151.9
3814.542	-148.9
3817.184	-139.9
3819.825	-145.9
3822.463	-149.9
3825.1	-145.9
3827.735	-149.9
3830.367	-147.9
3832.998	-155.9
3835.627	-147.9
3838.253	-145.9
3840.878	-142.9
3843.501	-142.9
3846.122	-151.9
3848.741	-157.9
3851.358	-146.9
3853.973	-158.9
3856.586	-150.9
3859.197	-149.9
3861.806	-143.9
3864.414	-156.9
3867.019	-148.9
3869.622	-148.9
3872.224	-136.9
3874.823	-140.9
3877.421	-130.9
3880.016	-107.9
3882.61	-87.9
3885.202	-83.9
3887.792	-94.9
3890.38	-118.9
3892.966	-143.9
3895.55	-148.9
3898.132	-146.9
3900.713	-149.9
3903.291	-151.9
3905.868	-153.9
3908.442	-146.9
3911.015	-153.9
3913.586	-155.9
3916.155	-157.9
3918.722	-155.9
3921.287	-153.9
3923.85	-156.9
3926.411	-153.9
3928.971	-149.9
3931.528	-156.9
3934.084	-151.9
3936.638	-153.9
3939.19	-158.9
3941.74	-155.9
3944.288	-149.9
3946.834	-152.9
3949.378	-152.9
3951.921	-153.9
3954.462	-161.9
3957	-156.9
3959.537	-148.9
3962.072	-155.9
3964.606	-145.9
3967.137	-150.9
3969.667	-152.9
3972.194	-152.9
3974.72	-155.9
3977.244	-153.9
3979.766	-157.9
3982.286	-149.9
3984.805	-150.9
3987.321	-143.9
3989.836	-140.9
3992.349	-149.9
3994.86	-150.9
3997.369	-151.9
3999.877	-152.9
4002.382	-142.9
4004.886	-150.9
4007.388	-146.9
4009.888	-140.9
4012.386	-151.9
4014.883	-147.9
4017.377	-149.9
4019.87	-152.9
4022.361	-154.9
4024.85	-152.9
4027.338	-146.9
4029.823	-143.9
4032.307	-142.9
4034.789	-151.9
4037.269	-155.9
4039.747	-144.9
4042.224	-150.9
4044.699	-152.9
4047.172	-148.9
4049.643	-145.9
4052.112	-148.9
4054.58	-148.9
4057.046	-151.9
4059.51	-153.9
4061.972	-144.9
4064.432	-146.9
4066.891	-147.9
4069.348	-149.9
4071.803	-156.9
4074.256	-151.9
4076.708	-149.9
4079.158	-154.9
4081.606	-144.9
4084.052	-154.9
4086.497	-151.9
4088.939	-144.9
4091.38	-150.9
4093.819	-150.9
4096.257	-157.9
4098.693	-156.9
4101.127	-159.9
4103.559	-152.9
4105.989	-30.9
4108.418	-33.9
4110.845	-24.9
4113.27	-30.9
4115.694	-30.9
4118.115	-27.9
4120.535	-154.9
4122.954	-147.9
4125.37	-148.9
4127.785	-150.9
4130.198	-148.9
4132.609	-152.9
4135.019	-155.9
4137.427	-159.9
4139.833	-157.9
4142.237	-157.9
