Data from 2018-2-8_conc=4_n=6_RamanShift_05.txt Node
Date: Mon Mar 12 15:27:28 IST 2018
User: aro
Spectrometer: QEPB0276
Trigger mode: 0
Integration Time (sec): 3.000000E1
Scans to average: 1
Electric dark correction enabled: true
Nonlinearity correction enabled: false
Boxcar width: 0
XAxis mode: Raman Shifts
Number of Pixels in Spectrum: 1044
>>>>>Begin Spectral Data<<<<<
160.701	12
166.742	39
172.777	116
178.805	376
184.826	1044
190.841	2278
196.849	3784
202.85	4973
208.845	5409
214.833	5442
220.815	5339
226.789	5342
232.758	5311
238.719	5336
244.674	5296
250.623	5252
256.565	5173
262.5	5083
268.429	5048
274.351	4972
280.267	4942
286.176	4919
292.079	4883
297.975	4872
303.865	4865
309.748	4849
315.625	4804
321.495	4821
327.359	4801
333.217	4807
339.068	4845
344.912	4819
350.751	4838
356.583	4835
362.408	4825
368.227	4853
374.04	4859
379.847	4879
385.647	4895
391.44	4911
397.228	4931
403.009	4933
408.784	4969
414.553	4967
420.315	4999
426.071	5004
431.821	4974
437.565	5018
443.302	4970
449.033	4929
454.758	4920
460.477	4937
466.189	4942
471.896	4886
477.596	4873
483.29	4850
488.978	4818
494.66	4832
500.335	4768
506.005	4645
511.668	4489
517.325	4374
522.977	4304
528.622	4231
534.261	4139
539.894	4132
545.521	4067
551.141	4075
556.756	4040
562.365	4038
567.968	3998
573.565	3952
579.155	3929
584.74	3938
590.319	3925
595.892	3924
601.459	3898
607.02	3849
612.575	3848
618.124	3821
623.667	3777
629.204	3756
634.735	3711
640.261	3717
645.781	3702
651.294	3685
656.802	3677
662.304	3651
667.8	3624
673.29	3657
678.775	3621
684.254	3627
689.726	3622
695.193	3608
700.655	3572
706.11	3549
711.56	3528
717.004	3496
722.442	3495
727.874	3489
733.301	3466
738.722	3435
744.137	3434
749.547	3428
754.951	3442
760.349	3463
765.741	3432
771.128	3421
776.509	3460
781.885	3477
787.254	3499
792.618	3497
797.977	3477
803.33	3452
808.677	3441
814.019	3402
819.355	3366
824.686	3368
830.011	3346
835.33	3341
840.644	3339
845.952	3320
851.255	3321
856.552	3294
861.844	3301
867.13	3291
872.41	3250
877.686	3255
882.955	3199
888.219	3201
893.478	3166
898.731	3107
903.979	3075
909.221	3037
914.458	3027
919.69	3022
924.916	3040
930.136	3044
935.351	3046
940.561	3059
945.766	3036
950.965	3035
956.158	3003
961.347	2984
966.529	2932
971.707	2882
976.879	2825
982.046	2827
987.208	2833
992.364	2826
997.515	2852
1002.66	2837
1007.801	2881
1012.936	2895
1018.066	2899
1023.19	2908
1028.309	2903
1033.423	2915
1038.532	2902
1043.636	2872
1048.734	2844
1053.827	2815
1058.915	2775
1063.998	2746
1069.075	2742
1074.147	2749
1079.214	2772
1084.276	2760
1089.333	2769
1094.385	2786
1099.431	2789
1104.472	2793
1109.509	2770
1114.54	2742
1119.565	2693
1124.586	2659
1129.602	2623
1134.613	2593
1139.618	2582
1144.619	2569
1149.614	2577
1154.604	2606
1159.589	2618
1164.57	2611
1169.545	2629
1174.515	2628
1179.48	2592
1184.44	2585
1189.395	2556
1194.345	2516
1199.29	2531
1204.23	2517
1209.165	2534
1214.095	2536
1219.021	2564
1223.941	2559
1228.856	2573
1233.766	2580
1238.672	2577
1243.572	2578
1248.467	2576
1253.358	2528
1258.244	2497
1263.124	2471
1268	2427
1272.871	2386
1277.737	2370
1282.599	2344
1287.455	2355
1292.306	2364
1297.153	2367
1301.995	2377
1306.832	2401
1311.664	2406
1316.491	2422
1321.314	2391
1326.132	2400
1330.945	2350
1335.753	2322
1340.556	2284
1345.354	2272
1350.148	2223
1354.937	2208
1359.722	2150
1364.501	2132
1369.276	2083
1374.046	2053
1378.811	2039
1383.572	2017
1388.327	2000
1393.079	2021
1397.825	2022
1402.567	1998
1407.304	2014
1412.036	2029
1416.764	2027
1421.487	2025
1426.205	2036
1430.919	2041
1435.628	2066
1440.333	2074
1445.032	2082
1449.727	2092
1454.418	2110
1459.104	2113
1463.785	2060
1468.462	2049
1473.134	1997
1477.802	1965
1482.465	1918
1487.123	1893
1491.777	1849
1496.426	1835
1501.071	1816
1505.711	1804
1510.347	1811
1514.978	1817
1519.604	1827
1524.226	1798
1528.844	1785
1533.457	1764
1538.065	1774
1542.669	1765
1547.269	1745
1551.864	1783
1556.454	1793
1561.041	1806
1565.622	1810
1570.199	1794
1574.772	1843
1579.34	1843
1583.904	1868
1588.464	1887
1593.019	1896
1597.569	1893
1602.115	1913
1606.657	1871
1611.195	1876
1615.728	1867
1620.256	1860
1624.78	1859
1629.3	1867
1633.816	1881
1638.327	1898
1642.834	1884
1647.336	1895
1651.834	1894
1656.328	1923
1660.817	1886
1665.302	1876
1669.783	1850
1674.259	1802
1678.732	1756
1683.199	1705
1687.663	1659
1692.122	1622
1696.577	1536
1701.028	1475
1705.474	1417
1709.917	1379
1714.355	1356
1718.788	1329
1723.218	1352
1727.643	1344
1732.064	1332
1736.481	1344
1740.893	1297
1745.301	1272
1749.705	1259
1754.105	1243
1758.501	1220
1762.893	1200
1767.28	1178
1771.663	1164
1776.042	1152
1780.417	1134
1784.787	1122
1789.154	1115
1793.516	1107
1797.874	1090
1802.228	1079
1806.578	1067
1810.924	1052
1815.266	1047
1819.603	1045
1823.937	1047
1828.266	1041
1832.591	1051
1836.913	1044
1841.23	1049
1845.543	1040
1849.852	1049
1854.156	1031
1858.457	1046
1862.754	1054
1867.047	1042
1871.335	1050
1875.62	1046
1879.9	1041
1884.177	1037
1888.449	1028
1892.718	1020
1896.982	1009
1901.243	980
1905.499	970
1909.752	955
1914	948
1918.245	937
1922.485	925
1926.722	927
1930.954	902
1935.183	908
1939.408	896
1943.628	900
1947.845	891
1952.058	885
1956.267	868
1960.472	884
1964.673	859
1968.87	847
1973.063	841
1977.252	837
1981.438	838
1985.619	850
1989.797	839
1993.971	852
1998.14	855
2002.306	838
2006.469	852
2010.627	850
2014.781	847
2018.932	850
2023.078	863
2027.221	848
2031.36	837
2035.495	826
2039.627	797
2043.754	795
2047.878	802
2051.998	786
2056.114	796
2060.226	778
2064.334	778
2068.439	782
2072.54	771
2076.637	770
2080.73	773
2084.82	763
2088.906	763
2092.988	753
2097.066	743
2101.14	733
2105.211	714
2109.278	715
2113.342	700
2117.401	693
2121.457	681
2125.509	686
2129.558	693
2133.602	696
2137.643	692
2141.681	685
2145.714	681
2149.744	693
2153.77	684
2157.793	681
2161.812	681
2165.827	682
2169.838	669
2173.846	655
2177.851	647
2181.851	629
2185.848	626
2189.841	631
2193.831	630
2197.817	620
2201.799	613
2205.778	612
2209.753	604
2213.725	603
2217.693	604
2221.657	607
2225.618	609
2229.575	599
2233.529	597
2237.479	596
2241.425	587
2245.368	569
2249.307	558
2253.243	565
2257.175	551
2261.104	534
2265.029	525
2268.95	541
2272.868	517
2276.783	515
2280.694	513
2284.601	512
2288.505	498
2292.405	506
2296.302	481
2300.195	482
2304.085	487
2307.971	459
2311.854	470
2315.734	455
2319.609	449
2323.482	442
2327.351	447
2331.216	458
2335.078	464
2338.937	451
2342.792	436
2346.643	438
2350.492	433
2354.336	446
2358.178	431
2362.015	435
2365.85	438
2369.681	433
2373.508	449
2377.333	435
2381.153	426
2384.971	436
2388.785	440
2392.595	427
2396.402	422
2400.206	420
2404.007	420
2407.804	416
2411.597	401
2415.388	407
2419.174	411
2422.958	409
2426.738	413
2430.515	405
2434.289	404
2438.059	398
2441.825	381
2445.589	395
2449.349	375
2453.106	377
2456.859	391
2460.61	377
2464.356	371
2468.1	370
2471.84	360
2475.577	354
2479.311	349
2483.041	342
2486.768	353
2490.492	339
2494.213	353
2497.93	340
2501.644	337
2505.355	338
2509.062	338
2512.766	337
2516.467	323
2520.165	334
2523.859	317
2527.551	315
2531.239	303
2534.923	297
2538.605	304
2542.283	295
2545.958	292
2549.63	293
2553.299	283
2556.964	293
2560.626	292
2564.285	287
2567.941	283
2571.594	270
2575.243	274
2578.89	263
2582.533	261
2586.173	259
2589.809	251
2593.443	257
2597.073	258
2600.701	241
2604.325	241
2607.946	253
2611.564	250
2615.178	250
2618.79	251
2622.398	241
2626.004	249
2629.606	232
2633.205	243
2636.801	227
2640.394	230
2643.983	229
2647.57	233
2651.153	226
2654.734	217
2658.311	210
2661.885	209
2665.456	218
2669.025	215
2672.589	214
2676.151	217
2679.71	214
2683.266	196
2686.819	197
2690.368	196
2693.915	189
2697.458	194
2700.999	187
2704.536	189
2708.071	177
2711.602	176
2715.13	181
2718.656	176
2722.178	169
2725.697	162
2729.214	159
2732.727	176
2736.237	164
2739.744	160
2743.249	163
2746.75	151
2750.248	153
2753.743	148
2757.236	147
2760.725	137
2764.211	137
2767.695	134
2771.175	125
2774.652	129
2778.127	136
2781.598	124
2785.067	141
2788.532	136
2791.995	127
2795.455	134
2798.911	122
2802.365	139
2805.816	140
2809.264	134
2812.709	144
2816.151	136
2819.59	135
2823.026	130
2826.46	134
2829.89	138
2833.318	141
2836.742	137
2840.164	136
2843.583	133
2846.999	138
2850.412	139
2853.822	146
2857.229	142
2860.634	151
2864.035	144
2867.434	151
2870.83	160
2874.223	171
2877.613	176
2881	185
2884.385	178
2887.766	172
2891.145	177
2894.521	177
2897.894	186
2901.264	178
2904.631	183
2907.996	177
2911.358	181
2914.717	181
2918.073	196
2921.426	195
2924.777	200
2928.124	206
2931.469	210
2934.811	220
2938.15	224
2941.487	229
2944.821	221
2948.152	218
2951.48	221
2954.805	225
2958.128	223
2961.447	218
2964.765	224
2968.079	206
2971.39	218
2974.699	210
2978.005	224
2981.308	227
2984.609	228
2987.907	224
2991.202	227
2994.494	227
2997.784	224
3001.07	230
3004.355	239
3007.636	235
3010.915	231
3014.191	247
3017.464	254
3020.734	244
3024.002	248
3027.267	252
3030.53	263
3033.789	269
3037.046	283
3040.301	268
3043.552	298
3046.801	303
3050.048	310
3053.291	321
3056.532	325
3059.771	343
3063.006	345
3066.239	364
3069.469	372
3072.697	379
3075.922	392
3079.144	397
3082.364	396
3085.581	422
3088.795	417
3092.007	435
3095.216	445
3098.423	460
3101.627	451
3104.828	468
3108.026	484
3111.222	488
3114.416	512
3117.607	519
3120.795	523
3123.98	525
3127.163	548
3130.344	563
3133.521	560
3136.696	590
3139.869	585
3143.039	607
3146.206	604
3149.371	612
3152.533	619
3155.693	626
3158.85	636
3162.005	641
3165.157	644
3168.306	640
3171.453	654
3174.597	651
3177.739	656
3180.878	663
3184.014	672
3187.149	651
3190.28	666
3193.409	670
3196.536	673
3199.659	672
3202.781	673
3205.9	668
3209.016	678
3212.13	685
3215.241	669
3218.35	661
3221.456	651
3224.56	650
3227.661	636
3230.76	634
3233.856	629
3236.95	615
3240.041	620
3243.13	597
3246.216	585
3249.3	579
3252.382	574
3255.46	580
3258.537	562
3261.611	573
3264.682	558
3267.751	550
3270.818	543
3273.882	554
3276.943	537
3280.002	539
3283.059	532
3286.113	526
3289.165	530
3292.214	532
3295.261	507
3298.306	510
3301.348	491
3304.387	496
3307.425	492
3310.459	483
3313.492	476
3316.521	466
3319.549	478
3322.574	458
3325.597	463
3328.617	469
3331.635	469
3334.65	460
3337.663	453
3340.674	461
3343.682	455
3346.688	460
3349.691	449
3352.692	441
3355.691	459
3358.687	439
3361.681	440
3364.673	441
3367.662	432
3370.649	430
3373.633	423
3376.615	406
3379.595	398
3382.572	388
3385.547	391
3388.52	389
3391.49	383
3394.458	382
3397.424	371
3400.387	361
3403.348	361
3406.307	346
3409.263	348
3412.217	339
3415.168	350
3418.118	339
3421.065	326
3424.009	322
3426.951	312
3429.891	316
3432.829	298
3435.764	302
3438.697	289
3441.628	274
3444.557	266
3447.483	263
3450.407	254
3453.328	231
3456.247	235
3459.164	221
3462.079	208
3464.991	208
3467.902	192
3470.809	195
3473.715	175
3476.618	176
3479.519	175
3482.418	169
3485.315	155
3488.209	148
3491.101	130
3493.99	139
3496.878	123
3499.763	117
3502.646	112
3505.527	105
3508.405	104
3511.281	95
3514.155	86
3517.027	80
3519.897	76
3522.764	61
3525.629	57
3528.492	47
3531.352	50
3534.211	39
3537.067	34
3539.921	27
3542.773	20
3545.622	15
3548.469	4
3551.315	14
3554.157	2
3556.998	-3
3559.837	-4
3562.673	-8
3565.507	-13
3568.339	-19
3571.169	-30
3573.996	-25
3576.822	-20
3579.645	-27
3582.466	-33
3585.285	-41
3588.101	-26
3590.916	-37
3593.728	-54
3596.538	-51
3599.346	-50
3602.152	-56
3604.956	-53
3607.757	-47
3610.556	-65
3613.354	-58
3616.149	-77
3618.942	-69
3621.732	-71
3624.521	-72
3627.307	-74
3630.092	-69
3632.874	-71
3635.654	-80
3638.432	-79
3641.208	-76
3643.982	-84
3646.753	-83
3649.523	-94
3652.29	-92
3655.055	-86
3657.818	-89
3660.579	-90
3663.338	-95
3666.095	-99
3668.849	-103
3671.602	-97
3674.352	-102
3677.101	-104
3679.847	-98
3682.591	-107
3685.333	-99
3688.073	-107
3690.811	-110
3693.547	-117
3696.281	-110
3699.013	-106
3701.742	-109
3704.47	-111
3707.195	-109
3709.919	-114
3712.64	-114
3715.359	-120
3718.076	-115
3720.792	-115
3723.505	-119
3726.216	-111
3728.925	-121
3731.632	-119
3734.336	-129
3737.039	-119
3739.74	-119
3742.439	-127
3745.136	-117
3747.83	-125
3750.523	-126
3753.213	-130
3755.902	-122
3758.589	-124
3761.273	-120
3763.956	-120
3766.636	-127
3769.315	-118
3771.991	-119
3774.665	-131
3777.338	-121
3780.008	-121
3782.677	-124
3785.343	-122
3788.007	-126
3790.67	-130
3793.33	-125
3795.989	-131
3798.645	-124
3801.299	-125
3803.952	-129
3806.602	-121
3809.251	-131
3811.897	-135
3814.542	-133
3817.184	-123
3819.825	-129
3822.463	-125
3825.1	-123
3827.735	-128
3830.367	-128
3832.998	-132
3835.627	-130
3838.253	-125
3840.878	-127
3843.501	-126
3846.122	-127
3848.741	-130
3851.358	-127
3853.973	-132
3856.586	-126
3859.197	-137
3861.806	-130
3864.414	-131
3867.019	-125
3869.622	-135
3872.224	-115
3874.823	-116
3877.421	-100
3880.016	-79
3882.61	-63
3885.202	-67
3887.792	-80
3890.38	-98
3892.966	-122
3895.55	-127
3898.132	-123
3900.713	-129
3903.291	-128
3905.868	-132
3908.442	-129
3911.015	-125
3913.586	-131
3916.155	-132
3918.722	-134
3921.287	-129
3923.85	-126
3926.411	-133
3928.971	-128
3931.528	-136
3934.084	-131
3936.638	-123
3939.19	-133
3941.74	-134
3944.288	-135
3946.834	-128
3949.378	-133
3951.921	-131
3954.462	-139
3957	-127
3959.537	-124
3962.072	-135
3964.606	-132
3967.137	-128
3969.667	-130
3972.194	-129
3974.72	-129
3977.244	-130
3979.766	-134
3982.286	-128
3984.805	-134
3987.321	-134
3989.836	-122
3992.349	-132
3994.86	-126
3997.369	-126
3999.877	-129
4002.382	-124
4004.886	-129
4007.388	-130
4009.888	-125
4012.386	-125
4014.883	-128
4017.377	-130
4019.87	-133
4022.361	-131
4024.85	-135
4027.338	-130
4029.823	-124
4032.307	-123
4034.789	-130
4037.269	-128
4039.747	-126
4042.224	-125
4044.699	-129
4047.172	-127
4049.643	-128
4052.112	-128
4054.58	-126
4057.046	-127
4059.51	-128
4061.972	-129
4064.432	-131
4066.891	-131
4069.348	-126
4071.803	-134
4074.256	-130
4076.708	-129
4079.158	-128
4081.606	-124
4084.052	-130
4086.497	-129
4088.939	-124
4091.38	-128
4093.819	-128
4096.257	-138
4098.693	-130
4101.127	-131
4103.559	-131
4105.989	-4
4108.418	-9
4110.845	-11
4113.27	-12
4115.694	-11
4118.115	-5
4120.535	-129
4122.954	-130
4125.37	-129
4127.785	-132
4130.198	-132
4132.609	-128
4135.019	-133
4137.427	-139
4139.833	-134
4142.237	-137
