Data from 2018-2-8_conc=2_n=10_RamanShift_01.txt Node
Date: Mon Mar 12 14:24:58 IST 2018
User: aro
Spectrometer: QEPB0276
Trigger mode: 0
Integration Time (sec): 3.000000E1
Scans to average: 1
Electric dark correction enabled: true
Nonlinearity correction enabled: false
Boxcar width: 0
XAxis mode: Raman Shifts
Number of Pixels in Spectrum: 1044
>>>>>Begin Spectral Data<<<<<
160.701	20.1
166.742	45.1
172.777	115.1
178.805	332.1
184.826	888.1
190.841	1894.1
196.849	3132.1
202.85	4125.1
208.845	4478.1
214.833	4515.1
220.815	4433.1
226.789	4402.1
232.758	4431.1
238.719	4431.1
244.674	4375.1
250.623	4354.1
256.565	4291.1
262.5	4253.1
268.429	4190.1
274.351	4170.1
280.267	4127.1
286.176	4128.1
292.079	4116.1
297.975	4088.1
303.865	4062.1
309.748	4086.1
315.625	4035.1
321.495	4051.1
327.359	4087.1
333.217	4082.1
339.068	4086.1
344.912	4099.1
350.751	4085.1
356.583	4109.1
362.408	4100.1
368.227	4140.1
374.04	4144.1
379.847	4143.1
385.647	4161.1
391.44	4198.1
397.228	4213.1
403.009	4210.1
408.784	4230.1
414.553	4243.1
420.315	4267.1
426.071	4286.1
431.821	4276.1
437.565	4278.1
443.302	4250.1
449.033	4229.1
454.758	4231.1
460.477	4212.1
466.189	4194.1
471.896	4171.1
477.596	4130.1
483.29	4093.1
488.978	4096.1
494.66	4072.1
500.335	4006.1
506.005	3916.1
511.668	3755.1
517.325	3637.1
522.977	3521.1
528.622	3442.1
534.261	3382.1
539.894	3333.1
545.521	3278.1
551.141	3299.1
556.756	3255.1
562.365	3240.1
567.968	3211.1
573.565	3187.1
579.155	3164.1
584.74	3149.1
590.319	3122.1
595.892	3118.1
601.459	3129.1
607.02	3091.1
612.575	3067.1
618.124	3063.1
623.667	3024.1
629.204	3005.1
634.735	2975.1
640.261	2955.1
645.781	2913.1
651.294	2909.1
656.802	2936.1
662.304	2897.1
667.8	2896.1
673.29	2909.1
678.775	2891.1
684.254	2872.1
689.726	2861.1
695.193	2842.1
700.655	2839.1
706.11	2813.1
711.56	2805.1
717.004	2791.1
722.442	2794.1
727.874	2754.1
733.301	2754.1
738.722	2748.1
744.137	2721.1
749.547	2725.1
754.951	2710.1
760.349	2745.1
765.741	2744.1
771.128	2743.1
776.509	2789.1
781.885	2796.1
787.254	2802.1
792.618	2804.1
797.977	2792.1
803.33	2768.1
808.677	2738.1
814.019	2748.1
819.355	2714.1
824.686	2700.1
830.011	2663.1
835.33	2690.1
840.644	2659.1
845.952	2672.1
851.255	2636.1
856.552	2627.1
861.844	2603.1
867.13	2613.1
872.41	2592.1
877.686	2563.1
882.955	2526.1
888.219	2518.1
893.478	2496.1
898.731	2459.1
903.979	2418.1
909.221	2404.1
914.458	2395.1
919.69	2390.1
924.916	2397.1
930.136	2406.1
935.351	2379.1
940.561	2391.1
945.766	2391.1
950.965	2402.1
956.158	2365.1
961.347	2345.1
966.529	2300.1
971.707	2272.1
976.879	2254.1
982.046	2216.1
987.208	2220.1
992.364	2204.1
997.515	2223.1
1002.66	2253.1
1007.801	2267.1
1012.936	2284.1
1018.066	2278.1
1023.19	2262.1
1028.309	2276.1
1033.423	2304.1
1038.532	2271.1
1043.636	2279.1
1048.734	2242.1
1053.827	2213.1
1058.915	2199.1
1063.998	2172.1
1069.075	2159.1
1074.147	2157.1
1079.214	2167.1
1084.276	2203.1
1089.333	2197.1
1094.385	2184.1
1099.431	2190.1
1104.472	2175.1
1109.509	2165.1
1114.54	2137.1
1119.565	2109.1
1124.586	2090.1
1129.602	2069.1
1134.613	2042.1
1139.618	2034.1
1144.619	2041.1
1149.614	2034.1
1154.604	2041.1
1159.589	2051.1
1164.57	2037.1
1169.545	2063.1
1174.515	2051.1
1179.48	2025.1
1184.44	2021.1
1189.395	2006.1
1194.345	1995.1
1199.29	1972.1
1204.23	1979.1
1209.165	1985.1
1214.095	1987.1
1219.021	2011.1
1223.941	2021.1
1228.856	2025.1
1233.766	2019.1
1238.672	2030.1
1243.572	2004.1
1248.467	2002.1
1253.358	1965.1
1258.244	1960.1
1263.124	1917.1
1268	1885.1
1272.871	1876.1
1277.737	1877.1
1282.599	1835.1
1287.455	1850.1
1292.306	1859.1
1297.153	1849.1
1301.995	1870.1
1306.832	1878.1
1311.664	1895.1
1316.491	1895.1
1321.314	1889.1
1326.132	1890.1
1330.945	1862.1
1335.753	1824.1
1340.556	1807.1
1345.354	1773.1
1350.148	1766.1
1354.937	1698.1
1359.722	1686.1
1364.501	1672.1
1369.276	1630.1
1374.046	1613.1
1378.811	1595.1
1383.572	1585.1
1388.327	1578.1
1393.079	1594.1
1397.825	1592.1
1402.567	1586.1
1407.304	1580.1
1412.036	1582.1
1416.764	1583.1
1421.487	1593.1
1426.205	1595.1
1430.919	1598.1
1435.628	1600.1
1440.333	1619.1
1445.032	1622.1
1449.727	1649.1
1454.418	1646.1
1459.104	1650.1
1463.785	1614.1
1468.462	1601.1
1473.134	1573.1
1477.802	1542.1
1482.465	1503.1
1487.123	1466.1
1491.777	1454.1
1496.426	1451.1
1501.071	1406.1
1505.711	1420.1
1510.347	1434.1
1514.978	1420.1
1519.604	1422.1
1524.226	1418.1
1528.844	1410.1
1533.457	1392.1
1538.065	1406.1
1542.669	1393.1
1547.269	1392.1
1551.864	1390.1
1556.454	1410.1
1561.041	1408.1
1565.622	1427.1
1570.199	1424.1
1574.772	1434.1
1579.34	1454.1
1583.904	1477.1
1588.464	1473.1
1593.019	1499.1
1597.569	1484.1
1602.115	1486.1
1606.657	1490.1
1611.195	1498.1
1615.728	1484.1
1620.256	1457.1
1624.78	1472.1
1629.3	1480.1
1633.816	1467.1
1638.327	1495.1
1642.834	1500.1
1647.336	1500.1
1651.834	1512.1
1656.328	1514.1
1660.817	1507.1
1665.302	1487.1
1669.783	1453.1
1674.259	1418.1
1678.732	1399.1
1683.199	1347.1
1687.663	1313.1
1692.122	1259.1
1696.577	1232.1
1701.028	1178.1
1705.474	1145.1
1709.917	1097.1
1714.355	1083.1
1718.788	1059.1
1723.218	1062.1
1727.643	1072.1
1732.064	1044.1
1736.481	1056.1
1740.893	1033.1
1745.301	1051.1
1749.705	1001.1
1754.105	967.1
1758.501	957.1
1762.893	934.1
1767.28	936.1
1771.663	907.1
1776.042	905.1
1780.417	900.1
1784.787	896.1
1789.154	875.1
1793.516	883.1
1797.874	868.1
1802.228	851.1
1806.578	841.1
1810.924	839.1
1815.266	835.1
1819.603	834.1
1823.937	828.1
1828.266	814.1
1832.591	832.1
1836.913	817.1
1841.23	816.1
1845.543	824.1
1849.852	817.1
1854.156	832.1
1858.457	818.1
1862.754	814.1
1867.047	814.1
1871.335	813.1
1875.62	820.1
1879.9	824.1
1884.177	814.1
1888.449	805.1
1892.718	788.1
1896.982	781.1
1901.243	783.1
1905.499	760.1
1909.752	750.1
1914	739.1
1918.245	742.1
1922.485	722.1
1926.722	747.1
1930.954	727.1
1935.183	725.1
1939.408	718.1
1943.628	715.1
1947.845	714.1
1952.058	706.1
1956.267	696.1
1960.472	694.1
1964.673	683.1
1968.87	672.1
1973.063	679.1
1977.252	666.1
1981.438	669.1
1985.619	662.1
1989.797	666.1
1993.971	660.1
1998.14	681.1
2002.306	665.1
2006.469	680.1
2010.627	667.1
2014.781	677.1
2018.932	674.1
2023.078	683.1
2027.221	674.1
2031.36	655.1
2035.495	649.1
2039.627	636.1
2043.754	625.1
2047.878	628.1
2051.998	613.1
2056.114	622.1
2060.226	625.1
2064.334	618.1
2068.439	610.1
2072.54	601.1
2076.637	607.1
2080.73	590.1
2084.82	594.1
2088.906	597.1
2092.988	601.1
2097.066	585.1
2101.14	586.1
2105.211	577.1
2109.278	552.1
2113.342	558.1
2117.401	557.1
2121.457	533.1
2125.509	537.1
2129.558	545.1
2133.602	545.1
2137.643	545.1
2141.681	544.1
2145.714	533.1
2149.744	543.1
2153.77	535.1
2157.793	528.1
2161.812	535.1
2165.827	519.1
2169.838	509.1
2173.846	504.1
2177.851	492.1
2181.851	481.1
2185.848	478.1
2189.841	482.1
2193.831	470.1
2197.817	482.1
2201.799	477.1
2205.778	472.1
2209.753	453.1
2213.725	461.1
2217.693	484.1
2221.657	461.1
2225.618	475.1
2229.575	476.1
2233.529	453.1
2237.479	462.1
2241.425	448.1
2245.368	435.1
2249.307	430.1
2253.243	429.1
2257.175	423.1
2261.104	425.1
2265.029	405.1
2268.95	406.1
2272.868	402.1
2276.783	391.1
2280.694	394.1
2284.601	387.1
2288.505	386.1
2292.405	381.1
2296.302	372.1
2300.195	369.1
2304.085	359.1
2307.971	353.1
2311.854	347.1
2315.734	338.1
2319.609	337.1
2323.482	332.1
2327.351	342.1
2331.216	349.1
2335.078	355.1
2338.937	336.1
2342.792	325.1
2346.643	318.1
2350.492	322.1
2354.336	316.1
2358.178	322.1
2362.015	313.1
2365.85	341.1
2369.681	324.1
2373.508	332.1
2377.333	320.1
2381.153	326.1
2384.971	323.1
2388.785	328.1
2392.595	310.1
2396.402	306.1
2400.206	313.1
2404.007	312.1
2407.804	311.1
2411.597	300.1
2415.388	304.1
2419.174	294.1
2422.958	298.1
2426.738	295.1
2430.515	295.1
2434.289	293.1
2438.059	282.1
2441.825	285.1
2445.589	283.1
2449.349	279.1
2453.106	283.1
2456.859	281.1
2460.61	266.1
2464.356	263.1
2468.1	245.1
2471.84	255.1
2475.577	263.1
2479.311	252.1
2483.041	237.1
2486.768	260.1
2490.492	250.1
2494.213	259.1
2497.93	241.1
2501.644	241.1
2505.355	243.1
2509.062	235.1
2512.766	238.1
2516.467	232.1
2520.165	232.1
2523.859	226.1
2527.551	220.1
2531.239	216.1
2534.923	201.1
2538.605	205.1
2542.283	199.1
2545.958	209.1
2549.63	209.1
2553.299	203.1
2556.964	211.1
2560.626	204.1
2564.285	196.1
2567.941	196.1
2571.594	199.1
2575.243	186.1
2578.89	196.1
2582.533	184.1
2586.173	184.1
2589.809	178.1
2593.443	184.1
2597.073	177.1
2600.701	167.1
2604.325	165.1
2607.946	173.1
2611.564	173.1
2615.178	174.1
2618.79	175.1
2622.398	175.1
2626.004	159.1
2629.606	162.1
2633.205	165.1
2636.801	163.1
2640.394	166.1
2643.983	158.1
2647.57	156.1
2651.153	156.1
2654.734	148.1
2658.311	142.1
2661.885	141.1
2665.456	143.1
2669.025	151.1
2672.589	154.1
2676.151	145.1
2679.71	137.1
2683.266	133.1
2686.819	131.1
2690.368	131.1
2693.915	123.1
2697.458	122.1
2700.999	123.1
2704.536	125.1
2708.071	117.1
2711.602	117.1
2715.13	116.1
2718.656	109.1
2722.178	113.1
2725.697	109.1
2729.214	98.1
2732.727	113.1
2736.237	114.1
2739.744	115.1
2743.249	105.1
2746.75	101.1
2750.248	100.1
2753.743	94.1
2757.236	86.1
2760.725	98.1
2764.211	99.1
2767.695	92.1
2771.175	78.1
2774.652	81.1
2778.127	80.1
2781.598	83.1
2785.067	90.1
2788.532	84.1
2791.995	83.1
2795.455	93.1
2798.911	78.1
2802.365	82.1
2805.816	87.1
2809.264	75.1
2812.709	90.1
2816.151	90.1
2819.59	89.1
2823.026	85.1
2826.46	82.1
2829.89	85.1
2833.318	78.1
2836.742	89.1
2840.164	84.1
2843.583	93.1
2846.999	95.1
2850.412	92.1
2853.822	93.1
2857.229	87.1
2860.634	95.1
2864.035	97.1
2867.434	108.1
2870.83	107.1
2874.223	117.1
2877.613	114.1
2881	126.1
2884.385	122.1
2887.766	116.1
2891.145	125.1
2894.521	124.1
2897.894	132.1
2901.264	128.1
2904.631	132.1
2907.996	133.1
2911.358	123.1
2914.717	130.1
2918.073	136.1
2921.426	140.1
2924.777	140.1
2928.124	148.1
2931.469	147.1
2934.811	153.1
2938.15	156.1
2941.487	174.1
2944.821	156.1
2948.152	160.1
2951.48	162.1
2954.805	164.1
2958.128	159.1
2961.447	163.1
2964.765	158.1
2968.079	161.1
2971.39	150.1
2974.699	165.1
2978.005	157.1
2981.308	160.1
2984.609	164.1
2987.907	161.1
2991.202	173.1
2994.494	162.1
2997.784	167.1
3001.07	181.1
3004.355	180.1
3007.636	188.1
3010.915	178.1
3014.191	175.1
3017.464	186.1
3020.734	194.1
3024.002	176.1
3027.267	196.1
3030.53	200.1
3033.789	198.1
3037.046	208.1
3040.301	205.1
3043.552	225.1
3046.801	223.1
3050.048	237.1
3053.291	239.1
3056.532	250.1
3059.771	255.1
3063.006	265.1
3066.239	280.1
3069.469	281.1
3072.697	289.1
3075.922	298.1
3079.144	303.1
3082.364	317.1
3085.581	327.1
3088.795	326.1
3092.007	345.1
3095.216	345.1
3098.423	349.1
3101.627	353.1
3104.828	368.1
3108.026	377.1
3111.222	375.1
3114.416	386.1
3117.607	395.1
3120.795	417.1
3123.98	408.1
3127.163	420.1
3130.344	447.1
3133.521	443.1
3136.696	468.1
3139.869	467.1
3143.039	470.1
3146.206	484.1
3149.371	478.1
3152.533	501.1
3155.693	507.1
3158.85	504.1
3162.005	504.1
3165.157	513.1
3168.306	510.1
3171.453	513.1
3174.597	514.1
3177.739	520.1
3180.878	517.1
3184.014	533.1
3187.149	529.1
3190.28	539.1
3193.409	528.1
3196.536	530.1
3199.659	537.1
3202.781	541.1
3205.9	547.1
3209.016	558.1
3212.13	543.1
3215.241	536.1
3218.35	539.1
3221.456	524.1
3224.56	519.1
3227.661	517.1
3230.76	513.1
3233.856	504.1
3236.95	494.1
3240.041	490.1
3243.13	475.1
3246.216	470.1
3249.3	472.1
3252.382	465.1
3255.46	465.1
3258.537	458.1
3261.611	462.1
3264.682	432.1
3267.751	452.1
3270.818	439.1
3273.882	437.1
3276.943	422.1
3280.002	435.1
3283.059	437.1
3286.113	436.1
3289.165	421.1
3292.214	418.1
3295.261	412.1
3298.306	403.1
3301.348	398.1
3304.387	388.1
3307.425	393.1
3310.459	390.1
3313.492	379.1
3316.521	375.1
3319.549	373.1
3322.574	366.1
3325.597	363.1
3328.617	371.1
3331.635	357.1
3334.65	368.1
3337.663	356.1
3340.674	361.1
3343.682	361.1
3346.688	354.1
3349.691	352.1
3352.692	365.1
3355.691	348.1
3358.687	353.1
3361.681	352.1
3364.673	347.1
3367.662	337.1
3370.649	336.1
3373.633	330.1
3376.615	314.1
3379.595	321.1
3382.572	316.1
3385.547	312.1
3388.52	308.1
3391.49	302.1
3394.458	304.1
3397.424	285.1
3400.387	275.1
3403.348	281.1
3406.307	274.1
3409.263	268.1
3412.217	269.1
3415.168	264.1
3418.118	261.1
3421.065	250.1
3424.009	255.1
3426.951	248.1
3429.891	245.1
3432.829	235.1
3435.764	230.1
3438.697	212.1
3441.628	215.1
3444.557	210.1
3447.483	198.1
3450.407	185.1
3453.328	185.1
3456.247	174.1
3459.164	173.1
3462.079	154.1
3464.991	155.1
3467.902	150.1
3470.809	147.1
3473.715	134.1
3476.618	127.1
3479.519	123.1
3482.418	120.1
3485.315	101.1
3488.209	102.1
3491.101	102.1
3493.99	98.1
3496.878	87.1
3499.763	77.1
3502.646	83.1
3505.527	69.1
3508.405	73.1
3511.281	65.1
3514.155	59.1
3517.027	48.1
3519.897	41.1
3522.764	39.1
3525.629	25.1
3528.492	29.1
3531.352	22.1
3534.211	13.1
3537.067	7.1
3539.921	8.1
3542.773	6.1
3545.622	-3.9
3548.469	-5.9
3551.315	-5.9
3554.157	-12.9
3556.998	-18.9
3559.837	-22.9
3562.673	-26.9
3565.507	-23.9
3568.339	-29.9
3571.169	-39.9
3573.996	-31.9
3576.822	-42.9
3579.645	-45.9
3582.466	-39.9
3585.285	-50.9
3588.101	-41.9
3590.916	-57.9
3593.728	-58.9
3596.538	-59.9
3599.346	-61.9
3602.152	-59.9
3604.956	-63.9
3607.757	-59.9
3610.556	-69.9
3613.354	-63.9
3616.149	-70.9
3618.942	-74.9
3621.732	-71.9
3624.521	-73.9
3627.307	-79.9
3630.092	-77.9
3632.874	-78.9
3635.654	-83.9
3638.432	-80.9
3641.208	-84.9
3643.982	-94.9
3646.753	-89.9
3649.523	-92.9
3652.29	-86.9
3655.055	-89.9
3657.818	-92.9
3660.579	-89.9
3663.338	-92.9
3666.095	-92.9
3668.849	-99.9
3671.602	-95.9
3674.352	-102.9
3677.101	-100.9
3679.847	-99.9
3682.591	-104.9
3685.333	-101.9
3688.073	-103.9
3690.811	-105.9
3693.547	-110.9
3696.281	-109.9
3699.013	-107.9
3701.742	-111.9
3704.47	-107.9
3707.195	-105.9
3709.919	-111.9
3712.64	-110.9
3715.359	-113.9
3718.076	-108.9
3720.792	-114.9
3723.505	-117.9
3726.216	-111.9
3728.925	-117.9
3731.632	-111.9
3734.336	-125.9
3737.039	-112.9
3739.74	-115.9
3742.439	-118.9
3745.136	-110.9
3747.83	-122.9
3750.523	-122.9
3753.213	-127.9
3755.902	-121.9
3758.589	-121.9
3761.273	-112.9
3763.956	-115.9
3766.636	-119.9
3769.315	-117.9
3771.991	-118.9
3774.665	-123.9
3777.338	-116.9
3780.008	-120.9
3782.677	-118.9
3785.343	-118.9
3788.007	-116.9
3790.67	-124.9
3793.33	-123.9
3795.989	-122.9
3798.645	-120.9
3801.299	-120.9
3803.952	-126.9
3806.602	-115.9
3809.251	-123.9
3811.897	-128.9
3814.542	-125.9
3817.184	-121.9
3819.825	-117.9
3822.463	-124.9
3825.1	-119.9
3827.735	-119.9
3830.367	-127.9
3832.998	-126.9
3835.627	-119.9
3838.253	-119.9
3840.878	-117.9
3843.501	-116.9
3846.122	-122.9
3848.741	-122.9
3851.358	-122.9
3853.973	-129.9
3856.586	-123.9
3859.197	-127.9
3861.806	-116.9
3864.414	-118.9
3867.019	-115.9
3869.622	-122.9
3872.224	-114.9
3874.823	-101.9
3877.421	-87.9
3880.016	-64.9
3882.61	-33.9
3885.202	-37.9
3887.792	-54.9
3890.38	-80.9
3892.966	-110.9
3895.55	-118.9
3898.132	-120.9
3900.713	-124.9
3903.291	-125.9
3905.868	-126.9
3908.442	-119.9
3911.015	-126.9
3913.586	-133.9
3916.155	-131.9
3918.722	-132.9
3921.287	-125.9
3923.85	-126.9
3926.411	-123.9
3928.971	-125.9
3931.528	-127.9
3934.084	-127.9
3936.638	-119.9
3939.19	-129.9
3941.74	-125.9
3944.288	-122.9
3946.834	-118.9
3949.378	-124.9
3951.921	-127.9
3954.462	-133.9
3957	-123.9
3959.537	-119.9
3962.072	-125.9
3964.606	-114.9
3967.137	-124.9
3969.667	-126.9
3972.194	-134.9
3974.72	-125.9
3977.244	-126.9
3979.766	-122.9
3982.286	-121.9
3984.805	-123.9
3987.321	-126.9
3989.836	-115.9
3992.349	-124.9
3994.86	-125.9
3997.369	-121.9
3999.877	-122.9
4002.382	-119.9
4004.886	-122.9
4007.388	-122.9
4009.888	-119.9
4012.386	-131.9
4014.883	-125.9
4017.377	-126.9
4019.87	-117.9
4022.361	-124.9
4024.85	-120.9
4027.338	-123.9
4029.823	-124.9
4032.307	-123.9
4034.789	-130.9
4037.269	-117.9
4039.747	-114.9
4042.224	-120.9
4044.699	-119.9
4047.172	-122.9
4049.643	-117.9
4052.112	-128.9
4054.58	-123.9
4057.046	-121.9
4059.51	-123.9
4061.972	-118.9
4064.432	-123.9
4066.891	-122.9
4069.348	-119.9
4071.803	-125.9
4074.256	-126.9
4076.708	-116.9
4079.158	-119.9
4081.606	-113.9
4084.052	-128.9
4086.497	-122.9
4088.939	-121.9
4091.38	-122.9
4093.819	-120.9
4096.257	-127.9
4098.693	-123.9
4101.127	-130.9
4103.559	-124.9
4105.989	16.1
4108.418	14.1
4110.845	15.1
4113.27	7.1
4115.694	5.1
4118.115	2.1
4120.535	-123.9
4122.954	-124.9
4125.37	-123.9
4127.785	-124.9
4130.198	-121.9
4132.609	-120.9
4135.019	-125.9
4137.427	-128.9
4139.833	-129.9
4142.237	-127.9
