Data from 2018-2-8_conc=2_n=10_RamanShift_02.txt Node
Date: Mon Mar 12 14:25:28 IST 2018
User: aro
Spectrometer: QEPB0276
Trigger mode: 0
Integration Time (sec): 3.000000E1
Scans to average: 1
Electric dark correction enabled: true
Nonlinearity correction enabled: false
Boxcar width: 0
XAxis mode: Raman Shifts
Number of Pixels in Spectrum: 1044
>>>>>Begin Spectral Data<<<<<
160.701	13
166.742	46
172.777	118
178.805	352
184.826	957
190.841	2036
196.849	3407
202.85	4429
208.845	4872
214.833	4894
220.815	4794
226.789	4783
232.758	4782
238.719	4786
244.674	4775
250.623	4688
256.565	4651
262.5	4594
268.429	4550
274.351	4495
280.267	4488
286.176	4439
292.079	4403
297.975	4406
303.865	4402
309.748	4397
315.625	4385
321.495	4347
327.359	4390
333.217	4399
339.068	4374
344.912	4363
350.751	4360
356.583	4400
362.408	4427
368.227	4406
374.04	4432
379.847	4442
385.647	4446
391.44	4472
397.228	4483
403.009	4538
408.784	4546
414.553	4571
420.315	4558
426.071	4570
431.821	4575
437.565	4567
443.302	4560
449.033	4547
454.758	4494
460.477	4512
466.189	4480
471.896	4452
477.596	4432
483.29	4400
488.978	4409
494.66	4364
500.335	4304
506.005	4228
511.668	4072
517.325	3943
522.977	3841
528.622	3754
534.261	3697
539.894	3665
545.521	3624
551.141	3574
556.756	3593
562.365	3552
567.968	3526
573.565	3485
579.155	3483
584.74	3472
590.319	3466
595.892	3459
601.459	3450
607.02	3437
612.575	3419
618.124	3370
623.667	3353
629.204	3327
634.735	3296
640.261	3265
645.781	3248
651.294	3240
656.802	3237
662.304	3224
667.8	3233
673.29	3196
678.775	3196
684.254	3177
689.726	3170
695.193	3147
700.655	3126
706.11	3118
711.56	3105
717.004	3089
722.442	3073
727.874	3065
733.301	3061
738.722	3040
744.137	3028
749.547	3009
754.951	3020
760.349	3013
765.741	3026
771.128	3052
776.509	3066
781.885	3085
787.254	3082
792.618	3093
797.977	3100
803.33	3062
808.677	3049
814.019	3020
819.355	2980
824.686	2951
830.011	2952
835.33	2946
840.644	2933
845.952	2948
851.255	2904
856.552	2896
861.844	2885
867.13	2887
872.41	2862
877.686	2852
882.955	2837
888.219	2777
893.478	2751
898.731	2714
903.979	2701
909.221	2650
914.458	2635
919.69	2636
924.916	2659
930.136	2658
935.351	2661
940.561	2676
945.766	2661
950.965	2659
956.158	2607
961.347	2614
966.529	2577
971.707	2536
976.879	2513
982.046	2460
987.208	2445
992.364	2455
997.515	2461
1002.66	2496
1007.801	2539
1012.936	2553
1018.066	2547
1023.19	2535
1028.309	2549
1033.423	2536
1038.532	2514
1043.636	2499
1048.734	2466
1053.827	2454
1058.915	2446
1063.998	2410
1069.075	2395
1074.147	2392
1079.214	2395
1084.276	2423
1089.333	2418
1094.385	2422
1099.431	2424
1104.472	2426
1109.509	2410
1114.54	2381
1119.565	2347
1124.586	2314
1129.602	2286
1134.613	2277
1139.618	2249
1144.619	2250
1149.614	2259
1154.604	2266
1159.589	2260
1164.57	2267
1169.545	2280
1174.515	2282
1179.48	2271
1184.44	2234
1189.395	2245
1194.345	2207
1199.29	2207
1204.23	2193
1209.165	2199
1214.095	2206
1219.021	2223
1223.941	2226
1228.856	2247
1233.766	2252
1238.672	2251
1243.572	2248
1248.467	2229
1253.358	2195
1258.244	2157
1263.124	2135
1268	2082
1272.871	2070
1277.737	2090
1282.599	2055
1287.455	2036
1292.306	2041
1297.153	2049
1301.995	2073
1306.832	2070
1311.664	2094
1316.491	2089
1321.314	2073
1326.132	2081
1330.945	2067
1335.753	2024
1340.556	2010
1345.354	1958
1350.148	1933
1354.937	1913
1359.722	1874
1364.501	1844
1369.276	1817
1374.046	1781
1378.811	1758
1383.572	1755
1388.327	1755
1393.079	1755
1397.825	1749
1402.567	1740
1407.304	1740
1412.036	1749
1416.764	1747
1421.487	1763
1426.205	1772
1430.919	1763
1435.628	1785
1440.333	1799
1445.032	1799
1449.727	1808
1454.418	1811
1459.104	1816
1463.785	1792
1468.462	1784
1473.134	1729
1477.802	1698
1482.465	1638
1487.123	1631
1491.777	1614
1496.426	1592
1501.071	1570
1505.711	1566
1510.347	1577
1514.978	1547
1519.604	1544
1524.226	1564
1528.844	1542
1533.457	1543
1538.065	1527
1542.669	1524
1547.269	1524
1551.864	1523
1556.454	1554
1561.041	1560
1565.622	1563
1570.199	1564
1574.772	1592
1579.34	1607
1583.904	1631
1588.464	1630
1593.019	1638
1597.569	1647
1602.115	1643
1606.657	1633
1611.195	1635
1615.728	1630
1620.256	1623
1624.78	1635
1629.3	1619
1633.816	1618
1638.327	1625
1642.834	1637
1647.336	1650
1651.834	1664
1656.328	1652
1660.817	1656
1665.302	1629
1669.783	1575
1674.259	1565
1678.732	1526
1683.199	1494
1687.663	1433
1692.122	1407
1696.577	1343
1701.028	1289
1705.474	1248
1709.917	1199
1714.355	1171
1718.788	1178
1723.218	1166
1727.643	1179
1732.064	1154
1736.481	1155
1740.893	1116
1745.301	1107
1749.705	1092
1754.105	1065
1758.501	1051
1762.893	1042
1767.28	1017
1771.663	1010
1776.042	1007
1780.417	990
1784.787	984
1789.154	964
1793.516	962
1797.874	935
1802.228	926
1806.578	939
1810.924	907
1815.266	896
1819.603	904
1823.937	892
1828.266	899
1832.591	900
1836.913	886
1841.23	906
1845.543	907
1849.852	903
1854.156	900
1858.457	901
1862.754	907
1867.047	902
1871.335	896
1875.62	900
1879.9	904
1884.177	886
1888.449	876
1892.718	865
1896.982	859
1901.243	837
1905.499	835
1909.752	824
1914	824
1918.245	825
1922.485	788
1926.722	799
1930.954	784
1935.183	797
1939.408	777
1943.628	789
1947.845	770
1952.058	771
1956.267	759
1960.472	752
1964.673	745
1968.87	727
1973.063	724
1977.252	734
1981.438	734
1985.619	729
1989.797	724
1993.971	733
1998.14	727
2002.306	726
2006.469	741
2010.627	738
2014.781	733
2018.932	730
2023.078	739
2027.221	730
2031.36	717
2035.495	704
2039.627	689
2043.754	686
2047.878	680
2051.998	679
2056.114	689
2060.226	663
2064.334	677
2068.439	665
2072.54	663
2076.637	670
2080.73	662
2084.82	665
2088.906	658
2092.988	647
2097.066	644
2101.14	621
2105.211	620
2109.278	611
2113.342	609
2117.401	600
2121.457	588
2125.509	594
2129.558	599
2133.602	592
2137.643	598
2141.681	605
2145.714	579
2149.744	593
2153.77	587
2157.793	586
2161.812	586
2165.827	573
2169.838	571
2173.846	555
2177.851	539
2181.851	532
2185.848	533
2189.841	542
2193.831	531
2197.817	516
2201.799	525
2205.778	522
2209.753	508
2213.725	518
2217.693	521
2221.657	520
2225.618	518
2229.575	512
2233.529	505
2237.479	500
2241.425	494
2245.368	489
2249.307	486
2253.243	470
2257.175	461
2261.104	464
2265.029	450
2268.95	456
2272.868	438
2276.783	436
2280.694	441
2284.601	423
2288.505	430
2292.405	431
2296.302	416
2300.195	413
2304.085	395
2307.971	388
2311.854	400
2315.734	384
2319.609	379
2323.482	378
2327.351	373
2331.216	395
2335.078	388
2338.937	382
2342.792	362
2346.643	370
2350.492	360
2354.336	365
2358.178	366
2362.015	361
2365.85	361
2369.681	353
2373.508	362
2377.333	362
2381.153	357
2384.971	371
2388.785	355
2392.595	349
2396.402	352
2400.206	341
2404.007	327
2407.804	335
2411.597	344
2415.388	331
2419.174	344
2422.958	338
2426.738	330
2430.515	336
2434.289	328
2438.059	320
2441.825	319
2445.589	325
2449.349	311
2453.106	313
2456.859	305
2460.61	310
2464.356	300
2468.1	298
2471.84	287
2475.577	296
2479.311	279
2483.041	293
2486.768	286
2490.492	290
2494.213	277
2497.93	274
2501.644	276
2505.355	270
2509.062	265
2512.766	268
2516.467	262
2520.165	257
2523.859	267
2527.551	257
2531.239	252
2534.923	249
2538.605	246
2542.283	236
2545.958	240
2549.63	244
2553.299	228
2556.964	232
2560.626	224
2564.285	215
2567.941	216
2571.594	220
2575.243	216
2578.89	210
2582.533	210
2586.173	208
2589.809	210
2593.443	204
2597.073	205
2600.701	199
2604.325	198
2607.946	193
2611.564	191
2615.178	196
2618.79	188
2622.398	192
2626.004	193
2629.606	189
2633.205	178
2636.801	186
2640.394	185
2643.983	173
2647.57	173
2651.153	176
2654.734	181
2658.311	160
2661.885	166
2665.456	165
2669.025	167
2672.589	164
2676.151	169
2679.71	161
2683.266	161
2686.819	158
2690.368	158
2693.915	147
2697.458	141
2700.999	144
2704.536	141
2708.071	141
2711.602	136
2715.13	139
2718.656	131
2722.178	128
2725.697	125
2729.214	129
2732.727	132
2736.237	132
2739.744	128
2743.249	124
2746.75	115
2750.248	116
2753.743	110
2757.236	108
2760.725	105
2764.211	102
2767.695	101
2771.175	98
2774.652	96
2778.127	99
2781.598	92
2785.067	95
2788.532	102
2791.995	101
2795.455	105
2798.911	98
2802.365	105
2805.816	105
2809.264	98
2812.709	107
2816.151	103
2819.59	105
2823.026	108
2826.46	101
2829.89	106
2833.318	100
2836.742	100
2840.164	99
2843.583	107
2846.999	107
2850.412	109
2853.822	105
2857.229	105
2860.634	111
2864.035	116
2867.434	117
2870.83	139
2874.223	139
2877.613	141
2881	147
2884.385	138
2887.766	137
2891.145	134
2894.521	144
2897.894	145
2901.264	149
2904.631	148
2907.996	147
2911.358	137
2914.717	146
2918.073	155
2921.426	160
2924.777	155
2928.124	164
2931.469	168
2934.811	169
2938.15	174
2941.487	182
2944.821	188
2948.152	185
2951.48	190
2954.805	185
2958.128	182
2961.447	180
2964.765	168
2968.079	169
2971.39	175
2974.699	181
2978.005	177
2981.308	184
2984.609	181
2987.907	183
2991.202	185
2994.494	186
2997.784	192
3001.07	200
3004.355	202
3007.636	196
3010.915	204
3014.191	198
3017.464	205
3020.734	197
3024.002	207
3027.267	220
3030.53	225
3033.789	228
3037.046	231
3040.301	226
3043.552	249
3046.801	252
3050.048	265
3053.291	272
3056.532	273
3059.771	290
3063.006	289
3066.239	309
3069.469	312
3072.697	325
3075.922	338
3079.144	351
3082.364	352
3085.581	360
3088.795	360
3092.007	363
3095.216	379
3098.423	394
3101.627	396
3104.828	402
3108.026	402
3111.222	415
3114.416	419
3117.607	437
3120.795	447
3123.98	455
3127.163	470
3130.344	489
3133.521	487
3136.696	513
3139.869	516
3143.039	517
3146.206	529
3149.371	531
3152.533	550
3155.693	549
3158.85	549
3162.005	551
3165.157	554
3168.306	555
3171.453	559
3174.597	574
3177.739	570
3180.878	586
3184.014	581
3187.149	572
3190.28	593
3193.409	578
3196.536	583
3199.659	587
3202.781	596
3205.9	587
3209.016	598
3212.13	585
3215.241	590
3218.35	573
3221.456	576
3224.56	562
3227.661	565
3230.76	565
3233.856	545
3236.95	530
3240.041	538
3243.13	518
3246.216	525
3249.3	506
3252.382	506
3255.46	505
3258.537	493
3261.611	490
3264.682	485
3267.751	488
3270.818	487
3273.882	475
3276.943	458
3280.002	466
3283.059	460
3286.113	460
3289.165	452
3292.214	460
3295.261	455
3298.306	438
3301.348	440
3304.387	430
3307.425	429
3310.459	425
3313.492	413
3316.521	409
3319.549	414
3322.574	405
3325.597	406
3328.617	409
3331.635	405
3334.65	394
3337.663	391
3340.674	391
3343.682	405
3346.688	384
3349.691	396
3352.692	393
3355.691	387
3358.687	387
3361.681	395
3364.673	382
3367.662	371
3370.649	363
3373.633	355
3376.615	352
3379.595	341
3382.572	336
3385.547	338
3388.52	335
3391.49	330
3394.458	326
3397.424	323
3400.387	308
3403.348	311
3406.307	303
3409.263	302
3412.217	298
3415.168	302
3418.118	290
3421.065	283
3424.009	280
3426.951	278
3429.891	264
3432.829	256
3435.764	262
3438.697	249
3441.628	241
3444.557	236
3447.483	223
3450.407	221
3453.328	207
3456.247	196
3459.164	189
3462.079	180
3464.991	172
3467.902	163
3470.809	162
3473.715	144
3476.618	143
3479.519	137
3482.418	131
3485.315	125
3488.209	117
3491.101	120
3493.99	117
3496.878	103
3499.763	93
3502.646	88
3505.527	81
3508.405	82
3511.281	72
3514.155	73
3517.027	64
3519.897	53
3522.764	43
3525.629	38
3528.492	35
3531.352	31
3534.211	24
3537.067	13
3539.921	15
3542.773	8
3545.622	-4
3548.469	-7
3551.315	1
3554.157	-14
3556.998	-14
3559.837	-18
3562.673	-16
3565.507	-20
3568.339	-28
3571.169	-35
3573.996	-35
3576.822	-31
3579.645	-38
3582.466	-38
3585.285	-44
3588.101	-42
3590.916	-52
3593.728	-58
3596.538	-63
3599.346	-58
3602.152	-52
3604.956	-53
3607.757	-55
3610.556	-66
3613.354	-64
3616.149	-74
3618.942	-75
3621.732	-74
3624.521	-77
3627.307	-74
3630.092	-78
3632.874	-75
3635.654	-85
3638.432	-84
3641.208	-82
3643.982	-92
3646.753	-87
3649.523	-92
3652.29	-87
3655.055	-88
3657.818	-94
3660.579	-95
3663.338	-96
3666.095	-103
3668.849	-99
3671.602	-102
3674.352	-98
3677.101	-101
3679.847	-105
3682.591	-108
3685.333	-104
3688.073	-104
3690.811	-108
3693.547	-112
3696.281	-113
3699.013	-107
3701.742	-111
3704.47	-113
3707.195	-110
3709.919	-116
3712.64	-112
3715.359	-114
3718.076	-115
3720.792	-116
3723.505	-119
3726.216	-120
3728.925	-117
3731.632	-119
3734.336	-126
3737.039	-117
3739.74	-123
3742.439	-126
3745.136	-117
3747.83	-127
3750.523	-124
3753.213	-128
3755.902	-123
3758.589	-124
3761.273	-115
3763.956	-113
3766.636	-120
3769.315	-114
3771.991	-121
3774.665	-126
3777.338	-122
3780.008	-118
3782.677	-122
3785.343	-118
3788.007	-121
3790.67	-121
3793.33	-122
3795.989	-124
3798.645	-120
3801.299	-124
3803.952	-130
3806.602	-116
3809.251	-127
3811.897	-131
3814.542	-124
3817.184	-122
3819.825	-127
3822.463	-127
3825.1	-124
3827.735	-125
3830.367	-124
3832.998	-130
3835.627	-125
3838.253	-120
3840.878	-124
3843.501	-119
3846.122	-121
3848.741	-128
3851.358	-124
3853.973	-131
3856.586	-125
3859.197	-135
3861.806	-123
3864.414	-123
3867.019	-117
3869.622	-122
3872.224	-111
3874.823	-105
3877.421	-99
3880.016	-75
3882.61	-52
3885.202	-50
3887.792	-57
3890.38	-86
3892.966	-114
3895.55	-118
3898.132	-123
3900.713	-128
3903.291	-130
3905.868	-133
3908.442	-116
3911.015	-127
3913.586	-123
3916.155	-127
3918.722	-126
3921.287	-128
3923.85	-130
3926.411	-125
3928.971	-126
3931.528	-130
3934.084	-127
3936.638	-127
3939.19	-135
3941.74	-132
3944.288	-135
3946.834	-125
3949.378	-123
3951.921	-125
3954.462	-139
3957	-131
3959.537	-126
3962.072	-131
3964.606	-125
3967.137	-126
3969.667	-128
3972.194	-132
3974.72	-123
3977.244	-132
3979.766	-132
3982.286	-126
3984.805	-129
3987.321	-124
3989.836	-118
3992.349	-124
3994.86	-127
3997.369	-127
3999.877	-127
4002.382	-125
4004.886	-125
4007.388	-117
4009.888	-122
4012.386	-128
4014.883	-127
4017.377	-129
4019.87	-127
4022.361	-126
4024.85	-123
4027.338	-124
4029.823	-122
4032.307	-125
4034.789	-123
4037.269	-128
4039.747	-123
4042.224	-124
4044.699	-127
4047.172	-124
4049.643	-119
4052.112	-126
4054.58	-125
4057.046	-131
4059.51	-133
4061.972	-127
4064.432	-123
4066.891	-123
4069.348	-120
4071.803	-132
4074.256	-129
4076.708	-129
4079.158	-125
4081.606	-121
4084.052	-129
4086.497	-123
4088.939	-120
4091.38	-122
4093.819	-126
4096.257	-130
4098.693	-131
4101.127	-133
4103.559	-129
4105.989	0
4108.418	-3
4110.845	0
4113.27	1
4115.694	-8
4118.115	-9
4120.535	-131
4122.954	-130
4125.37	-121
4127.785	-124
4130.198	-124
4132.609	-123
4135.019	-130
4137.427	-134
4139.833	-132
4142.237	-133
