Data from 2018-2-8_conc=0_n=6_RamanShift_01.txt Node
Date: Mon Mar 12 13:37:29 IST 2018
User: aro
Spectrometer: QEPB0276
Trigger mode: 0
Integration Time (sec): 3.000000E1
Scans to average: 1
Electric dark correction enabled: true
Nonlinearity correction enabled: false
Boxcar width: 0
XAxis mode: Raman Shifts
Number of Pixels in Spectrum: 1044
>>>>>Begin Spectral Data<<<<<
160.701	22
166.742	48
172.777	127
178.805	383
184.826	1007
190.841	2166
196.849	3592
202.85	4685
208.845	5118
214.833	5103
220.815	5045
226.789	5051
232.758	5044
238.719	5048
244.674	5000
250.623	4976
256.565	4941
262.5	4826
268.429	4768
274.351	4758
280.267	4722
286.176	4690
292.079	4661
297.975	4673
303.865	4625
309.748	4644
315.625	4615
321.495	4606
327.359	4643
333.217	4640
339.068	4612
344.912	4656
350.751	4632
356.583	4670
362.408	4652
368.227	4700
374.04	4672
379.847	4699
385.647	4720
391.44	4773
397.228	4749
403.009	4762
408.784	4804
414.553	4839
420.315	4830
426.071	4854
431.821	4882
437.565	4837
443.302	4839
449.033	4807
454.758	4788
460.477	4777
466.189	4773
471.896	4697
477.596	4691
483.29	4679
488.978	4675
494.66	4648
500.335	4582
506.005	4469
511.668	4312
517.325	4201
522.977	4082
528.622	4019
534.261	3903
539.894	3867
545.521	3845
551.141	3815
556.756	3801
562.365	3771
567.968	3751
573.565	3736
579.155	3703
584.74	3676
590.319	3670
595.892	3678
601.459	3671
607.02	3632
612.575	3618
618.124	3568
623.667	3547
629.204	3518
634.735	3495
640.261	3468
645.781	3448
651.294	3462
656.802	3438
662.304	3412
667.8	3380
673.29	3394
678.775	3388
684.254	3379
689.726	3366
695.193	3358
700.655	3332
706.11	3303
711.56	3318
717.004	3280
722.442	3252
727.874	3235
733.301	3232
738.722	3245
744.137	3228
749.547	3221
754.951	3191
760.349	3213
765.741	3211
771.128	3257
776.509	3271
781.885	3279
787.254	3268
792.618	3274
797.977	3260
803.33	3272
808.677	3226
814.019	3223
819.355	3162
824.686	3143
830.011	3148
835.33	3128
840.644	3110
845.952	3112
851.255	3111
856.552	3116
861.844	3084
867.13	3071
872.41	3051
877.686	3046
882.955	3029
888.219	2999
893.478	2984
898.731	2890
903.979	2866
909.221	2854
914.458	2821
919.69	2821
924.916	2825
930.136	2812
935.351	2843
940.561	2823
945.766	2833
950.965	2816
956.158	2800
961.347	2783
966.529	2760
971.707	2695
976.879	2657
982.046	2630
987.208	2626
992.364	2633
997.515	2641
1002.66	2651
1007.801	2684
1012.936	2700
1018.066	2713
1023.19	2719
1028.309	2702
1033.423	2714
1038.532	2720
1043.636	2664
1048.734	2641
1053.827	2638
1058.915	2603
1063.998	2565
1069.075	2551
1074.147	2569
1079.214	2557
1084.276	2583
1089.333	2591
1094.385	2621
1099.431	2614
1104.472	2604
1109.509	2591
1114.54	2558
1119.565	2522
1124.586	2473
1129.602	2438
1134.613	2424
1139.618	2401
1144.619	2402
1149.614	2380
1154.604	2403
1159.589	2414
1164.57	2413
1169.545	2422
1174.515	2448
1179.48	2426
1184.44	2378
1189.395	2373
1194.345	2366
1199.29	2333
1204.23	2318
1209.165	2354
1214.095	2353
1219.021	2373
1223.941	2352
1228.856	2406
1233.766	2426
1238.672	2422
1243.572	2391
1248.467	2379
1253.358	2354
1258.244	2306
1263.124	2283
1268	2243
1272.871	2223
1277.737	2209
1282.599	2200
1287.455	2172
1292.306	2198
1297.153	2203
1301.995	2222
1306.832	2231
1311.664	2254
1316.491	2232
1321.314	2244
1326.132	2227
1330.945	2196
1335.753	2161
1340.556	2119
1345.354	2097
1350.148	2061
1354.937	2036
1359.722	2010
1364.501	1954
1369.276	1923
1374.046	1898
1378.811	1889
1383.572	1873
1388.327	1854
1393.079	1874
1397.825	1854
1402.567	1866
1407.304	1860
1412.036	1871
1416.764	1878
1421.487	1888
1426.205	1867
1430.919	1900
1435.628	1902
1440.333	1913
1445.032	1947
1449.727	1934
1454.418	1966
1459.104	1957
1463.785	1919
1468.462	1888
1473.134	1831
1477.802	1825
1482.465	1758
1487.123	1727
1491.777	1708
1496.426	1688
1501.071	1668
1505.711	1669
1510.347	1657
1514.978	1665
1519.604	1650
1524.226	1660
1528.844	1651
1533.457	1644
1538.065	1609
1542.669	1629
1547.269	1624
1551.864	1606
1556.454	1638
1561.041	1664
1565.622	1660
1570.199	1655
1574.772	1686
1579.34	1713
1583.904	1728
1588.464	1740
1593.019	1725
1597.569	1764
1602.115	1744
1606.657	1741
1611.195	1743
1615.728	1732
1620.256	1727
1624.78	1717
1629.3	1712
1633.816	1727
1638.327	1730
1642.834	1731
1647.336	1749
1651.834	1742
1656.328	1748
1660.817	1721
1665.302	1702
1669.783	1681
1674.259	1648
1678.732	1612
1683.199	1569
1687.663	1516
1692.122	1461
1696.577	1408
1701.028	1334
1705.474	1311
1709.917	1249
1714.355	1238
1718.788	1215
1723.218	1222
1727.643	1233
1732.064	1217
1736.481	1219
1740.893	1184
1745.301	1158
1749.705	1122
1754.105	1103
1758.501	1090
1762.893	1096
1767.28	1070
1771.663	1072
1776.042	1046
1780.417	1119
1784.787	1490
1789.154	1072
1793.516	1015
1797.874	985
1802.228	967
1806.578	964
1810.924	959
1815.266	952
1819.603	941
1823.937	941
1828.266	945
1832.591	938
1836.913	945
1841.23	941
1845.543	942
1849.852	935
1854.156	942
1858.457	935
1862.754	952
1867.047	964
1871.335	958
1875.62	942
1879.9	936
1884.177	942
1888.449	928
1892.718	915
1896.982	898
1901.243	901
1905.499	877
1909.752	868
1914	859
1918.245	848
1922.485	826
1926.722	825
1930.954	817
1935.183	814
1939.408	810
1943.628	803
1947.845	788
1952.058	791
1956.267	782
1960.472	782
1964.673	755
1968.87	763
1973.063	754
1977.252	739
1981.438	751
1985.619	755
1989.797	752
1993.971	755
1998.14	749
2002.306	755
2006.469	754
2010.627	767
2014.781	762
2018.932	767
2023.078	765
2027.221	759
2031.36	747
2035.495	751
2039.627	729
2043.754	714
2047.878	713
2051.998	707
2056.114	704
2060.226	707
2064.334	689
2068.439	698
2072.54	684
2076.637	697
2080.73	677
2084.82	669
2088.906	676
2092.988	663
2097.066	666
2101.14	651
2105.211	646
2109.278	638
2113.342	627
2117.401	618
2121.457	623
2125.509	608
2129.558	607
2133.602	613
2137.643	609
2141.681	617
2145.714	606
2149.744	613
2153.77	605
2157.793	605
2161.812	606
2165.827	600
2169.838	590
2173.846	594
2177.851	572
2181.851	557
2185.848	558
2189.841	559
2193.831	548
2197.817	546
2201.799	540
2205.778	549
2209.753	539
2213.725	533
2217.693	533
2221.657	534
2225.618	535
2229.575	526
2233.529	534
2237.479	530
2241.425	517
2245.368	505
2249.307	497
2253.243	505
2257.175	482
2261.104	481
2265.029	471
2268.95	486
2272.868	469
2276.783	460
2280.694	457
2284.601	450
2288.505	442
2292.405	442
2296.302	427
2300.195	434
2304.085	428
2307.971	416
2311.854	415
2315.734	404
2319.609	385
2323.482	400
2327.351	400
2331.216	415
2335.078	413
2338.937	401
2342.792	377
2346.643	374
2350.492	379
2354.336	378
2358.178	381
2362.015	386
2365.85	392
2369.681	386
2373.508	396
2377.333	383
2381.153	385
2384.971	384
2388.785	389
2392.595	384
2396.402	377
2400.206	366
2404.007	374
2407.804	376
2411.597	371
2415.388	366
2419.174	374
2422.958	353
2426.738	350
2430.515	355
2434.289	366
2438.059	346
2441.825	348
2445.589	336
2449.349	337
2453.106	336
2456.859	332
2460.61	342
2464.356	320
2468.1	328
2471.84	310
2475.577	316
2479.311	301
2483.041	305
2486.768	303
2490.492	311
2494.213	297
2497.93	296
2501.644	282
2505.355	287
2509.062	291
2512.766	283
2516.467	278
2520.165	276
2523.859	279
2527.551	266
2531.239	261
2534.923	254
2538.605	257
2542.283	251
2545.958	255
2549.63	256
2553.299	249
2556.964	250
2560.626	235
2564.285	232
2567.941	231
2571.594	233
2575.243	222
2578.89	226
2582.533	223
2586.173	218
2589.809	216
2593.443	211
2597.073	208
2600.701	207
2604.325	203
2607.946	198
2611.564	207
2615.178	207
2618.79	204
2622.398	204
2626.004	202
2629.606	188
2633.205	187
2636.801	193
2640.394	195
2643.983	200
2647.57	197
2651.153	188
2654.734	183
2658.311	172
2661.885	175
2665.456	184
2669.025	186
2672.589	175
2676.151	174
2679.71	171
2683.266	165
2686.819	161
2690.368	166
2693.915	155
2697.458	153
2700.999	158
2704.536	150
2708.071	145
2711.602	140
2715.13	139
2718.656	144
2722.178	132
2725.697	139
2729.214	135
2732.727	138
2736.237	132
2739.744	127
2743.249	126
2746.75	119
2750.248	129
2753.743	127
2757.236	119
2760.725	108
2764.211	105
2767.695	100
2771.175	103
2774.652	94
2778.127	103
2781.598	109
2785.067	113
2788.532	104
2791.995	106
2795.455	105
2798.911	101
2802.365	108
2805.816	112
2809.264	102
2812.709	107
2816.151	108
2819.59	112
2823.026	109
2826.46	98
2829.89	102
2833.318	102
2836.742	109
2840.164	109
2843.583	113
2846.999	110
2850.412	115
2853.822	111
2857.229	103
2860.634	119
2864.035	113
2867.434	121
2870.83	131
2874.223	144
2877.613	138
2881	149
2884.385	147
2887.766	148
2891.145	150
2894.521	154
2897.894	160
2901.264	152
2904.631	157
2907.996	162
2911.358	146
2914.717	154
2918.073	168
2921.426	170
2924.777	184
2928.124	179
2931.469	177
2934.811	177
2938.15	186
2941.487	196
2944.821	196
2948.152	193
2951.48	193
2954.805	208
2958.128	194
2961.447	182
2964.765	181
2968.079	182
2971.39	182
2974.699	194
2978.005	182
2981.308	189
2984.609	199
2987.907	190
2991.202	199
2994.494	194
2997.784	190
3001.07	193
3004.355	207
3007.636	198
3010.915	195
3014.191	201
3017.464	208
3020.734	206
3024.002	213
3027.267	213
3030.53	225
3033.789	224
3037.046	233
3040.301	234
3043.552	251
3046.801	256
3050.048	264
3053.291	277
3056.532	289
3059.771	290
3063.006	290
3066.239	314
3069.469	320
3072.697	327
3075.922	341
3079.144	354
3082.364	355
3085.581	368
3088.795	364
3092.007	367
3095.216	383
3098.423	395
3101.627	410
3104.828	415
3108.026	418
3111.222	431
3114.416	437
3117.607	450
3120.795	466
3123.98	461
3127.163	481
3130.344	512
3133.521	505
3136.696	520
3139.869	522
3143.039	529
3146.206	538
3149.371	538
3152.533	549
3155.693	572
3158.85	557
3162.005	578
3165.157	568
3168.306	564
3171.453	572
3174.597	574
3177.739	586
3180.878	585
3184.014	593
3187.149	594
3190.28	584
3193.409	596
3196.536	586
3199.659	601
3202.781	607
3205.9	599
3209.016	608
3212.13	594
3215.241	604
3218.35	595
3221.456	580
3224.56	573
3227.661	569
3230.76	564
3233.856	552
3236.95	542
3240.041	538
3243.13	514
3246.216	516
3249.3	512
3252.382	500
3255.46	489
3258.537	512
3261.611	488
3264.682	479
3267.751	482
3270.818	484
3273.882	477
3276.943	473
3280.002	474
3283.059	472
3286.113	458
3289.165	458
3292.214	448
3295.261	449
3298.306	441
3301.348	445
3304.387	437
3307.425	427
3310.459	421
3313.492	416
3316.521	415
3319.549	413
3322.574	409
3325.597	398
3328.617	403
3331.635	398
3334.65	400
3337.663	391
3340.674	395
3343.682	398
3346.688	398
3349.691	399
3352.692	393
3355.691	386
3358.687	383
3361.681	382
3364.673	384
3367.662	381
3370.649	369
3373.633	349
3376.615	346
3379.595	341
3382.572	362
3385.547	341
3388.52	329
3391.49	322
3394.458	337
3397.424	315
3400.387	314
3403.348	308
3406.307	291
3409.263	292
3412.217	289
3415.168	290
3418.118	287
3421.065	282
3424.009	274
3426.951	271
3429.891	259
3432.829	249
3435.764	246
3438.697	245
3441.628	236
3444.557	236
3447.483	211
3450.407	204
3453.328	194
3456.247	187
3459.164	185
3462.079	170
3464.991	170
3467.902	160
3470.809	158
3473.715	143
3476.618	132
3479.519	138
3482.418	122
3485.315	116
3488.209	101
3491.101	106
3493.99	111
3496.878	99
3499.763	84
3502.646	87
3505.527	66
3508.405	67
3511.281	61
3514.155	55
3517.027	49
3519.897	42
3522.764	36
3525.629	32
3528.492	26
3531.352	16
3534.211	8
3537.067	8
3539.921	1
3542.773	1
3545.622	-5
3548.469	-16
3551.315	-10
3554.157	-20
3556.998	-28
3559.837	-26
3562.673	-28
3565.507	-27
3568.339	-35
3571.169	-43
3573.996	-48
3576.822	-40
3579.645	-47
3582.466	-47
3585.285	-59
3588.101	-49
3590.916	-65
3593.728	-67
3596.538	-67
3599.346	-69
3602.152	-67
3604.956	-73
3607.757	-68
3610.556	-84
3613.354	-77
3616.149	-85
3618.942	-85
3621.732	-86
3624.521	-91
3627.307	-86
3630.092	-88
3632.874	-88
3635.654	-94
3638.432	-94
3641.208	-95
3643.982	-100
3646.753	-107
3649.523	-100
3652.29	-100
3655.055	-103
3657.818	-106
3660.579	-103
3663.338	-104
3666.095	-110
3668.849	-109
3671.602	-113
3674.352	-117
3677.101	-111
3679.847	-114
3682.591	-112
3685.333	-111
3688.073	-111
3690.811	-119
3693.547	-130
3696.281	-118
3699.013	-126
3701.742	-125
3704.47	-121
3707.195	-123
3709.919	-128
3712.64	-124
3715.359	-128
3718.076	-130
3720.792	-132
3723.505	-131
3726.216	-125
3728.925	-127
3731.632	-128
3734.336	-133
3737.039	-133
3739.74	-133
3742.439	-137
3745.136	-125
3747.83	-134
3750.523	-130
3753.213	-137
3755.902	-129
3758.589	-139
3761.273	-130
3763.956	-128
3766.636	-134
3769.315	-123
3771.991	-130
3774.665	-137
3777.338	-127
3780.008	-132
3782.677	-141
3785.343	-132
3788.007	-138
3790.67	-134
3793.33	-132
3795.989	-130
3798.645	-129
3801.299	-135
3803.952	-144
3806.602	-134
3809.251	-143
3811.897	-139
3814.542	-141
3817.184	-135
3819.825	-132
3822.463	-136
3825.1	-138
3827.735	-141
3830.367	-139
3832.998	-137
3835.627	-137
3838.253	-135
3840.878	-137
3843.501	-134
3846.122	-137
3848.741	-141
3851.358	-136
3853.973	-143
3856.586	-132
3859.197	-141
3861.806	-130
3864.414	-138
3867.019	-133
3869.622	-136
3872.224	-123
3874.823	-112
3877.421	-100
3880.016	-65
3882.61	-37
3885.202	-38
3887.792	-56
3890.38	-97
3892.966	-122
3895.55	-131
3898.132	-133
3900.713	-137
3903.291	-140
3905.868	-141
3908.442	-136
3911.015	-142
3913.586	-144
3916.155	-145
3918.722	-138
3921.287	-135
3923.85	-138
3926.411	-143
3928.971	-144
3931.528	-140
3934.084	-139
3936.638	-138
3939.19	-144
3941.74	-141
3944.288	-141
3946.834	-136
3949.378	-139
3951.921	-143
3954.462	-145
3957	-136
3959.537	-133
3962.072	-138
3964.606	-131
3967.137	-141
3969.667	-143
3972.194	-146
3974.72	-141
3977.244	-142
3979.766	-134
3982.286	-140
3984.805	-140
3987.321	-139
3989.836	-132
3992.349	-140
3994.86	-140
3997.369	-144
3999.877	-137
4002.382	-130
4004.886	-140
4007.388	-133
4009.888	-138
4012.386	-140
4014.883	-140
4017.377	-144
4019.87	-136
4022.361	-140
4024.85	-140
4027.338	-132
4029.823	-138
4032.307	-136
4034.789	-143
4037.269	-137
4039.747	-142
4042.224	-136
4044.699	-141
4047.172	-136
4049.643	-133
4052.112	-136
4054.58	-140
4057.046	-141
4059.51	-141
4061.972	-140
4064.432	-136
4066.891	-134
4069.348	-134
4071.803	-138
4074.256	-141
4076.708	-142
4079.158	-141
4081.606	-135
4084.052	-143
4086.497	-142
4088.939	-135
4091.38	-136
4093.819	-142
4096.257	-147
4098.693	-145
4101.127	-142
4103.559	-142
4105.989	21
4108.418	20
4110.845	11
4113.27	15
4115.694	10
4118.115	5
4120.535	-140
4122.954	-144
4125.37	-138
4127.785	-143
4130.198	-136
4132.609	-141
4135.019	-145
4137.427	-145
4139.833	-145
4142.237	-145
