Data from 2018-2-8_ethanol_RamanShift_04.txt Node
Date: Mon Mar 12 13:13:29 IST 2018
User: aro
Spectrometer: QEPB0276
Trigger mode: 0
Integration Time (sec): 3.000000E1
Scans to average: 1
Electric dark correction enabled: true
Nonlinearity correction enabled: false
Boxcar width: 0
XAxis mode: Raman Shifts
Number of Pixels in Spectrum: 1044
>>>>>Begin Spectral Data<<<<<
160.701	24.2
166.742	41.2
172.777	112.2
178.805	331.2
184.826	906.2
190.841	1873.2
196.849	3024.2
202.85	3843.2
208.845	4101.2
214.833	4012.2
220.815	3876.2
226.789	3798.2
232.758	3729.2
238.719	3654.2
244.674	3576.2
250.623	3525.2
256.565	3480.2
262.5	3395.2
268.429	3356.2
274.351	3286.2
280.267	3235.2
286.176	3146.2
292.079	3075.2
297.975	2976.2
303.865	2915.2
309.748	2796.2
315.625	2736.2
321.495	2699.2
327.359	2667.2
333.217	2647.2
339.068	2632.2
344.912	2657.2
350.751	2634.2
356.583	2646.2
362.408	2674.2
368.227	2708.2
374.04	2729.2
379.847	2782.2
385.647	2852.2
391.44	2930.2
397.228	3019.2
403.009	3174.2
408.784	3353.2
414.553	3651.2
420.315	4109.2
426.071	4808.2
431.821	5651.2
437.565	6319.2
443.302	6424.2
449.033	5972.2
454.758	5171.2
460.477	4388.2
466.189	3841.2
471.896	3473.2
477.596	3201.2
483.29	3024.2
488.978	2938.2
494.66	2816.2
500.335	2703.2
506.005	2548.2
511.668	2368.2
517.325	2222.2
522.977	2082.2
528.622	1963.2
534.261	1896.2
539.894	1816.2
545.521	1798.2
551.141	1771.2
556.756	1729.2
562.365	1710.2
567.968	1678.2
573.565	1644.2
579.155	1623.2
584.74	1610.2
590.319	1604.2
595.892	1618.2
601.459	1609.2
607.02	1585.2
612.575	1586.2
618.124	1552.2
623.667	1508.2
629.204	1498.2
634.735	1474.2
640.261	1453.2
645.781	1432.2
651.294	1434.2
656.802	1430.2
662.304	1416.2
667.8	1392.2
673.29	1406.2
678.775	1398.2
684.254	1389.2
689.726	1385.2
695.193	1375.2
700.655	1361.2
706.11	1361.2
711.56	1351.2
717.004	1346.2
722.442	1348.2
727.874	1334.2
733.301	1356.2
738.722	1351.2
744.137	1342.2
749.547	1356.2
754.951	1379.2
760.349	1399.2
765.741	1420.2
771.128	1456.2
776.509	1503.2
781.885	1546.2
787.254	1603.2
792.618	1686.2
797.977	1752.2
803.33	1781.2
808.677	1861.2
814.019	1925.2
819.355	1976.2
824.686	1988.2
830.011	2014.2
835.33	2123.2
840.644	2239.2
845.952	2442.2
851.255	2763.2
856.552	3293.2
861.844	4226.2
867.13	6235.2
872.41	10440.2
877.686	17956.2
882.955	26957.2
888.219	30975.2
893.478	25815.2
898.731	15899.2
903.979	8477.2
909.221	4997.2
914.458	3501.2
919.69	2804.2
924.916	2368.2
930.136	2096.2
935.351	1919.2
940.561	1793.2
945.766	1703.2
950.965	1629.2
956.158	1579.2
961.347	1519.2
966.529	1524.2
971.707	1509.2
976.879	1495.2
982.046	1516.2
987.208	1566.2
992.364	1665.2
997.515	1769.2
1002.66	1966.2
1007.801	2252.2
1012.936	2659.2
1018.066	3168.2
1023.19	3796.2
1028.309	4498.2
1033.423	5299.2
1038.532	6380.2
1043.636	8053.2
1048.734	10094.2
1053.827	11527.2
1058.915	11352.2
1063.998	9667.2
1069.075	7960.2
1074.147	7231.2
1079.214	7575.2
1084.276	8785.2
1089.333	10365.2
1094.385	11669.2
1099.431	11634.2
1104.472	10020.2
1109.509	7708.2
1114.54	5968.2
1119.565	4970.2
1124.586	4474.2
1129.602	4043.2
1134.613	3622.2
1139.618	3125.2
1144.619	2698.2
1149.614	2380.2
1154.604	2169.2
1159.589	2025.2
1164.57	1903.2
1169.545	1765.2
1174.515	1647.2
1179.48	1528.2
1184.44	1433.2
1189.395	1390.2
1194.345	1340.2
1199.29	1304.2
1204.23	1315.2
1209.165	1327.2
1214.095	1332.2
1219.021	1370.2
1223.941	1419.2
1228.856	1484.2
1233.766	1573.2
1238.672	1668.2
1243.572	1784.2
1248.467	1918.2
1253.358	2070.2
1258.244	2267.2
1263.124	2593.2
1268	3149.2
1272.871	4002.2
1277.737	5030.2
1282.599	5638.2
1287.455	5417.2
1292.306	4485.2
1297.153	3576.2
1301.995	2922.2
1306.832	2523.2
1311.664	2341.2
1316.491	2204.2
1321.314	2087.2
1326.132	2027.2
1330.945	1987.2
1335.753	1944.2
1340.556	1925.2
1345.354	1922.2
1350.148	1902.2
1354.937	1945.2
1359.722	1968.2
1364.501	2034.2
1369.276	2114.2
1374.046	2238.2
1378.811	2443.2
1383.572	2688.2
1388.327	2939.2
1393.079	3110.2
1397.825	3177.2
1402.567	3244.2
1407.304	3389.2
1412.036	3593.2
1416.764	3889.2
1421.487	4222.2
1426.205	4635.2
1430.919	5069.2
1435.628	5671.2
1440.333	6536.2
1445.032	7940.2
1449.727	10159.2
1454.418	12923.2
1459.104	14951.2
1463.785	14541.2
1468.462	11907.2
1473.134	9054.2
1477.802	7277.2
1482.465	6584.2
1487.123	6358.2
1491.777	5993.2
1496.426	5216.2
1501.071	4318.2
1505.711	3566.2
1510.347	3055.2
1514.978	2732.2
1519.604	2509.2
1524.226	2287.2
1528.844	2096.2
1533.457	1944.2
1538.065	1809.2
1542.669	1702.2
1547.269	1624.2
1551.864	1514.2
1556.454	1456.2
1561.041	1400.2
1565.622	1343.2
1570.199	1280.2
1574.772	1199.2
1579.34	1175.2
1583.904	1152.2
1588.464	1108.2
1593.019	1071.2
1597.569	1040.2
1602.115	1009.2
1606.657	1005.2
1611.195	995.2
1615.728	1010.2
1620.256	1005.2
1624.78	1019.2
1629.3	989.2
1633.816	974.2
1638.327	939.2
1642.834	929.2
1647.336	906.2
1651.834	879.2
1656.328	878.2
1660.817	859.2
1665.302	848.2
1669.783	815.2
1674.259	804.2
1678.732	768.2
1683.199	778.2
1687.663	737.2
1692.122	718.2
1696.577	702.2
1701.028	666.2
1705.474	643.2
1709.917	620.2
1714.355	605.2
1718.788	594.2
1723.218	583.2
1727.643	564.2
1732.064	554.2
1736.481	527.2
1740.893	503.2
1745.301	474.2
1749.705	464.2
1754.105	435.2
1758.501	430.2
1762.893	414.2
1767.28	407.2
1771.663	385.2
1776.042	368.2
1780.417	359.2
1784.787	357.2
1789.154	352.2
1793.516	349.2
1797.874	340.2
1802.228	336.2
1806.578	326.2
1810.924	317.2
1815.266	315.2
1819.603	316.2
1823.937	303.2
1828.266	303.2
1832.591	294.2
1836.913	292.2
1841.23	298.2
1845.543	294.2
1849.852	293.2
1854.156	286.2
1858.457	297.2
1862.754	291.2
1867.047	294.2
1871.335	299.2
1875.62	301.2
1879.9	293.2
1884.177	303.2
1888.449	308.2
1892.718	287.2
1896.982	303.2
1901.243	288.2
1905.499	290.2
1909.752	291.2
1914	282.2
1918.245	275.2
1922.485	276.2
1926.722	270.2
1930.954	274.2
1935.183	261.2
1939.408	263.2
1943.628	272.2
1947.845	260.2
1952.058	255.2
1956.267	263.2
1960.472	258.2
1964.673	262.2
1968.87	258.2
1973.063	256.2
1977.252	239.2
1981.438	245.2
1985.619	243.2
1989.797	248.2
1993.971	253.2
1998.14	237.2
2002.306	235.2
2006.469	246.2
2010.627	243.2
2014.781	244.2
2018.932	237.2
2023.078	243.2
2027.221	246.2
2031.36	240.2
2035.495	234.2
2039.627	234.2
2043.754	232.2
2047.878	230.2
2051.998	242.2
2056.114	243.2
2060.226	247.2
2064.334	248.2
2068.439	252.2
2072.54	254.2
2076.637	261.2
2080.73	272.2
2084.82	269.2
2088.906	283.2
2092.988	302.2
2097.066	288.2
2101.14	279.2
2105.211	269.2
2109.278	269.2
2113.342	262.2
2117.401	253.2
2121.457	248.2
2125.509	245.2
2129.558	254.2
2133.602	261.2
2137.643	247.2
2141.681	248.2
2145.714	237.2
2149.744	252.2
2153.77	252.2
2157.793	248.2
2161.812	257.2
2165.827	256.2
2169.838	258.2
2173.846	253.2
2177.851	248.2
2181.851	233.2
2185.848	243.2
2189.841	248.2
2193.831	251.2
2197.817	236.2
2201.799	233.2
2205.778	234.2
2209.753	249.2
2213.725	224.2
2217.693	243.2
2221.657	246.2
2225.618	250.2
2229.575	243.2
2233.529	251.2
2237.479	255.2
2241.425	250.2
2245.368	256.2
2249.307	264.2
2253.243	261.2
2257.175	271.2
2261.104	273.2
2265.029	264.2
2268.95	264.2
2272.868	264.2
2276.783	256.2
2280.694	267.2
2284.601	275.2
2288.505	276.2
2292.405	275.2
2296.302	261.2
2300.195	256.2
2304.085	250.2
2307.971	232.2
2311.854	212.2
2315.734	203.2
2319.609	209.2
2323.482	207.2
2327.351	209.2
2331.216	213.2
2335.078	221.2
2338.937	206.2
2342.792	203.2
2346.643	191.2
2350.492	188.2
2354.336	191.2
2358.178	176.2
2362.015	186.2
2365.85	188.2
2369.681	182.2
2373.508	178.2
2377.333	182.2
2381.153	173.2
2384.971	177.2
2388.785	175.2
2392.595	165.2
2396.402	173.2
2400.206	168.2
2404.007	176.2
2407.804	169.2
2411.597	175.2
2415.388	177.2
2419.174	177.2
2422.958	181.2
2426.738	192.2
2430.515	187.2
2434.289	198.2
2438.059	189.2
2441.825	200.2
2445.589	206.2
2449.349	201.2
2453.106	204.2
2456.859	219.2
2460.61	215.2
2464.356	218.2
2468.1	212.2
2471.84	217.2
2475.577	226.2
2479.311	212.2
2483.041	207.2
2486.768	213.2
2490.492	209.2
2494.213	215.2
2497.93	215.2
2501.644	223.2
2505.355	221.2
2509.062	226.2
2512.766	230.2
2516.467	240.2
2520.165	229.2
2523.859	243.2
2527.551	250.2
2531.239	255.2
2534.923	272.2
2538.605	298.2
2542.283	309.2
2545.958	332.2
2549.63	348.2
2553.299	353.2
2556.964	353.2
2560.626	354.2
2564.285	335.2
2567.941	324.2
2571.594	322.2
2575.243	313.2
2578.89	306.2
2582.533	310.2
2586.173	308.2
2589.809	313.2
2593.443	316.2
2597.073	317.2
2600.701	317.2
2604.325	320.2
2607.946	325.2
2611.564	321.2
2615.178	331.2
2618.79	329.2
2622.398	336.2
2626.004	342.2
2629.606	327.2
2633.205	326.2
2636.801	343.2
2640.394	339.2
2643.983	365.2
2647.57	369.2
2651.153	357.2
2654.734	380.2
2658.311	383.2
2661.885	397.2
2665.456	415.2
2669.025	430.2
2672.589	434.2
2676.151	469.2
2679.71	497.2
2683.266	520.2
2686.819	558.2
2690.368	592.2
2693.915	649.2
2697.458	714.2
2700.999	794.2
2704.536	895.2
2708.071	984.2
2711.602	1108.2
2715.13	1189.2
2718.656	1275.2
2722.178	1318.2
2725.697	1344.2
2729.214	1366.2
2732.727	1345.2
2736.237	1300.2
2739.744	1250.2
2743.249	1206.2
2746.75	1175.2
2750.248	1183.2
2753.743	1189.2
2757.236	1180.2
2760.725	1170.2
2764.211	1147.2
2767.695	1099.2
2771.175	1054.2
2774.652	1022.2
2778.127	1008.2
2781.598	1010.2
2785.067	1019.2
2788.532	1047.2
2791.995	1082.2
2795.455	1134.2
2798.911	1196.2
2802.365	1258.2
2805.816	1337.2
2809.264	1418.2
2812.709	1517.2
2816.151	1658.2
2819.59	1780.2
2823.026	1936.2
2826.46	2136.2
2829.89	2350.2
2833.318	2592.2
2836.742	2833.2
2840.164	3087.2
2843.583	3293.2
2846.999	3502.2
2850.412	3678.2
2853.822	3855.2
2857.229	4106.2
2860.634	4415.2
2864.035	4843.2
2867.434	5377.2
2870.83	6106.2
2874.223	6893.2
2877.613	7821.2
2881	8610.2
2884.385	9129.2
2887.766	9314.2
2891.145	9236.2
2894.521	9067.2
2897.894	8864.2
2901.264	8664.2
2904.631	8412.2
2907.996	8193.2
2911.358	8066.2
2914.717	8100.2
2918.073	8391.2
2921.426	8901.2
2924.777	9699.2
2928.124	10803.2
2931.469	12002.2
2934.811	12735.2
2938.15	12648.2
2941.487	11784.2
2944.821	10603.2
2948.152	9363.2
2951.48	8310.2
2954.805	7336.2
2958.128	6663.2
2961.447	6104.2
2964.765	5840.2
2968.079	5684.2
2971.39	5692.2
2974.699	5758.2
2978.005	5815.2
2981.308	5675.2
2984.609	5446.2
2987.907	4957.2
2991.202	4432.2
2994.494	3867.2
2997.784	3392.2
3001.07	2985.2
3004.355	2642.2
3007.636	2360.2
3010.915	2086.2
3014.191	1905.2
3017.464	1744.2
3020.734	1583.2
3024.002	1487.2
3027.267	1375.2
3030.53	1280.2
3033.789	1189.2
3037.046	1127.2
3040.301	1048.2
3043.552	996.2
3046.801	952.2
3050.048	911.2
3053.291	880.2
3056.532	845.2
3059.771	810.2
3063.006	779.2
3066.239	774.2
3069.469	739.2
3072.697	724.2
3075.922	721.2
3079.144	704.2
3082.364	679.2
3085.581	659.2
3088.795	650.2
3092.007	629.2
3095.216	623.2
3098.423	611.2
3101.627	604.2
3104.828	603.2
3108.026	598.2
3111.222	592.2
3114.416	581.2
3117.607	582.2
3120.795	577.2
3123.98	550.2
3127.163	577.2
3130.344	579.2
3133.521	590.2
3136.696	586.2
3139.869	577.2
3143.039	590.2
3146.206	583.2
3149.371	582.2
3152.533	593.2
3155.693	584.2
3158.85	590.2
3162.005	599.2
3165.157	587.2
3168.306	591.2
3171.453	601.2
3174.597	587.2
3177.739	603.2
3180.878	601.2
3184.014	609.2
3187.149	595.2
3190.28	603.2
3193.409	593.2
3196.536	599.2
3199.659	608.2
3202.781	605.2
3205.9	612.2
3209.016	614.2
3212.13	605.2
3215.241	606.2
3218.35	603.2
3221.456	597.2
3224.56	579.2
3227.661	574.2
3230.76	579.2
3233.856	563.2
3236.95	566.2
3240.041	551.2
3243.13	547.2
3246.216	530.2
3249.3	523.2
3252.382	527.2
3255.46	517.2
3258.537	513.2
3261.611	517.2
3264.682	502.2
3267.751	500.2
3270.818	497.2
3273.882	509.2
3276.943	544.2
3280.002	486.2
3283.059	482.2
3286.113	488.2
3289.165	500.2
3292.214	471.2
3295.261	468.2
3298.306	457.2
3301.348	456.2
3304.387	442.2
3307.425	453.2
3310.459	447.2
3313.492	436.2
3316.521	426.2
3319.549	434.2
3322.574	423.2
3325.597	422.2
3328.617	414.2
3331.635	423.2
3334.65	426.2
3337.663	405.2
3340.674	415.2
3343.682	412.2
3346.688	397.2
3349.691	400.2
3352.692	399.2
3355.691	402.2
3358.687	406.2
3361.681	395.2
3364.673	392.2
3367.662	385.2
3370.649	383.2
3373.633	360.2
3376.615	362.2
3379.595	364.2
3382.572	358.2
3385.547	357.2
3388.52	348.2
3391.49	341.2
3394.458	332.2
3397.424	330.2
3400.387	321.2
3403.348	322.2
3406.307	312.2
3409.263	306.2
3412.217	312.2
3415.168	316.2
3418.118	296.2
3421.065	290.2
3424.009	292.2
3426.951	289.2
3429.891	277.2
3432.829	262.2
3435.764	270.2
3438.697	248.2
3441.628	247.2
3444.557	241.2
3447.483	238.2
3450.407	220.2
3453.328	216.2
3456.247	212.2
3459.164	192.2
3462.079	188.2
3464.991	185.2
3467.902	171.2
3470.809	169.2
3473.715	151.2
3476.618	148.2
3479.519	148.2
3482.418	133.2
3485.315	130.2
3488.209	116.2
3491.101	108.2
3493.99	112.2
3496.878	102.2
3499.763	90.2
3502.646	95.2
3505.527	86.2
3508.405	79.2
3511.281	72.2
3514.155	64.2
3517.027	53.2
3519.897	48.2
3522.764	42.2
3525.629	38.2
3528.492	34.2
3531.352	24.2
3534.211	17.2
3537.067	11.2
3539.921	8.2
3542.773	-2.8
3545.622	0.2
3548.469	-6.8
3551.315	-5.8
3554.157	-11.8
3556.998	-23.8
3559.837	-23.8
3562.673	-28.8
3565.507	-23.8
3568.339	-32.8
3571.169	-40.8
3573.996	-32.8
3576.822	-40.8
3579.645	-37.8
3582.466	-45.8
3585.285	-51.8
3588.101	-42.8
3590.916	-50.8
3593.728	-60.8
3596.538	-56.8
3599.346	-64.8
3602.152	-60.8
3604.956	-67.8
3607.757	-64.8
3610.556	-69.8
3613.354	-64.8
3616.149	-75.8
3618.942	-78.8
3621.732	-77.8
3624.521	-77.8
3627.307	-83.8
3630.092	-78.8
3632.874	-77.8
3635.654	-83.8
3638.432	-80.8
3641.208	-85.8
3643.982	-79.8
3646.753	-90.8
3649.523	-89.8
3652.29	-85.8
3655.055	-86.8
3657.818	-91.8
3660.579	-87.8
3663.338	-87.8
3666.095	-93.8
3668.849	-96.8
3671.602	-96.8
3674.352	-94.8
3677.101	-102.8
3679.847	-101.8
3682.591	-102.8
3685.333	-95.8
3688.073	-96.8
3690.811	-101.8
3693.547	-109.8
3696.281	-101.8
3699.013	-100.8
3701.742	-104.8
3704.47	-110.8
3707.195	-100.8
3709.919	-109.8
3712.64	-104.8
3715.359	-112.8
3718.076	-111.8
3720.792	-113.8
3723.505	-117.8
3726.216	-113.8
3728.925	-106.8
3731.632	-109.8
3734.336	-117.8
3737.039	-111.8
3739.74	-117.8
3742.439	-126.8
3745.136	-108.8
3747.83	-115.8
3750.523	-112.8
3753.213	-122.8
3755.902	-111.8
3758.589	-119.8
3761.273	-108.8
3763.956	-113.8
3766.636	-115.8
3769.315	-111.8
3771.991	-107.8
3774.665	-112.8
3777.338	-110.8
3780.008	-110.8
3782.677	-115.8
3785.343	-113.8
3788.007	-114.8
3790.67	-118.8
3793.33	-111.8
3795.989	-115.8
3798.645	-112.8
3801.299	-115.8
3803.952	-119.8
3806.602	-110.8
3809.251	-121.8
3811.897	-121.8
3814.542	-121.8
3817.184	-111.8
3819.825	-114.8
3822.463	-108.8
3825.1	-117.8
3827.735	-113.8
3830.367	-122.8
3832.998	-124.8
3835.627	-122.8
3838.253	-112.8
3840.878	-116.8
3843.501	-115.8
3846.122	-116.8
3848.741	-123.8
3851.358	-113.8
3853.973	-120.8
3856.586	-115.8
3859.197	-123.8
3861.806	-112.8
3864.414	-119.8
3867.019	-114.8
3869.622	-110.8
3872.224	-104.8
3874.823	-94.8
3877.421	-77.8
3880.016	-52.8
3882.61	-24.8
3885.202	-24.8
3887.792	-38.8
3890.38	-76.8
3892.966	-97.8
3895.55	-104.8
3898.132	-113.8
3900.713	-115.8
3903.291	-121.8
3905.868	-120.8
3908.442	-113.8
3911.015	-119.8
3913.586	-118.8
3916.155	-122.8
3918.722	-121.8
3921.287	-117.8
3923.85	-116.8
3926.411	-118.8
3928.971	-117.8
3931.528	-121.8
3934.084	-112.8
3936.638	-113.8
3939.19	-121.8
3941.74	-121.8
3944.288	-124.8
3946.834	-118.8
3949.378	-117.8
3951.921	-122.8
3954.462	-123.8
3957	-116.8
3959.537	-117.8
3962.072	-120.8
3964.606	-119.8
3967.137	-118.8
3969.667	-124.8
3972.194	-124.8
3974.72	-118.8
3977.244	-120.8
3979.766	-119.8
3982.286	-115.8
3984.805	-122.8
3987.321	-117.8
3989.836	-117.8
3992.349	-123.8
3994.86	-117.8
3997.369	-117.8
3999.877	-119.8
4002.382	-113.8
4004.886	-119.8
4007.388	-115.8
4009.888	-116.8
4012.386	-121.8
4014.883	-119.8
4017.377	-117.8
4019.87	-121.8
4022.361	-120.8
4024.85	-118.8
4027.338	-119.8
4029.823	-117.8
4032.307	-116.8
4034.789	-120.8
4037.269	-119.8
4039.747	-119.8
4042.224	-117.8
4044.699	-123.8
4047.172	-116.8
4049.643	-114.8
4052.112	-120.8
4054.58	-120.8
4057.046	-119.8
4059.51	-119.8
4061.972	-112.8
4064.432	-118.8
4066.891	-118.8
4069.348	-113.8
4071.803	-122.8
4074.256	-123.8
4076.708	-117.8
4079.158	-120.8
4081.606	-112.8
4084.052	-117.8
4086.497	-117.8
4088.939	-112.8
4091.38	-113.8
4093.819	-119.8
4096.257	-128.8
4098.693	-122.8
4101.127	-124.8
4103.559	-122.8
4105.989	24.2
4108.418	27.2
4110.845	16.2
4113.27	14.2
4115.694	8.2
4118.115	3.2
4120.535	-125.8
4122.954	-123.8
4125.37	-114.8
4127.785	-117.8
4130.198	-113.8
4132.609	-118.8
4135.019	-123.8
4137.427	-127.8
4139.833	-128.8
4142.237	-128.8
