Data from 2018-2-8_conc=4_n=10_RamanShift_03.txt Node
Date: Mon Mar 12 15:40:58 IST 2018
User: aro
Spectrometer: QEPB0276
Trigger mode: 0
Integration Time (sec): 3.000000E1
Scans to average: 1
Electric dark correction enabled: true
Nonlinearity correction enabled: false
Boxcar width: 0
XAxis mode: Raman Shifts
Number of Pixels in Spectrum: 1044
>>>>>Begin Spectral Data<<<<<
160.701	4
166.742	31
172.777	116
178.805	366
184.826	1001
190.841	2175
196.849	3607
202.85	4735
208.845	5146
214.833	5196
220.815	5085
226.789	5083
232.758	5081
238.719	5090
244.674	5050
250.623	5004
256.565	4910
262.5	4830
268.429	4772
274.351	4736
280.267	4713
286.176	4678
292.079	4663
297.975	4633
303.865	4621
309.748	4595
315.625	4578
321.495	4542
327.359	4588
333.217	4580
339.068	4570
344.912	4570
350.751	4577
356.583	4617
362.408	4600
368.227	4604
374.04	4637
379.847	4627
385.647	4633
391.44	4667
397.228	4660
403.009	4709
408.784	4741
414.553	4733
420.315	4757
426.071	4750
431.821	4770
437.565	4760
443.302	4737
449.033	4737
454.758	4706
460.477	4694
466.189	4661
471.896	4638
477.596	4623
483.29	4598
488.978	4577
494.66	4556
500.335	4487
506.005	4393
511.668	4283
517.325	4164
522.977	4080
528.622	4009
534.261	3962
539.894	3905
545.521	3877
551.141	3877
556.756	3823
562.365	3802
567.968	3792
573.565	3748
579.155	3766
584.74	3740
590.319	3711
595.892	3709
601.459	3687
607.02	3692
612.575	3649
618.124	3624
623.667	3601
629.204	3551
634.735	3510
640.261	3510
645.781	3491
651.294	3503
656.802	3483
662.304	3472
667.8	3447
673.29	3442
678.775	3445
684.254	3451
689.726	3419
695.193	3382
700.655	3373
706.11	3368
711.56	3366
717.004	3336
722.442	3303
727.874	3297
733.301	3291
738.722	3288
744.137	3255
749.547	3252
754.951	3274
760.349	3283
765.741	3269
771.128	3279
776.509	3311
781.885	3307
787.254	3304
792.618	3323
797.977	3303
803.33	3283
808.677	3237
814.019	3246
819.355	3177
824.686	3192
830.011	3158
835.33	3170
840.644	3151
845.952	3155
851.255	3153
856.552	3133
861.844	3112
867.13	3108
872.41	3084
877.686	3084
882.955	3034
888.219	3023
893.478	2996
898.731	2953
903.979	2932
909.221	2882
914.458	2879
919.69	2878
924.916	2879
930.136	2897
935.351	2901
940.561	2894
945.766	2872
950.965	2872
956.158	2844
961.347	2838
966.529	2787
971.707	2747
976.879	2695
982.046	2677
987.208	2677
992.364	2679
997.515	2688
1002.66	2720
1007.801	2720
1012.936	2765
1018.066	2740
1023.19	2756
1028.309	2754
1033.423	2761
1038.532	2752
1043.636	2713
1048.734	2707
1053.827	2649
1058.915	2636
1063.998	2616
1069.075	2585
1074.147	2594
1079.214	2624
1084.276	2631
1089.333	2644
1094.385	2651
1099.431	2650
1104.472	2627
1109.509	2610
1114.54	2587
1119.565	2540
1124.586	2532
1129.602	2493
1134.613	2464
1139.618	2453
1144.619	2463
1149.614	2445
1154.604	2468
1159.589	2477
1164.57	2463
1169.545	2461
1174.515	2481
1179.48	2469
1184.44	2424
1189.395	2416
1194.345	2408
1199.29	2397
1204.23	2393
1209.165	2400
1214.095	2419
1219.021	2404
1223.941	2411
1228.856	2443
1233.766	2458
1238.672	2442
1243.572	2448
1248.467	2420
1253.358	2394
1258.244	2350
1263.124	2322
1268	2289
1272.871	2251
1277.737	2245
1282.599	2234
1287.455	2244
1292.306	2248
1297.153	2237
1301.995	2257
1306.832	2274
1311.664	2291
1316.491	2297
1321.314	2270
1326.132	2278
1330.945	2274
1335.753	2220
1340.556	2183
1345.354	2139
1350.148	2106
1354.937	2093
1359.722	2050
1364.501	2002
1369.276	1980
1374.046	1939
1378.811	1918
1383.572	1902
1388.327	1905
1393.079	1909
1397.825	1912
1402.567	1908
1407.304	1917
1412.036	1922
1416.764	1942
1421.487	1934
1426.205	1919
1430.919	1929
1435.628	1942
1440.333	1965
1445.032	1965
1449.727	2018
1454.418	1983
1459.104	2001
1463.785	1960
1468.462	1949
1473.134	1890
1477.802	1862
1482.465	1825
1487.123	1786
1491.777	1768
1496.426	1726
1501.071	1736
1505.711	1723
1510.347	1733
1514.978	1718
1519.604	1731
1524.226	1728
1528.844	1703
1533.457	1679
1538.065	1671
1542.669	1672
1547.269	1682
1551.864	1661
1556.454	1688
1561.041	1712
1565.622	1720
1570.199	1711
1574.772	1732
1579.34	1756
1583.904	1777
1588.464	1773
1593.019	1777
1597.569	1791
1602.115	1799
1606.657	1784
1611.195	1797
1615.728	1773
1620.256	1781
1624.78	1765
1629.3	1781
1633.816	1769
1638.327	1788
1642.834	1786
1647.336	1803
1651.834	1805
1656.328	1803
1660.817	1793
1665.302	1795
1669.783	1747
1674.259	1718
1678.732	1675
1683.199	1642
1687.663	1569
1692.122	1538
1696.577	1469
1701.028	1415
1705.474	1362
1709.917	1323
1714.355	1289
1718.788	1291
1723.218	1281
1727.643	1277
1732.064	1286
1736.481	1276
1740.893	1245
1745.301	1218
1749.705	1195
1754.105	1170
1758.501	1134
1762.893	1147
1767.28	1132
1771.663	1109
1776.042	1090
1780.417	1109
1784.787	1088
1789.154	1074
1793.516	1067
1797.874	1042
1802.228	1038
1806.578	1022
1810.924	1017
1815.266	1002
1819.603	1009
1823.937	990
1828.266	1000
1832.591	996
1836.913	987
1841.23	992
1845.543	995
1849.852	1005
1854.156	981
1858.457	1004
1862.754	1002
1867.047	1006
1871.335	987
1875.62	993
1879.9	997
1884.177	1004
1888.449	987
1892.718	977
1896.982	950
1901.243	941
1905.499	941
1909.752	933
1914	911
1918.245	907
1922.485	880
1926.722	891
1930.954	871
1935.183	873
1939.408	869
1943.628	873
1947.845	857
1952.058	861
1956.267	863
1960.472	829
1964.673	826
1968.87	825
1973.063	809
1977.252	810
1981.438	814
1985.619	812
1989.797	807
1993.971	813
1998.14	817
2002.306	801
2006.469	809
2010.627	801
2014.781	822
2018.932	811
2023.078	809
2027.221	808
2031.36	808
2035.495	782
2039.627	771
2043.754	750
2047.878	756
2051.998	763
2056.114	742
2060.226	751
2064.334	742
2068.439	746
2072.54	741
2076.637	742
2080.73	741
2084.82	736
2088.906	730
2092.988	713
2097.066	707
2101.14	701
2105.211	697
2109.278	700
2113.342	667
2117.401	666
2121.457	657
2125.509	657
2129.558	667
2133.602	653
2137.643	662
2141.681	665
2145.714	656
2149.744	659
2153.77	654
2157.793	649
2161.812	657
2165.827	646
2169.838	631
2173.846	628
2177.851	619
2181.851	605
2185.848	605
2189.841	607
2193.831	590
2197.817	586
2201.799	578
2205.778	583
2209.753	586
2213.725	588
2217.693	582
2221.657	570
2225.618	579
2229.575	579
2233.529	566
2237.479	563
2241.425	551
2245.368	547
2249.307	542
2253.243	524
2257.175	521
2261.104	521
2265.029	503
2268.95	499
2272.868	499
2276.783	486
2280.694	488
2284.601	484
2288.505	480
2292.405	472
2296.302	468
2300.195	458
2304.085	447
2307.971	444
2311.854	443
2315.734	428
2319.609	423
2323.482	431
2327.351	428
2331.216	434
2335.078	449
2338.937	432
2342.792	412
2346.643	403
2350.492	410
2354.336	410
2358.178	400
2362.015	411
2365.85	412
2369.681	405
2373.508	413
2377.333	418
2381.153	402
2384.971	420
2388.785	406
2392.595	395
2396.402	400
2400.206	397
2404.007	410
2407.804	400
2411.597	387
2415.388	386
2419.174	396
2422.958	381
2426.738	380
2430.515	374
2434.289	381
2438.059	369
2441.825	371
2445.589	364
2449.349	357
2453.106	361
2456.859	360
2460.61	361
2464.356	342
2468.1	339
2471.84	329
2475.577	340
2479.311	324
2483.041	326
2486.768	324
2490.492	325
2494.213	333
2497.93	327
2501.644	315
2505.355	327
2509.062	316
2512.766	313
2516.467	312
2520.165	312
2523.859	297
2527.551	301
2531.239	286
2534.923	284
2538.605	283
2542.283	280
2545.958	282
2549.63	276
2553.299	272
2556.964	281
2560.626	270
2564.285	268
2567.941	272
2571.594	268
2575.243	262
2578.89	246
2582.533	239
2586.173	240
2589.809	251
2593.443	250
2597.073	237
2600.701	238
2604.325	233
2607.946	236
2611.564	231
2615.178	245
2618.79	231
2622.398	241
2626.004	228
2629.606	225
2633.205	218
2636.801	211
2640.394	221
2643.983	216
2647.57	206
2651.153	218
2654.734	213
2658.311	203
2661.885	194
2665.456	203
2669.025	201
2672.589	203
2676.151	202
2679.71	198
2683.266	186
2686.819	191
2690.368	183
2693.915	180
2697.458	180
2700.999	173
2704.536	171
2708.071	169
2711.602	168
2715.13	166
2718.656	156
2722.178	158
2725.697	150
2729.214	153
2732.727	169
2736.237	160
2739.744	150
2743.249	147
2746.75	144
2750.248	134
2753.743	140
2757.236	137
2760.725	133
2764.211	134
2767.695	127
2771.175	118
2774.652	115
2778.127	127
2781.598	117
2785.067	133
2788.532	132
2791.995	127
2795.455	129
2798.911	121
2802.365	133
2805.816	136
2809.264	119
2812.709	135
2816.151	140
2819.59	135
2823.026	126
2826.46	120
2829.89	123
2833.318	123
2836.742	132
2840.164	137
2843.583	135
2846.999	135
2850.412	129
2853.822	135
2857.229	133
2860.634	140
2864.035	145
2867.434	154
2870.83	156
2874.223	160
2877.613	162
2881	165
2884.385	170
2887.766	159
2891.145	161
2894.521	169
2897.894	175
2901.264	167
2904.631	172
2907.996	176
2911.358	176
2914.717	181
2918.073	181
2921.426	189
2924.777	197
2928.124	199
2931.469	196
2934.811	205
2938.15	210
2941.487	205
2944.821	214
2948.152	208
2951.48	208
2954.805	220
2958.128	211
2961.447	204
2964.765	210
2968.079	203
2971.39	204
2974.699	208
2978.005	207
2981.308	214
2984.609	217
2987.907	205
2991.202	213
2994.494	212
2997.784	215
3001.07	227
3004.355	238
3007.636	239
3010.915	237
3014.191	236
3017.464	243
3020.734	231
3024.002	238
3027.267	240
3030.53	255
3033.789	265
3037.046	264
3040.301	259
3043.552	286
3046.801	290
3050.048	284
3053.291	301
3056.532	318
3059.771	325
3063.006	336
3066.239	339
3069.469	355
3072.697	367
3075.922	383
3079.144	389
3082.364	400
3085.581	406
3088.795	412
3092.007	418
3095.216	423
3098.423	430
3101.627	445
3104.828	457
3108.026	466
3111.222	475
3114.416	483
3117.607	493
3120.795	507
3123.98	501
3127.163	522
3130.344	543
3133.521	548
3136.696	573
3139.869	570
3143.039	574
3146.206	590
3149.371	595
3152.533	595
3155.693	612
3158.85	622
3162.005	629
3165.157	631
3168.306	629
3171.453	625
3174.597	628
3177.739	634
3180.878	640
3184.014	652
3187.149	646
3190.28	650
3193.409	651
3196.536	641
3199.659	656
3202.781	666
3205.9	655
3209.016	649
3212.13	667
3215.241	657
3218.35	647
3221.456	639
3224.56	635
3227.661	627
3230.76	613
3233.856	613
3236.95	594
3240.041	590
3243.13	578
3246.216	564
3249.3	560
3252.382	559
3255.46	558
3258.537	551
3261.611	552
3264.682	538
3267.751	541
3270.818	535
3273.882	521
3276.943	534
3280.002	519
3283.059	525
3286.113	522
3289.165	514
3292.214	504
3295.261	493
3298.306	489
3301.348	487
3304.387	485
3307.425	482
3310.459	479
3313.492	467
3316.521	471
3319.549	460
3322.574	461
3325.597	445
3328.617	459
3331.635	443
3334.65	441
3337.663	433
3340.674	448
3343.682	449
3346.688	436
3349.691	431
3352.692	431
3355.691	431
3358.687	437
3361.681	439
3364.673	419
3367.662	425
3370.649	412
3373.633	391
3376.615	406
3379.595	382
3382.572	392
3385.547	378
3388.52	372
3391.49	363
3394.458	363
3397.424	355
3400.387	346
3403.348	341
3406.307	331
3409.263	338
3412.217	330
3415.168	336
3418.118	322
3421.065	326
3424.009	321
3426.951	311
3429.891	308
3432.829	288
3435.764	288
3438.697	279
3441.628	276
3444.557	266
3447.483	249
3450.407	247
3453.328	225
3456.247	230
3459.164	218
3462.079	212
3464.991	195
3467.902	194
3470.809	195
3473.715	172
3476.618	168
3479.519	165
3482.418	160
3485.315	147
3488.209	146
3491.101	134
3493.99	137
3496.878	125
3499.763	115
3502.646	108
3505.527	97
3508.405	104
3511.281	93
3514.155	90
3517.027	83
3519.897	70
3522.764	55
3525.629	49
3528.492	49
3531.352	53
3534.211	45
3537.067	31
3539.921	28
3542.773	23
3545.622	18
3548.469	10
3551.315	11
3554.157	8
3556.998	-5
3559.837	-1
3562.673	-6
3565.507	-12
3568.339	-17
3571.169	-19
3573.996	-21
3576.822	-19
3579.645	-23
3582.466	-33
3585.285	-42
3588.101	-33
3590.916	-44
3593.728	-48
3596.538	-42
3599.346	-48
3602.152	-46
3604.956	-47
3607.757	-49
3610.556	-56
3613.354	-58
3616.149	-68
3618.942	-66
3621.732	-63
3624.521	-65
3627.307	-68
3630.092	-70
3632.874	-74
3635.654	-73
3638.432	-75
3641.208	-78
3643.982	-79
3646.753	-81
3649.523	-87
3652.29	-81
3655.055	-83
3657.818	-82
3660.579	-83
3663.338	-85
3666.095	-92
3668.849	-98
3671.602	-94
3674.352	-94
3677.101	-100
3679.847	-99
3682.591	-98
3685.333	-97
3688.073	-97
3690.811	-101
3693.547	-113
3696.281	-100
3699.013	-104
3701.742	-107
3704.47	-103
3707.195	-106
3709.919	-106
3712.64	-110
3715.359	-115
3718.076	-112
3720.792	-110
3723.505	-112
3726.216	-108
3728.925	-112
3731.632	-110
3734.336	-122
3737.039	-110
3739.74	-116
3742.439	-124
3745.136	-109
3747.83	-119
3750.523	-119
3753.213	-131
3755.902	-114
3758.589	-124
3761.273	-115
3763.956	-114
3766.636	-118
3769.315	-112
3771.991	-111
3774.665	-120
3777.338	-113
3780.008	-120
3782.677	-118
3785.343	-119
3788.007	-117
3790.67	-118
3793.33	-120
3795.989	-115
3798.645	-112
3801.299	-122
3803.952	-120
3806.602	-117
3809.251	-117
3811.897	-123
3814.542	-121
3817.184	-121
3819.825	-125
3822.463	-116
3825.1	-121
3827.735	-120
3830.367	-122
3832.998	-124
3835.627	-118
3838.253	-122
3840.878	-119
3843.501	-119
3846.122	-125
3848.741	-125
3851.358	-116
3853.973	-123
3856.586	-117
3859.197	-124
3861.806	-120
3864.414	-128
3867.019	-120
3869.622	-122
3872.224	-110
3874.823	-108
3877.421	-102
3880.016	-81
3882.61	-72
3885.202	-71
3887.792	-85
3890.38	-102
3892.966	-115
3895.55	-117
3898.132	-120
3900.713	-118
3903.291	-121
3905.868	-124
3908.442	-119
3911.015	-125
3913.586	-124
3916.155	-125
3918.722	-125
3921.287	-123
3923.85	-126
3926.411	-124
3928.971	-124
3931.528	-131
3934.084	-123
3936.638	-123
3939.19	-125
3941.74	-125
3944.288	-120
3946.834	-121
3949.378	-123
3951.921	-127
3954.462	-133
3957	-126
3959.537	-118
3962.072	-126
3964.606	-118
3967.137	-122
3969.667	-127
3972.194	-130
3974.72	-129
3977.244	-127
3979.766	-127
3982.286	-116
3984.805	-125
3987.321	-119
3989.836	-116
3992.349	-127
3994.86	-123
3997.369	-131
3999.877	-122
4002.382	-118
4004.886	-126
4007.388	-124
4009.888	-120
4012.386	-122
4014.883	-125
4017.377	-124
4019.87	-118
4022.361	-125
4024.85	-122
4027.338	-118
4029.823	-120
4032.307	-123
4034.789	-125
4037.269	-118
4039.747	-117
4042.224	-118
4044.699	-124
4047.172	-117
4049.643	-116
4052.112	-126
4054.58	-123
4057.046	-124
4059.51	-126
4061.972	-116
4064.432	-119
4066.891	-127
4069.348	-115
4071.803	-126
4074.256	-127
4076.708	-122
4079.158	-120
4081.606	-120
4084.052	-121
4086.497	-121
4088.939	-112
4091.38	-118
4093.819	-121
4096.257	-126
4098.693	-122
4101.127	-126
4103.559	-125
4105.989	-18
4108.418	-19
4110.845	-15
4113.27	-15
4115.694	-24
4118.115	-14
4120.535	-126
4122.954	-125
4125.37	-121
4127.785	-117
4130.198	-119
4132.609	-116
4135.019	-128
4137.427	-132
4139.833	-128
4142.237	-129
