Data from 2018-2-8_conc=2_n=7_RamanShift_05.txt Node
Date: Mon Mar 12 14:17:58 IST 2018
User: aro
Spectrometer: QEPB0276
Trigger mode: 0
Integration Time (sec): 3.000000E1
Scans to average: 1
Electric dark correction enabled: true
Nonlinearity correction enabled: false
Boxcar width: 0
XAxis mode: Raman Shifts
Number of Pixels in Spectrum: 1044
>>>>>Begin Spectral Data<<<<<
160.701	10.1
166.742	37.1
172.777	126.1
178.805	449.1
184.826	1221.1
190.841	2641.1
196.849	4437.1
202.85	5839.1
208.845	6348.1
214.833	6358.1
220.815	6252.1
226.789	6251.1
232.758	6233.1
238.719	6204.1
244.674	6200.1
250.623	6135.1
256.565	5990.1
262.5	5920.1
268.429	5844.1
274.351	5770.1
280.267	5721.1
286.176	5705.1
292.079	5642.1
297.975	5647.1
303.865	5614.1
309.748	5614.1
315.625	5565.1
321.495	5551.1
327.359	5584.1
333.217	5579.1
339.068	5550.1
344.912	5562.1
350.751	5556.1
356.583	5582.1
362.408	5557.1
368.227	5599.1
374.04	5580.1
379.847	5589.1
385.647	5632.1
391.44	5668.1
397.228	5694.1
403.009	5678.1
408.784	5728.1
414.553	5738.1
420.315	5745.1
426.071	5746.1
431.821	5776.1
437.565	5756.1
443.302	5755.1
449.033	5721.1
454.758	5710.1
460.477	5672.1
466.189	5663.1
471.896	5647.1
477.596	5611.1
483.29	5598.1
488.978	5560.1
494.66	5545.1
500.335	5457.1
506.005	5354.1
511.668	5221.1
517.325	5085.1
522.977	4993.1
528.622	4890.1
534.261	4864.1
539.894	4799.1
545.521	4770.1
551.141	4735.1
556.756	4739.1
562.365	4658.1
567.968	4693.1
573.565	4637.1
579.155	4619.1
584.74	4602.1
590.319	4590.1
595.892	4574.1
601.459	4548.1
607.02	4530.1
612.575	4492.1
618.124	4459.1
623.667	4391.1
629.204	4408.1
634.735	4367.1
640.261	4354.1
645.781	4319.1
651.294	4316.1
656.802	4301.1
662.304	4286.1
667.8	4281.1
673.29	4251.1
678.775	4253.1
684.254	4240.1
689.726	4218.1
695.193	4211.1
700.655	4182.1
706.11	4148.1
711.56	4145.1
717.004	4114.1
722.442	4085.1
727.874	4059.1
733.301	4054.1
738.722	4048.1
744.137	4039.1
749.547	4017.1
754.951	4015.1
760.349	4016.1
765.741	4029.1
771.128	4037.1
776.509	4072.1
781.885	4096.1
787.254	4053.1
792.618	4078.1
797.977	4053.1
803.33	4021.1
808.677	3990.1
814.019	3959.1
819.355	3924.1
824.686	3917.1
830.011	3888.1
835.33	3918.1
840.644	3860.1
845.952	3856.1
851.255	3884.1
856.552	3872.1
861.844	3856.1
867.13	3838.1
872.41	3821.1
877.686	3778.1
882.955	3768.1
888.219	3733.1
893.478	3705.1
898.731	3665.1
903.979	3599.1
909.221	3571.1
914.458	3554.1
919.69	3523.1
924.916	3561.1
930.136	3543.1
935.351	3549.1
940.561	3567.1
945.766	3567.1
950.965	3535.1
956.158	3515.1
961.347	3472.1
966.529	3441.1
971.707	3373.1
976.879	3348.1
982.046	3304.1
987.208	3292.1
992.364	3319.1
997.515	3309.1
1002.66	3319.1
1007.801	3351.1
1012.936	3383.1
1018.066	3406.1
1023.19	3400.1
1028.309	3408.1
1033.423	3390.1
1038.532	3350.1
1043.636	3366.1
1048.734	3317.1
1053.827	3289.1
1058.915	3234.1
1063.998	3199.1
1069.075	3229.1
1074.147	3190.1
1079.214	3214.1
1084.276	3201.1
1089.333	3260.1
1094.385	3277.1
1099.431	3260.1
1104.472	3228.1
1109.509	3223.1
1114.54	3206.1
1119.565	3157.1
1124.586	3101.1
1129.602	3081.1
1134.613	3043.1
1139.618	3017.1
1144.619	3022.1
1149.614	3001.1
1154.604	3034.1
1159.589	3044.1
1164.57	3043.1
1169.545	3048.1
1174.515	3054.1
1179.48	3017.1
1184.44	2990.1
1189.395	2981.1
1194.345	2960.1
1199.29	2935.1
1204.23	2926.1
1209.165	2927.1
1214.095	2946.1
1219.021	2981.1
1223.941	2989.1
1228.856	3008.1
1233.766	3017.1
1238.672	3020.1
1243.572	3001.1
1248.467	2997.1
1253.358	2966.1
1258.244	2904.1
1263.124	2890.1
1268	2848.1
1272.871	2795.1
1277.737	2775.1
1282.599	2726.1
1287.455	2753.1
1292.306	2753.1
1297.153	2767.1
1301.995	2786.1
1306.832	2779.1
1311.664	2817.1
1316.491	2824.1
1321.314	2810.1
1326.132	2793.1
1330.945	2772.1
1335.753	2715.1
1340.556	2679.1
1345.354	2642.1
1350.148	2588.1
1354.937	2547.1
1359.722	2508.1
1364.501	2450.1
1369.276	2418.1
1374.046	2392.1
1378.811	2332.1
1383.572	2334.1
1388.327	2342.1
1393.079	2347.1
1397.825	2353.1
1402.567	2360.1
1407.304	2347.1
1412.036	2383.1
1416.764	2340.1
1421.487	2363.1
1426.205	2345.1
1430.919	2364.1
1435.628	2387.1
1440.333	2396.1
1445.032	2423.1
1449.727	2443.1
1454.418	2424.1
1459.104	2430.1
1463.785	2384.1
1468.462	2361.1
1473.134	2328.1
1477.802	2255.1
1482.465	2233.1
1487.123	2186.1
1491.777	2155.1
1496.426	2121.1
1501.071	2105.1
1505.711	2097.1
1510.347	2095.1
1514.978	2082.1
1519.604	2092.1
1524.226	2076.1
1528.844	2042.1
1533.457	2050.1
1538.065	2028.1
1542.669	2026.1
1547.269	2027.1
1551.864	2042.1
1556.454	2071.1
1561.041	2089.1
1565.622	2097.1
1570.199	2088.1
1574.772	2125.1
1579.34	2145.1
1583.904	2188.1
1588.464	2206.1
1593.019	2196.1
1597.569	2189.1
1602.115	2195.1
1606.657	2190.1
1611.195	2172.1
1615.728	2197.1
1620.256	2151.1
1624.78	2182.1
1629.3	2168.1
1633.816	2166.1
1638.327	2202.1
1642.834	2197.1
1647.336	2218.1
1651.834	2213.1
1656.328	2200.1
1660.817	2218.1
1665.302	2190.1
1669.783	2134.1
1674.259	2098.1
1678.732	2040.1
1683.199	1991.1
1687.663	1919.1
1692.122	1867.1
1696.577	1770.1
1701.028	1710.1
1705.474	1630.1
1709.917	1566.1
1714.355	1555.1
1718.788	1546.1
1723.218	1529.1
1727.643	1540.1
1732.064	1525.1
1736.481	1541.1
1740.893	1482.1
1745.301	1469.1
1749.705	1430.1
1754.105	1392.1
1758.501	1395.1
1762.893	1376.1
1767.28	1351.1
1771.663	1350.1
1776.042	1323.1
1780.417	1309.1
1784.787	1299.1
1789.154	1287.1
1793.516	1276.1
1797.874	1261.1
1802.228	1216.1
1806.578	1221.1
1810.924	1196.1
1815.266	1178.1
1819.603	1199.1
1823.937	1192.1
1828.266	1194.1
1832.591	1201.1
1836.913	1180.1
1841.23	1185.1
1845.543	1189.1
1849.852	1195.1
1854.156	1198.1
1858.457	1189.1
1862.754	1201.1
1867.047	1190.1
1871.335	1194.1
1875.62	1183.1
1879.9	1187.1
1884.177	1176.1
1888.449	1170.1
1892.718	1165.1
1896.982	1137.1
1901.243	1115.1
1905.499	1109.1
1909.752	1091.1
1914	1078.1
1918.245	1066.1
1922.485	1052.1
1926.722	1035.1
1930.954	1032.1
1935.183	1022.1
1939.408	1038.1
1943.628	1026.1
1947.845	1016.1
1952.058	998.1
1956.267	1005.1
1960.472	992.1
1964.673	967.1
1968.87	967.1
1973.063	947.1
1977.252	950.1
1981.438	955.1
1985.619	964.1
1989.797	950.1
1993.971	972.1
1998.14	968.1
2002.306	950.1
2006.469	974.1
2010.627	974.1
2014.781	968.1
2018.932	971.1
2023.078	977.1
2027.221	953.1
2031.36	954.1
2035.495	940.1
2039.627	930.1
2043.754	897.1
2047.878	908.1
2051.998	901.1
2056.114	897.1
2060.226	898.1
2064.334	893.1
2068.439	892.1
2072.54	875.1
2076.637	882.1
2080.73	882.1
2084.82	868.1
2088.906	867.1
2092.988	855.1
2097.066	851.1
2101.14	838.1
2105.211	816.1
2109.278	821.1
2113.342	804.1
2117.401	793.1
2121.457	807.1
2125.509	792.1
2129.558	784.1
2133.602	798.1
2137.643	783.1
2141.681	785.1
2145.714	774.1
2149.744	778.1
2153.77	786.1
2157.793	780.1
2161.812	769.1
2165.827	753.1
2169.838	762.1
2173.846	741.1
2177.851	732.1
2181.851	727.1
2185.848	715.1
2189.841	709.1
2193.831	714.1
2197.817	706.1
2201.799	695.1
2205.778	699.1
2209.753	688.1
2213.725	686.1
2217.693	705.1
2221.657	686.1
2225.618	701.1
2229.575	690.1
2233.529	676.1
2237.479	681.1
2241.425	647.1
2245.368	653.1
2249.307	653.1
2253.243	639.1
2257.175	619.1
2261.104	628.1
2265.029	595.1
2268.95	611.1
2272.868	590.1
2276.783	591.1
2280.694	586.1
2284.601	580.1
2288.505	576.1
2292.405	555.1
2296.302	562.1
2300.195	569.1
2304.085	538.1
2307.971	530.1
2311.854	526.1
2315.734	528.1
2319.609	517.1
2323.482	529.1
2327.351	506.1
2331.216	525.1
2335.078	539.1
2338.937	539.1
2342.792	509.1
2346.643	500.1
2350.492	502.1
2354.336	490.1
2358.178	484.1
2362.015	499.1
2365.85	496.1
2369.681	501.1
2373.508	501.1
2377.333	485.1
2381.153	488.1
2384.971	513.1
2388.785	493.1
2392.595	486.1
2396.402	489.1
2400.206	483.1
2404.007	477.1
2407.804	475.1
2411.597	467.1
2415.388	463.1
2419.174	479.1
2422.958	462.1
2426.738	469.1
2430.515	467.1
2434.289	459.1
2438.059	454.1
2441.825	449.1
2445.589	450.1
2449.349	436.1
2453.106	428.1
2456.859	427.1
2460.61	428.1
2464.356	413.1
2468.1	412.1
2471.84	395.1
2475.577	405.1
2479.311	398.1
2483.041	407.1
2486.768	398.1
2490.492	394.1
2494.213	408.1
2497.93	391.1
2501.644	381.1
2505.355	379.1
2509.062	373.1
2512.766	377.1
2516.467	369.1
2520.165	364.1
2523.859	369.1
2527.551	352.1
2531.239	350.1
2534.923	346.1
2538.605	346.1
2542.283	337.1
2545.958	339.1
2549.63	336.1
2553.299	334.1
2556.964	329.1
2560.626	316.1
2564.285	321.1
2567.941	310.1
2571.594	324.1
2575.243	300.1
2578.89	307.1
2582.533	299.1
2586.173	296.1
2589.809	285.1
2593.443	280.1
2597.073	283.1
2600.701	280.1
2604.325	280.1
2607.946	283.1
2611.564	283.1
2615.178	282.1
2618.79	278.1
2622.398	274.1
2626.004	277.1
2629.606	271.1
2633.205	262.1
2636.801	261.1
2640.394	255.1
2643.983	256.1
2647.57	256.1
2651.153	255.1
2654.734	253.1
2658.311	245.1
2661.885	244.1
2665.456	250.1
2669.025	243.1
2672.589	242.1
2676.151	240.1
2679.71	234.1
2683.266	232.1
2686.819	224.1
2690.368	228.1
2693.915	214.1
2697.458	213.1
2700.999	219.1
2704.536	210.1
2708.071	200.1
2711.602	204.1
2715.13	210.1
2718.656	201.1
2722.178	192.1
2725.697	184.1
2729.214	186.1
2732.727	191.1
2736.237	190.1
2739.744	181.1
2743.249	183.1
2746.75	180.1
2750.248	170.1
2753.743	158.1
2757.236	163.1
2760.725	162.1
2764.211	161.1
2767.695	152.1
2771.175	152.1
2774.652	151.1
2778.127	150.1
2781.598	150.1
2785.067	150.1
2788.532	149.1
2791.995	157.1
2795.455	154.1
2798.911	160.1
2802.365	158.1
2805.816	157.1
2809.264	156.1
2812.709	155.1
2816.151	164.1
2819.59	162.1
2823.026	162.1
2826.46	147.1
2829.89	158.1
2833.318	150.1
2836.742	166.1
2840.164	154.1
2843.583	153.1
2846.999	165.1
2850.412	167.1
2853.822	170.1
2857.229	165.1
2860.634	165.1
2864.035	171.1
2867.434	179.1
2870.83	178.1
2874.223	197.1
2877.613	192.1
2881	205.1
2884.385	203.1
2887.766	193.1
2891.145	197.1
2894.521	212.1
2897.894	207.1
2901.264	208.1
2904.631	210.1
2907.996	209.1
2911.358	211.1
2914.717	214.1
2918.073	219.1
2921.426	226.1
2924.777	243.1
2928.124	246.1
2931.469	242.1
2934.811	245.1
2938.15	260.1
2941.487	260.1
2944.821	252.1
2948.152	265.1
2951.48	265.1
2954.805	270.1
2958.128	267.1
2961.447	256.1
2964.765	266.1
2968.079	252.1
2971.39	254.1
2974.699	255.1
2978.005	263.1
2981.308	277.1
2984.609	264.1
2987.907	257.1
2991.202	271.1
2994.494	269.1
2997.784	261.1
3001.07	276.1
3004.355	289.1
3007.636	284.1
3010.915	277.1
3014.191	283.1
3017.464	298.1
3020.734	291.1
3024.002	295.1
3027.267	293.1
3030.53	305.1
3033.789	322.1
3037.046	324.1
3040.301	332.1
3043.552	341.1
3046.801	349.1
3050.048	360.1
3053.291	362.1
3056.532	388.1
3059.771	402.1
3063.006	411.1
3066.239	417.1
3069.469	441.1
3072.697	447.1
3075.922	460.1
3079.144	471.1
3082.364	490.1
3085.581	507.1
3088.795	506.1
3092.007	508.1
3095.216	521.1
3098.423	537.1
3101.627	536.1
3104.828	559.1
3108.026	556.1
3111.222	588.1
3114.416	586.1
3117.607	603.1
3120.795	613.1
3123.98	607.1
3127.163	634.1
3130.344	659.1
3133.521	682.1
3136.696	706.1
3139.869	696.1
3143.039	705.1
3146.206	725.1
3149.371	734.1
3152.533	748.1
3155.693	745.1
3158.85	758.1
3162.005	774.1
3165.157	756.1
3168.306	760.1
3171.453	755.1
3174.597	772.1
3177.739	776.1
3180.878	778.1
3184.014	789.1
3187.149	795.1
3190.28	794.1
3193.409	783.1
3196.536	789.1
3199.659	801.1
3202.781	807.1
3205.9	803.1
3209.016	807.1
3212.13	814.1
3215.241	794.1
3218.35	782.1
3221.456	772.1
3224.56	765.1
3227.661	768.1
3230.76	760.1
3233.856	759.1
3236.95	728.1
3240.041	720.1
3243.13	712.1
3246.216	701.1
3249.3	691.1
3252.382	681.1
3255.46	690.1
3258.537	681.1
3261.611	670.1
3264.682	652.1
3267.751	656.1
3270.818	648.1
3273.882	647.1
3276.943	643.1
3280.002	638.1
3283.059	639.1
3286.113	638.1
3289.165	635.1
3292.214	624.1
3295.261	607.1
3298.306	606.1
3301.348	597.1
3304.387	596.1
3307.425	590.1
3310.459	587.1
3313.492	574.1
3316.521	561.1
3319.549	567.1
3322.574	554.1
3325.597	557.1
3328.617	559.1
3331.635	567.1
3334.65	550.1
3337.663	556.1
3340.674	549.1
3343.682	542.1
3346.688	543.1
3349.691	538.1
3352.692	540.1
3355.691	538.1
3358.687	545.1
3361.681	537.1
3364.673	517.1
3367.662	517.1
3370.649	505.1
3373.633	498.1
3376.615	480.1
3379.595	487.1
3382.572	479.1
3385.547	471.1
3388.52	463.1
3391.49	462.1
3394.458	451.1
3397.424	439.1
3400.387	435.1
3403.348	429.1
3406.307	416.1
3409.263	425.1
3412.217	414.1
3415.168	417.1
3418.118	417.1
3421.065	390.1
3424.009	392.1
3426.951	378.1
3429.891	370.1
3432.829	357.1
3435.764	349.1
3438.697	345.1
3441.628	344.1
3444.557	326.1
3447.483	316.1
3450.407	301.1
3453.328	290.1
3456.247	288.1
3459.164	266.1
3462.079	263.1
3464.991	242.1
3467.902	234.1
3470.809	234.1
3473.715	213.1
3476.618	209.1
3479.519	211.1
3482.418	194.1
3485.315	190.1
3488.209	167.1
3491.101	177.1
3493.99	165.1
3496.878	156.1
3499.763	144.1
3502.646	140.1
3505.527	128.1
3508.405	129.1
3511.281	116.1
3514.155	107.1
3517.027	96.1
3519.897	83.1
3522.764	75.1
3525.629	71.1
3528.492	68.1
3531.352	60.1
3534.211	49.1
3537.067	37.1
3539.921	37.1
3542.773	28.1
3545.622	19.1
3548.469	18.1
3551.315	13.1
3554.157	11.1
3556.998	0.1
3559.837	-4.9
3562.673	-5.9
3565.507	-5.9
3568.339	-15.9
3571.169	-27.9
3573.996	-31.9
3576.822	-26.9
3579.645	-26.9
3582.466	-28.9
3585.285	-39.9
3588.101	-34.9
3590.916	-46.9
3593.728	-54.9
3596.538	-58.9
3599.346	-58.9
3602.152	-58.9
3604.956	-59.9
3607.757	-58.9
3610.556	-70.9
3613.354	-64.9
3616.149	-78.9
3618.942	-81.9
3621.732	-83.9
3624.521	-84.9
3627.307	-78.9
3630.092	-84.9
3632.874	-78.9
3635.654	-91.9
3638.432	-87.9
3641.208	-90.9
3643.982	-98.9
3646.753	-97.9
3649.523	-95.9
3652.29	-94.9
3655.055	-95.9
3657.818	-98.9
3660.579	-107.9
3663.338	-104.9
3666.095	-104.9
3668.849	-105.9
3671.602	-111.9
3674.352	-110.9
3677.101	-112.9
3679.847	-115.9
3682.591	-118.9
3685.333	-120.9
3688.073	-118.9
3690.811	-122.9
3693.547	-128.9
3696.281	-116.9
3699.013	-124.9
3701.742	-130.9
3704.47	-126.9
3707.195	-122.9
3709.919	-130.9
3712.64	-124.9
3715.359	-134.9
3718.076	-128.9
3720.792	-130.9
3723.505	-139.9
3726.216	-133.9
3728.925	-139.9
3731.632	-133.9
3734.336	-141.9
3737.039	-134.9
3739.74	-139.9
3742.439	-140.9
3745.136	-132.9
3747.83	-140.9
3750.523	-137.9
3753.213	-137.9
3755.902	-136.9
3758.589	-141.9
3761.273	-129.9
3763.956	-134.9
3766.636	-138.9
3769.315	-133.9
3771.991	-135.9
3774.665	-143.9
3777.338	-136.9
3780.008	-143.9
3782.677	-138.9
3785.343	-138.9
3788.007	-143.9
3790.67	-138.9
3793.33	-140.9
3795.989	-139.9
3798.645	-142.9
3801.299	-139.9
3803.952	-143.9
3806.602	-136.9
3809.251	-145.9
3811.897	-148.9
3814.542	-145.9
3817.184	-142.9
3819.825	-142.9
3822.463	-141.9
3825.1	-141.9
3827.735	-142.9
3830.367	-147.9
3832.998	-146.9
3835.627	-149.9
3838.253	-144.9
3840.878	-144.9
3843.501	-139.9
3846.122	-141.9
3848.741	-144.9
3851.358	-141.9
3853.973	-153.9
3856.586	-145.9
3859.197	-153.9
3861.806	-144.9
3864.414	-146.9
3867.019	-136.9
3869.622	-144.9
3872.224	-134.9
3874.823	-133.9
3877.421	-117.9
3880.016	-98.9
3882.61	-78.9
3885.202	-73.9
3887.792	-87.9
3890.38	-111.9
3892.966	-134.9
3895.55	-138.9
3898.132	-145.9
3900.713	-150.9
3903.291	-144.9
3905.868	-150.9
3908.442	-142.9
3911.015	-144.9
3913.586	-147.9
3916.155	-148.9
3918.722	-152.9
3921.287	-150.9
3923.85	-145.9
3926.411	-144.9
3928.971	-143.9
3931.528	-147.9
3934.084	-145.9
3936.638	-144.9
3939.19	-153.9
3941.74	-152.9
3944.288	-149.9
3946.834	-146.9
3949.378	-144.9
3951.921	-150.9
3954.462	-159.9
3957	-150.9
3959.537	-141.9
3962.072	-148.9
3964.606	-142.9
3967.137	-146.9
3969.667	-147.9
3972.194	-150.9
3974.72	-147.9
3977.244	-148.9
3979.766	-152.9
3982.286	-145.9
3984.805	-143.9
3987.321	-145.9
3989.836	-139.9
3992.349	-144.9
3994.86	-150.9
3997.369	-148.9
3999.877	-141.9
4002.382	-144.9
4004.886	-149.9
4007.388	-143.9
4009.888	-141.9
4012.386	-148.9
4014.883	-149.9
4017.377	-149.9
4019.87	-146.9
4022.361	-150.9
4024.85	-146.9
4027.338	-146.9
4029.823	-139.9
4032.307	-145.9
4034.789	-144.9
4037.269	-150.9
4039.747	-142.9
4042.224	-143.9
4044.699	-145.9
4047.172	-143.9
4049.643	-145.9
4052.112	-146.9
4054.58	-147.9
4057.046	-148.9
4059.51	-147.9
4061.972	-148.9
4064.432	-148.9
4066.891	-144.9
4069.348	-143.9
4071.803	-147.9
4074.256	-147.9
4076.708	-142.9
4079.158	-145.9
4081.606	-142.9
4084.052	-149.9
4086.497	-144.9
4088.939	-138.9
4091.38	-143.9
4093.819	-144.9
4096.257	-153.9
4098.693	-149.9
4101.127	-151.9
4103.559	-150.9
4105.989	-23.9
4108.418	-23.9
4110.845	-17.9
4113.27	-14.9
4115.694	-21.9
4118.115	-16.9
4120.535	-148.9
4122.954	-146.9
4125.37	-140.9
4127.785	-142.9
4130.198	-143.9
4132.609	-143.9
4135.019	-153.9
4137.427	-156.9
4139.833	-155.9
4142.237	-155.9
