Data from 2018-2-8_conc=0_n=1_RamanShift_06.txt Node
Date: Mon Mar 12 13:18:59 IST 2018
User: aro
Spectrometer: QEPB0276
Trigger mode: 0
Integration Time (sec): 3.000000E1
Scans to average: 1
Electric dark correction enabled: true
Nonlinearity correction enabled: false
Boxcar width: 0
XAxis mode: Raman Shifts
Number of Pixels in Spectrum: 1044
>>>>>Begin Spectral Data<<<<<
160.701	10.6
166.742	49.6
172.777	144.6
178.805	465.6
184.826	1299.6
190.841	2770.6
196.849	4618.6
202.85	6069.6
208.845	6608.6
214.833	6607.6
220.815	6540.6
226.789	6509.6
232.758	6497.6
238.719	6506.6
244.674	6451.6
250.623	6365.6
256.565	6254.6
262.5	6171.6
268.429	6104.6
274.351	6031.6
280.267	6003.6
286.176	5923.6
292.079	5899.6
297.975	5865.6
303.865	5880.6
309.748	5856.6
315.625	5785.6
321.495	5785.6
327.359	5766.6
333.217	5775.6
339.068	5795.6
344.912	5745.6
350.751	5768.6
356.583	5823.6
362.408	5779.6
368.227	5794.6
374.04	5793.6
379.847	5833.6
385.647	5855.6
391.44	5915.6
397.228	5926.6
403.009	5967.6
408.784	5938.6
414.553	6014.6
420.315	5975.6
426.071	6015.6
431.821	6014.6
437.565	6026.6
443.302	5968.6
449.033	5990.6
454.758	5932.6
460.477	5949.6
466.189	5909.6
471.896	5860.6
477.596	5843.6
483.29	5812.6
488.978	5822.6
494.66	5813.6
500.335	5737.6
506.005	5625.6
511.668	5467.6
517.325	5353.6
522.977	5225.6
528.622	5170.6
534.261	5085.6
539.894	5062.6
545.521	5014.6
551.141	5015.6
556.756	4983.6
562.365	4939.6
567.968	4914.6
573.565	4879.6
579.155	4873.6
584.74	4859.6
590.319	4833.6
595.892	4801.6
601.459	4804.6
607.02	4766.6
612.575	4726.6
618.124	4706.6
623.667	4641.6
629.204	4631.6
634.735	4590.6
640.261	4576.6
645.781	4566.6
651.294	4546.6
656.802	4537.6
662.304	4512.6
667.8	4490.6
673.29	4505.6
678.775	4509.6
684.254	4428.6
689.726	4455.6
695.193	4419.6
700.655	4409.6
706.11	4372.6
711.56	4356.6
717.004	4341.6
722.442	4329.6
727.874	4308.6
733.301	4293.6
738.722	4246.6
744.137	4257.6
749.547	4224.6
754.951	4240.6
760.349	4236.6
765.741	4252.6
771.128	4268.6
776.509	4256.6
781.885	4312.6
787.254	4296.6
792.618	4282.6
797.977	4270.6
803.33	4245.6
808.677	4208.6
814.019	4198.6
819.355	4147.6
824.686	4136.6
830.011	4096.6
835.33	4114.6
840.644	4098.6
845.952	4066.6
851.255	4078.6
856.552	4091.6
861.844	4060.6
867.13	4042.6
872.41	4027.6
877.686	4011.6
882.955	3991.6
888.219	3970.6
893.478	3909.6
898.731	3864.6
903.979	3785.6
909.221	3746.6
914.458	3751.6
919.69	3741.6
924.916	3729.6
930.136	3750.6
935.351	3752.6
940.561	3740.6
945.766	3781.6
950.965	3726.6
956.158	3686.6
961.347	3636.6
966.529	3605.6
971.707	3573.6
976.879	3506.6
982.046	3465.6
987.208	3470.6
992.364	3482.6
997.515	3482.6
1002.66	3536.6
1007.801	3565.6
1012.936	3549.6
1018.066	3560.6
1023.19	3585.6
1028.309	3584.6
1033.423	3600.6
1038.532	3575.6
1043.636	3527.6
1048.734	3498.6
1053.827	3436.6
1058.915	3406.6
1063.998	3390.6
1069.075	3348.6
1074.147	3374.6
1079.214	3364.6
1084.276	3395.6
1089.333	3439.6
1094.385	3410.6
1099.431	3433.6
1104.472	3425.6
1109.509	3387.6
1114.54	3363.6
1119.565	3297.6
1124.586	3281.6
1129.602	3212.6
1134.613	3225.6
1139.618	3187.6
1144.619	3183.6
1149.614	3154.6
1154.604	3185.6
1159.589	3196.6
1164.57	3175.6
1169.545	3212.6
1174.515	3215.6
1179.48	3187.6
1184.44	3172.6
1189.395	3149.6
1194.345	3113.6
1199.29	3103.6
1204.23	3084.6
1209.165	3117.6
1214.095	3121.6
1219.021	3126.6
1223.941	3155.6
1228.856	3148.6
1233.766	3148.6
1238.672	3157.6
1243.572	3172.6
1248.467	3143.6
1253.358	3131.6
1258.244	3055.6
1263.124	2998.6
1268	2951.6
1272.871	2931.6
1277.737	2905.6
1282.599	2885.6
1287.455	2898.6
1292.306	2889.6
1297.153	2904.6
1301.995	2923.6
1306.832	2915.6
1311.664	2947.6
1316.491	2937.6
1321.314	2941.6
1326.132	2933.6
1330.945	2894.6
1335.753	2831.6
1340.556	2791.6
1345.354	2768.6
1350.148	2726.6
1354.937	2650.6
1359.722	2607.6
1364.501	2585.6
1369.276	2543.6
1374.046	2505.6
1378.811	2464.6
1383.572	2459.6
1388.327	2454.6
1393.079	2469.6
1397.825	2456.6
1402.567	2456.6
1407.304	2460.6
1412.036	2460.6
1416.764	2490.6
1421.487	2488.6
1426.205	2500.6
1430.919	2479.6
1435.628	2514.6
1440.333	2536.6
1445.032	2532.6
1449.727	2551.6
1454.418	2574.6
1459.104	2556.6
1463.785	2532.6
1468.462	2490.6
1473.134	2434.6
1477.802	2387.6
1482.465	2310.6
1487.123	2276.6
1491.777	2223.6
1496.426	2221.6
1501.071	2178.6
1505.711	2184.6
1510.347	2182.6
1514.978	2162.6
1519.604	2149.6
1524.226	2168.6
1528.844	2144.6
1533.457	2128.6
1538.065	2131.6
1542.669	2131.6
1547.269	2123.6
1551.864	2125.6
1556.454	2145.6
1561.041	2175.6
1565.622	2184.6
1570.199	2187.6
1574.772	2214.6
1579.34	2258.6
1583.904	2282.6
1588.464	2295.6
1593.019	2296.6
1597.569	2281.6
1602.115	2306.6
1606.657	2278.6
1611.195	2275.6
1615.728	2271.6
1620.256	2270.6
1624.78	2280.6
1629.3	2265.6
1633.816	2277.6
1638.327	2284.6
1642.834	2302.6
1647.336	2291.6
1651.834	2312.6
1656.328	2289.6
1660.817	2275.6
1665.302	2256.6
1669.783	2224.6
1674.259	2174.6
1678.732	2096.6
1683.199	2030.6
1687.663	1978.6
1692.122	1881.6
1696.577	1823.6
1701.028	1764.6
1705.474	1668.6
1709.917	1636.6
1714.355	1601.6
1718.788	1597.6
1723.218	1601.6
1727.643	1590.6
1732.064	1570.6
1736.481	1589.6
1740.893	1541.6
1745.301	1494.6
1749.705	1479.6
1754.105	1444.6
1758.501	1419.6
1762.893	1403.6
1767.28	1393.6
1771.663	1376.6
1776.042	1339.6
1780.417	1363.6
1784.787	1332.6
1789.154	1302.6
1793.516	1287.6
1797.874	1269.6
1802.228	1248.6
1806.578	1244.6
1810.924	1230.6
1815.266	1239.6
1819.603	1235.6
1823.937	1232.6
1828.266	1225.6
1832.591	1222.6
1836.913	1228.6
1841.23	1240.6
1845.543	1236.6
1849.852	1232.6
1854.156	1237.6
1858.457	1231.6
1862.754	1240.6
1867.047	1216.6
1871.335	1225.6
1875.62	1220.6
1879.9	1225.6
1884.177	1215.6
1888.449	1192.6
1892.718	1186.6
1896.982	1154.6
1901.243	1132.6
1905.499	1125.6
1909.752	1088.6
1914	1098.6
1918.245	1088.6
1922.485	1062.6
1926.722	1049.6
1930.954	1033.6
1935.183	1046.6
1939.408	1017.6
1943.628	1013.6
1947.845	1023.6
1952.058	1006.6
1956.267	1006.6
1960.472	1003.6
1964.673	990.6
1968.87	971.6
1973.063	986.6
1977.252	974.6
1981.438	978.6
1985.619	975.6
1989.797	973.6
1993.971	982.6
1998.14	986.6
2002.306	977.6
2006.469	996.6
2010.627	982.6
2014.781	991.6
2018.932	981.6
2023.078	997.6
2027.221	982.6
2031.36	974.6
2035.495	960.6
2039.627	939.6
2043.754	927.6
2047.878	918.6
2051.998	917.6
2056.114	914.6
2060.226	918.6
2064.334	907.6
2068.439	900.6
2072.54	884.6
2076.637	898.6
2080.73	881.6
2084.82	886.6
2088.906	853.6
2092.988	867.6
2097.066	861.6
2101.14	846.6
2105.211	837.6
2109.278	812.6
2113.342	810.6
2117.401	811.6
2121.457	803.6
2125.509	802.6
2129.558	801.6
2133.602	799.6
2137.643	793.6
2141.681	799.6
2145.714	784.6
2149.744	790.6
2153.77	793.6
2157.793	791.6
2161.812	788.6
2165.827	759.6
2169.838	752.6
2173.846	763.6
2177.851	738.6
2181.851	722.6
2185.848	723.6
2189.841	712.6
2193.831	719.6
2197.817	721.6
2201.799	704.6
2205.778	722.6
2209.753	709.6
2213.725	702.6
2217.693	711.6
2221.657	692.6
2225.618	699.6
2229.575	694.6
2233.529	683.6
2237.479	693.6
2241.425	674.6
2245.368	670.6
2249.307	655.6
2253.243	640.6
2257.175	652.6
2261.104	635.6
2265.029	631.6
2268.95	614.6
2272.868	610.6
2276.783	605.6
2280.694	593.6
2284.601	595.6
2288.505	597.6
2292.405	580.6
2296.302	574.6
2300.195	572.6
2304.085	551.6
2307.971	535.6
2311.854	543.6
2315.734	523.6
2319.609	504.6
2323.482	523.6
2327.351	529.6
2331.216	524.6
2335.078	532.6
2338.937	519.6
2342.792	509.6
2346.643	505.6
2350.492	503.6
2354.336	497.6
2358.178	507.6
2362.015	508.6
2365.85	512.6
2369.681	500.6
2373.508	511.6
2377.333	514.6
2381.153	494.6
2384.971	516.6
2388.785	506.6
2392.595	497.6
2396.402	490.6
2400.206	497.6
2404.007	485.6
2407.804	484.6
2411.597	473.6
2415.388	466.6
2419.174	473.6
2422.958	469.6
2426.738	464.6
2430.515	465.6
2434.289	470.6
2438.059	455.6
2441.825	456.6
2445.589	454.6
2449.349	436.6
2453.106	421.6
2456.859	423.6
2460.61	436.6
2464.356	419.6
2468.1	413.6
2471.84	411.6
2475.577	416.6
2479.311	394.6
2483.041	390.6
2486.768	406.6
2490.492	393.6
2494.213	390.6
2497.93	391.6
2501.644	379.6
2505.355	390.6
2509.062	383.6
2512.766	372.6
2516.467	364.6
2520.165	364.6
2523.859	354.6
2527.551	348.6
2531.239	346.6
2534.923	338.6
2538.605	340.6
2542.283	329.6
2545.958	334.6
2549.63	331.6
2553.299	317.6
2556.964	321.6
2560.626	317.6
2564.285	307.6
2567.941	312.6
2571.594	295.6
2575.243	311.6
2578.89	291.6
2582.533	287.6
2586.173	292.6
2589.809	288.6
2593.443	285.6
2597.073	275.6
2600.701	277.6
2604.325	272.6
2607.946	265.6
2611.564	268.6
2615.178	273.6
2618.79	263.6
2622.398	264.6
2626.004	272.6
2629.606	260.6
2633.205	258.6
2636.801	261.6
2640.394	262.6
2643.983	246.6
2647.57	248.6
2651.153	247.6
2654.734	245.6
2658.311	234.6
2661.885	241.6
2665.456	236.6
2669.025	241.6
2672.589	233.6
2676.151	234.6
2679.71	229.6
2683.266	231.6
2686.819	218.6
2690.368	214.6
2693.915	200.6
2697.458	201.6
2700.999	204.6
2704.536	205.6
2708.071	192.6
2711.602	183.6
2715.13	205.6
2718.656	191.6
2722.178	191.6
2725.697	183.6
2729.214	175.6
2732.727	181.6
2736.237	172.6
2739.744	174.6
2743.249	170.6
2746.75	167.6
2750.248	157.6
2753.743	157.6
2757.236	151.6
2760.725	149.6
2764.211	135.6
2767.695	141.6
2771.175	139.6
2774.652	141.6
2778.127	140.6
2781.598	139.6
2785.067	142.6
2788.532	141.6
2791.995	137.6
2795.455	146.6
2798.911	146.6
2802.365	147.6
2805.816	153.6
2809.264	140.6
2812.709	151.6
2816.151	148.6
2819.59	150.6
2823.026	149.6
2826.46	137.6
2829.89	144.6
2833.318	152.6
2836.742	151.6
2840.164	144.6
2843.583	150.6
2846.999	155.6
2850.412	154.6
2853.822	152.6
2857.229	155.6
2860.634	161.6
2864.035	170.6
2867.434	174.6
2870.83	168.6
2874.223	193.6
2877.613	197.6
2881	200.6
2884.385	206.6
2887.766	212.6
2891.145	191.6
2894.521	199.6
2897.894	212.6
2901.264	202.6
2904.631	214.6
2907.996	216.6
2911.358	221.6
2914.717	213.6
2918.073	225.6
2921.426	230.6
2924.777	242.6
2928.124	240.6
2931.469	251.6
2934.811	263.6
2938.15	272.6
2941.487	268.6
2944.821	276.6
2948.152	280.6
2951.48	272.6
2954.805	270.6
2958.128	260.6
2961.447	255.6
2964.765	256.6
2968.079	268.6
2971.39	249.6
2974.699	266.6
2978.005	248.6
2981.308	269.6
2984.609	266.6
2987.907	256.6
2991.202	271.6
2994.494	266.6
2997.784	269.6
3001.07	269.6
3004.355	278.6
3007.636	279.6
3010.915	275.6
3014.191	286.6
3017.464	306.6
3020.734	303.6
3024.002	299.6
3027.267	306.6
3030.53	319.6
3033.789	319.6
3037.046	338.6
3040.301	336.6
3043.552	347.6
3046.801	364.6
3050.048	372.6
3053.291	380.6
3056.532	395.6
3059.771	403.6
3063.006	414.6
3066.239	428.6
3069.469	455.6
3072.697	459.6
3075.922	476.6
3079.144	484.6
3082.364	499.6
3085.581	502.6
3088.795	522.6
3092.007	527.6
3095.216	533.6
3098.423	542.6
3101.627	565.6
3104.828	569.6
3108.026	590.6
3111.222	593.6
3114.416	596.6
3117.607	620.6
3120.795	622.6
3123.98	638.6
3127.163	664.6
3130.344	672.6
3133.521	687.6
3136.696	714.6
3139.869	708.6
3143.039	725.6
3146.206	739.6
3149.371	755.6
3152.533	756.6
3155.693	774.6
3158.85	773.6
3162.005	769.6
3165.157	765.6
3168.306	765.6
3171.453	794.6
3174.597	796.6
3177.739	808.6
3180.878	818.6
3184.014	810.6
3187.149	813.6
3190.28	828.6
3193.409	799.6
3196.536	814.6
3199.659	814.6
3202.781	818.6
3205.9	840.6
3209.016	831.6
3212.13	832.6
3215.241	814.6
3218.35	792.6
3221.456	813.6
3224.56	800.6
3227.661	785.6
3230.76	788.6
3233.856	762.6
3236.95	747.6
3240.041	740.6
3243.13	720.6
3246.216	720.6
3249.3	708.6
3252.382	706.6
3255.46	701.6
3258.537	688.6
3261.611	683.6
3264.682	667.6
3267.751	668.6
3270.818	655.6
3273.882	656.6
3276.943	652.6
3280.002	664.6
3283.059	659.6
3286.113	654.6
3289.165	643.6
3292.214	638.6
3295.261	634.6
3298.306	616.6
3301.348	601.6
3304.387	600.6
3307.425	609.6
3310.459	590.6
3313.492	579.6
3316.521	580.6
3319.549	575.6
3322.574	561.6
3325.597	567.6
3328.617	577.6
3331.635	576.6
3334.65	567.6
3337.663	561.6
3340.674	571.6
3343.682	548.6
3346.688	547.6
3349.691	560.6
3352.692	549.6
3355.691	551.6
3358.687	545.6
3361.681	539.6
3364.673	530.6
3367.662	528.6
3370.649	519.6
3373.633	502.6
3376.615	489.6
3379.595	481.6
3382.572	481.6
3385.547	483.6
3388.52	483.6
3391.49	465.6
3394.458	463.6
3397.424	443.6
3400.387	427.6
3403.348	441.6
3406.307	419.6
3409.263	417.6
3412.217	422.6
3415.168	411.6
3418.118	407.6
3421.065	386.6
3424.009	394.6
3426.951	383.6
3429.891	367.6
3432.829	363.6
3435.764	357.6
3438.697	341.6
3441.628	341.6
3444.557	330.6
3447.483	318.6
3450.407	299.6
3453.328	279.6
3456.247	269.6
3459.164	267.6
3462.079	255.6
3464.991	242.6
3467.902	245.6
3470.809	239.6
3473.715	213.6
3476.618	199.6
3479.519	190.6
3482.418	188.6
3485.315	176.6
3488.209	166.6
3491.101	161.6
3493.99	166.6
3496.878	151.6
3499.763	138.6
3502.646	134.6
3505.527	126.6
3508.405	118.6
3511.281	108.6
3514.155	97.6
3517.027	92.6
3519.897	89.6
3522.764	71.6
3525.629	63.6
3528.492	57.6
3531.352	49.6
3534.211	37.6
3537.067	37.6
3539.921	34.6
3542.773	21.6
3545.622	14.6
3548.469	6.6
3551.315	1.6
3554.157	-6.4
3556.998	-14.4
3559.837	-10.4
3562.673	-16.4
3565.507	-19.4
3568.339	-27.4
3571.169	-41.4
3573.996	-33.4
3576.822	-34.4
3579.645	-40.4
3582.466	-37.4
3585.285	-51.4
3588.101	-42.4
3590.916	-58.4
3593.728	-72.4
3596.538	-65.4
3599.346	-68.4
3602.152	-71.4
3604.956	-73.4
3607.757	-67.4
3610.556	-78.4
3613.354	-76.4
3616.149	-93.4
3618.942	-91.4
3621.732	-91.4
3624.521	-90.4
3627.307	-86.4
3630.092	-92.4
3632.874	-88.4
3635.654	-100.4
3638.432	-95.4
3641.208	-101.4
3643.982	-109.4
3646.753	-115.4
3649.523	-108.4
3652.29	-104.4
3655.055	-105.4
3657.818	-107.4
3660.579	-115.4
3663.338	-118.4
3666.095	-119.4
3668.849	-121.4
3671.602	-123.4
3674.352	-124.4
3677.101	-122.4
3679.847	-128.4
3682.591	-132.4
3685.333	-127.4
3688.073	-133.4
3690.811	-134.4
3693.547	-141.4
3696.281	-130.4
3699.013	-131.4
3701.742	-139.4
3704.47	-142.4
3707.195	-138.4
3709.919	-143.4
3712.64	-136.4
3715.359	-143.4
3718.076	-139.4
3720.792	-144.4
3723.505	-148.4
3726.216	-142.4
3728.925	-150.4
3731.632	-146.4
3734.336	-151.4
3737.039	-147.4
3739.74	-149.4
3742.439	-153.4
3745.136	-145.4
3747.83	-156.4
3750.523	-152.4
3753.213	-146.4
3755.902	-146.4
3758.589	-151.4
3761.273	-146.4
3763.956	-147.4
3766.636	-153.4
3769.315	-147.4
3771.991	-148.4
3774.665	-162.4
3777.338	-145.4
3780.008	-155.4
3782.677	-153.4
3785.343	-155.4
3788.007	-157.4
3790.67	-159.4
3793.33	-147.4
3795.989	-160.4
3798.645	-155.4
3801.299	-154.4
3803.952	-160.4
3806.602	-152.4
3809.251	-158.4
3811.897	-160.4
3814.542	-158.4
3817.184	-158.4
3819.825	-157.4
3822.463	-154.4
3825.1	-153.4
3827.735	-157.4
3830.367	-159.4
3832.998	-160.4
3835.627	-157.4
3838.253	-153.4
3840.878	-153.4
3843.501	-150.4
3846.122	-156.4
3848.741	-165.4
3851.358	-157.4
3853.973	-164.4
3856.586	-154.4
3859.197	-162.4
3861.806	-159.4
3864.414	-159.4
3867.019	-149.4
3869.622	-158.4
3872.224	-147.4
3874.823	-146.4
3877.421	-129.4
3880.016	-110.4
3882.61	-87.4
3885.202	-82.4
3887.792	-96.4
3890.38	-119.4
3892.966	-152.4
3895.55	-146.4
3898.132	-158.4
3900.713	-161.4
3903.291	-163.4
3905.868	-156.4
3908.442	-152.4
3911.015	-160.4
3913.586	-160.4
3916.155	-164.4
3918.722	-167.4
3921.287	-162.4
3923.85	-159.4
3926.411	-166.4
3928.971	-160.4
3931.528	-164.4
3934.084	-159.4
3936.638	-156.4
3939.19	-165.4
3941.74	-168.4
3944.288	-156.4
3946.834	-159.4
3949.378	-158.4
3951.921	-160.4
3954.462	-168.4
3957	-160.4
3959.537	-158.4
3962.072	-162.4
3964.606	-159.4
3967.137	-160.4
3969.667	-157.4
3972.194	-161.4
3974.72	-158.4
3977.244	-161.4
3979.766	-160.4
3982.286	-161.4
3984.805	-162.4
3987.321	-157.4
3989.836	-153.4
3992.349	-158.4
3994.86	-155.4
3997.369	-160.4
3999.877	-156.4
4002.382	-158.4
4004.886	-158.4
4007.388	-156.4
4009.888	-153.4
4012.386	-162.4
4014.883	-158.4
4017.377	-158.4
4019.87	-161.4
4022.361	-160.4
4024.85	-159.4
4027.338	-153.4
4029.823	-152.4
4032.307	-158.4
4034.789	-155.4
4037.269	-156.4
4039.747	-156.4
4042.224	-161.4
4044.699	-163.4
4047.172	-158.4
4049.643	-152.4
4052.112	-154.4
4054.58	-155.4
4057.046	-159.4
4059.51	-162.4
4061.972	-155.4
4064.432	-160.4
4066.891	-159.4
4069.348	-152.4
4071.803	-157.4
4074.256	-158.4
4076.708	-153.4
4079.158	-160.4
4081.606	-153.4
4084.052	-165.4
4086.497	-156.4
4088.939	-144.4
4091.38	-157.4
4093.819	-160.4
4096.257	-169.4
4098.693	-164.4
4101.127	-166.4
4103.559	-167.4
4105.989	-19.4
4108.418	-29.4
4110.845	-14.4
4113.27	-22.4
4115.694	-28.4
4118.115	-17.4
4120.535	-160.4
4122.954	-162.4
4125.37	-161.4
4127.785	-156.4
4130.198	-154.4
4132.609	-154.4
4135.019	-165.4
4137.427	-168.4
4139.833	-168.4
4142.237	-168.4
