Data from 2018-2-8_conc=6_n=1_RamanShift_05.txt Node
Date: Mon Mar 12 16:25:28 IST 2018
User: aro
Spectrometer: QEPB0276
Trigger mode: 0
Integration Time (sec): 3.000000E1
Scans to average: 1
Electric dark correction enabled: true
Nonlinearity correction enabled: false
Boxcar width: 0
XAxis mode: Raman Shifts
Number of Pixels in Spectrum: 1044
>>>>>Begin Spectral Data<<<<<
160.701	7.1
166.742	34.1
172.777	105.1
178.805	341.1
184.826	928.1
190.841	1990.1
196.849	3341.1
202.85	4374.1
208.845	4802.1
214.833	4802.1
220.815	4711.1
226.789	4688.1
232.758	4710.1
238.719	4718.1
244.674	4659.1
250.623	4633.1
256.565	4586.1
262.5	4507.1
268.429	4468.1
274.351	4410.1
280.267	4360.1
286.176	4327.1
292.079	4314.1
297.975	4293.1
303.865	4294.1
309.748	4326.1
315.625	4270.1
321.495	4270.1
327.359	4265.1
333.217	4251.1
339.068	4252.1
344.912	4280.1
350.751	4271.1
356.583	4287.1
362.408	4304.1
368.227	4321.1
374.04	4310.1
379.847	4337.1
385.647	4348.1
391.44	4356.1
397.228	4371.1
403.009	4420.1
408.784	4411.1
414.553	4451.1
420.315	4452.1
426.071	4466.1
431.821	4466.1
437.565	4453.1
443.302	4446.1
449.033	4459.1
454.758	4389.1
460.477	4373.1
466.189	4374.1
471.896	4350.1
477.596	4334.1
483.29	4299.1
488.978	4297.1
494.66	4272.1
500.335	4217.1
506.005	4131.1
511.668	4002.1
517.325	3868.1
522.977	3816.1
528.622	3722.1
534.261	3656.1
539.894	3624.1
545.521	3586.1
551.141	3568.1
556.756	3566.1
562.365	3517.1
567.968	3492.1
573.565	3463.1
579.155	3449.1
584.74	3460.1
590.319	3440.1
595.892	3435.1
601.459	3441.1
607.02	3388.1
612.575	3397.1
618.124	3359.1
623.667	3293.1
629.204	3310.1
634.735	3237.1
640.261	3246.1
645.781	3220.1
651.294	3223.1
656.802	3232.1
662.304	3193.1
667.8	3175.1
673.29	3201.1
678.775	3175.1
684.254	3164.1
689.726	3150.1
695.193	3139.1
700.655	3139.1
706.11	3109.1
711.56	3092.1
717.004	3068.1
722.442	3061.1
727.874	3046.1
733.301	3048.1
738.722	3032.1
744.137	3008.1
749.547	2984.1
754.951	2992.1
760.349	3030.1
765.741	3023.1
771.128	3030.1
776.509	3053.1
781.885	3071.1
787.254	3067.1
792.618	3081.1
797.977	3032.1
803.33	3036.1
808.677	3006.1
814.019	2977.1
819.355	2957.1
824.686	2950.1
830.011	2920.1
835.33	2935.1
840.644	2908.1
845.952	2905.1
851.255	2909.1
856.552	2917.1
861.844	2882.1
867.13	2859.1
872.41	2843.1
877.686	2814.1
882.955	2803.1
888.219	2790.1
893.478	2749.1
898.731	2716.1
903.979	2699.1
909.221	2665.1
914.458	2656.1
919.69	2652.1
924.916	2667.1
930.136	2662.1
935.351	2662.1
940.561	2673.1
945.766	2664.1
950.965	2651.1
956.158	2612.1
961.347	2588.1
966.529	2575.1
971.707	2548.1
976.879	2490.1
982.046	2480.1
987.208	2451.1
992.364	2460.1
997.515	2486.1
1002.66	2497.1
1007.801	2508.1
1012.936	2528.1
1018.066	2518.1
1023.19	2548.1
1028.309	2544.1
1033.423	2547.1
1038.532	2515.1
1043.636	2507.1
1048.734	2475.1
1053.827	2453.1
1058.915	2425.1
1063.998	2414.1
1069.075	2408.1
1074.147	2414.1
1079.214	2399.1
1084.276	2404.1
1089.333	2414.1
1094.385	2441.1
1099.431	2443.1
1104.472	2430.1
1109.509	2416.1
1114.54	2403.1
1119.565	2344.1
1124.586	2315.1
1129.602	2304.1
1134.613	2289.1
1139.618	2250.1
1144.619	2249.1
1149.614	2252.1
1154.604	2250.1
1159.589	2267.1
1164.57	2276.1
1169.545	2283.1
1174.515	2283.1
1179.48	2283.1
1184.44	2265.1
1189.395	2219.1
1194.345	2204.1
1199.29	2203.1
1204.23	2185.1
1209.165	2207.1
1214.095	2212.1
1219.021	2239.1
1223.941	2226.1
1228.856	2236.1
1233.766	2273.1
1238.672	2253.1
1243.572	2246.1
1248.467	2224.1
1253.358	2197.1
1258.244	2169.1
1263.124	2138.1
1268	2089.1
1272.871	2080.1
1277.737	2066.1
1282.599	2037.1
1287.455	2044.1
1292.306	2053.1
1297.153	2076.1
1301.995	2088.1
1306.832	2087.1
1311.664	2110.1
1316.491	2094.1
1321.314	2085.1
1326.132	2103.1
1330.945	2077.1
1335.753	2035.1
1340.556	2010.1
1345.354	1988.1
1350.148	1950.1
1354.937	1923.1
1359.722	1891.1
1364.501	1863.1
1369.276	1827.1
1374.046	1784.1
1378.811	1779.1
1383.572	1766.1
1388.327	1751.1
1393.079	1766.1
1397.825	1758.1
1402.567	1751.1
1407.304	1769.1
1412.036	1767.1
1416.764	1786.1
1421.487	1767.1
1426.205	1784.1
1430.919	1777.1
1435.628	1791.1
1440.333	1809.1
1445.032	1829.1
1449.727	1838.1
1454.418	1822.1
1459.104	1833.1
1463.785	1818.1
1468.462	1781.1
1473.134	1753.1
1477.802	1726.1
1482.465	1686.1
1487.123	1645.1
1491.777	1648.1
1496.426	1615.1
1501.071	1609.1
1505.711	1591.1
1510.347	1605.1
1514.978	1595.1
1519.604	1612.1
1524.226	1610.1
1528.844	1574.1
1533.457	1574.1
1538.065	1556.1
1542.669	1561.1
1547.269	1547.1
1551.864	1553.1
1556.454	1589.1
1561.041	1604.1
1565.622	1594.1
1570.199	1594.1
1574.772	1627.1
1579.34	1634.1
1583.904	1650.1
1588.464	1658.1
1593.019	1651.1
1597.569	1666.1
1602.115	1670.1
1606.657	1640.1
1611.195	1646.1
1615.728	1650.1
1620.256	1632.1
1624.78	1650.1
1629.3	1663.1
1633.816	1651.1
1638.327	1660.1
1642.834	1663.1
1647.336	1677.1
1651.834	1674.1
1656.328	1657.1
1660.817	1668.1
1665.302	1654.1
1669.783	1637.1
1674.259	1592.1
1678.732	1567.1
1683.199	1516.1
1687.663	1490.1
1692.122	1455.1
1696.577	1368.1
1701.028	1304.1
1705.474	1286.1
1709.917	1228.1
1714.355	1209.1
1718.788	1203.1
1723.218	1208.1
1727.643	1205.1
1732.064	1207.1
1736.481	1193.1
1740.893	1157.1
1745.301	1121.1
1749.705	1115.1
1754.105	1086.1
1758.501	1079.1
1762.893	1073.1
1767.28	1041.1
1771.663	1049.1
1776.042	1038.1
1780.417	1031.1
1784.787	1024.1
1789.154	999.1
1793.516	999.1
1797.874	974.1
1802.228	963.1
1806.578	962.1
1810.924	950.1
1815.266	937.1
1819.603	931.1
1823.937	923.1
1828.266	921.1
1832.591	935.1
1836.913	918.1
1841.23	925.1
1845.543	921.1
1849.852	928.1
1854.156	933.1
1858.457	938.1
1862.754	949.1
1867.047	936.1
1871.335	932.1
1875.62	927.1
1879.9	923.1
1884.177	924.1
1888.449	915.1
1892.718	924.1
1896.982	907.1
1901.243	892.1
1905.499	866.1
1909.752	870.1
1914	845.1
1918.245	852.1
1922.485	832.1
1926.722	831.1
1930.954	825.1
1935.183	827.1
1939.408	825.1
1943.628	808.1
1947.845	813.1
1952.058	826.1
1956.267	795.1
1960.472	781.1
1964.673	790.1
1968.87	771.1
1973.063	770.1
1977.252	758.1
1981.438	759.1
1985.619	753.1
1989.797	763.1
1993.971	761.1
1998.14	767.1
2002.306	756.1
2006.469	767.1
2010.627	771.1
2014.781	771.1
2018.932	762.1
2023.078	767.1
2027.221	747.1
2031.36	747.1
2035.495	725.1
2039.627	732.1
2043.754	713.1
2047.878	711.1
2051.998	703.1
2056.114	706.1
2060.226	695.1
2064.334	697.1
2068.439	689.1
2072.54	699.1
2076.637	687.1
2080.73	688.1
2084.82	691.1
2088.906	672.1
2092.988	678.1
2097.066	679.1
2101.14	663.1
2105.211	655.1
2109.278	657.1
2113.342	640.1
2117.401	637.1
2121.457	632.1
2125.509	633.1
2129.558	626.1
2133.602	628.1
2137.643	631.1
2141.681	622.1
2145.714	611.1
2149.744	612.1
2153.77	629.1
2157.793	605.1
2161.812	604.1
2165.827	599.1
2169.838	592.1
2173.846	579.1
2177.851	565.1
2181.851	559.1
2185.848	565.1
2189.841	558.1
2193.831	557.1
2197.817	547.1
2201.799	551.1
2205.778	535.1
2209.753	535.1
2213.725	551.1
2217.693	535.1
2221.657	535.1
2225.618	525.1
2229.575	533.1
2233.529	532.1
2237.479	532.1
2241.425	508.1
2245.368	503.1
2249.307	485.1
2253.243	499.1
2257.175	480.1
2261.104	482.1
2265.029	474.1
2268.95	466.1
2272.868	467.1
2276.783	452.1
2280.694	441.1
2284.601	447.1
2288.505	451.1
2292.405	435.1
2296.302	431.1
2300.195	439.1
2304.085	421.1
2307.971	402.1
2311.854	412.1
2315.734	402.1
2319.609	401.1
2323.482	396.1
2327.351	394.1
2331.216	399.1
2335.078	403.1
2338.937	402.1
2342.792	372.1
2346.643	376.1
2350.492	373.1
2354.336	378.1
2358.178	384.1
2362.015	378.1
2365.85	383.1
2369.681	379.1
2373.508	377.1
2377.333	367.1
2381.153	373.1
2384.971	384.1
2388.785	379.1
2392.595	357.1
2396.402	369.1
2400.206	368.1
2404.007	369.1
2407.804	362.1
2411.597	367.1
2415.388	353.1
2419.174	362.1
2422.958	343.1
2426.738	341.1
2430.515	344.1
2434.289	351.1
2438.059	344.1
2441.825	330.1
2445.589	335.1
2449.349	347.1
2453.106	330.1
2456.859	331.1
2460.61	319.1
2464.356	314.1
2468.1	307.1
2471.84	320.1
2475.577	317.1
2479.311	306.1
2483.041	297.1
2486.768	300.1
2490.492	305.1
2494.213	300.1
2497.93	306.1
2501.644	296.1
2505.355	293.1
2509.062	293.1
2512.766	298.1
2516.467	274.1
2520.165	276.1
2523.859	279.1
2527.551	276.1
2531.239	266.1
2534.923	265.1
2538.605	259.1
2542.283	263.1
2545.958	253.1
2549.63	257.1
2553.299	247.1
2556.964	253.1
2560.626	246.1
2564.285	245.1
2567.941	247.1
2571.594	249.1
2575.243	236.1
2578.89	235.1
2582.533	223.1
2586.173	226.1
2589.809	218.1
2593.443	225.1
2597.073	217.1
2600.701	217.1
2604.325	210.1
2607.946	215.1
2611.564	215.1
2615.178	215.1
2618.79	211.1
2622.398	212.1
2626.004	211.1
2629.606	206.1
2633.205	207.1
2636.801	202.1
2640.394	208.1
2643.983	196.1
2647.57	192.1
2651.153	191.1
2654.734	195.1
2658.311	177.1
2661.885	179.1
2665.456	191.1
2669.025	180.1
2672.589	181.1
2676.151	177.1
2679.71	179.1
2683.266	171.1
2686.819	174.1
2690.368	173.1
2693.915	170.1
2697.458	162.1
2700.999	156.1
2704.536	156.1
2708.071	148.1
2711.602	155.1
2715.13	148.1
2718.656	150.1
2722.178	148.1
2725.697	142.1
2729.214	142.1
2732.727	148.1
2736.237	135.1
2739.744	137.1
2743.249	138.1
2746.75	136.1
2750.248	134.1
2753.743	126.1
2757.236	120.1
2760.725	127.1
2764.211	119.1
2767.695	116.1
2771.175	114.1
2774.652	110.1
2778.127	116.1
2781.598	112.1
2785.067	118.1
2788.532	116.1
2791.995	121.1
2795.455	114.1
2798.911	118.1
2802.365	123.1
2805.816	123.1
2809.264	117.1
2812.709	119.1
2816.151	125.1
2819.59	125.1
2823.026	116.1
2826.46	116.1
2829.89	127.1
2833.318	113.1
2836.742	115.1
2840.164	118.1
2843.583	119.1
2846.999	122.1
2850.412	121.1
2853.822	125.1
2857.229	127.1
2860.634	134.1
2864.035	135.1
2867.434	131.1
2870.83	131.1
2874.223	152.1
2877.613	150.1
2881	161.1
2884.385	161.1
2887.766	144.1
2891.145	150.1
2894.521	156.1
2897.894	158.1
2901.264	155.1
2904.631	164.1
2907.996	163.1
2911.358	158.1
2914.717	165.1
2918.073	160.1
2921.426	172.1
2924.777	177.1
2928.124	173.1
2931.469	179.1
2934.811	188.1
2938.15	193.1
2941.487	201.1
2944.821	193.1
2948.152	193.1
2951.48	202.1
2954.805	204.1
2958.128	196.1
2961.447	188.1
2964.765	194.1
2968.079	185.1
2971.39	194.1
2974.699	188.1
2978.005	193.1
2981.308	210.1
2984.609	207.1
2987.907	195.1
2991.202	193.1
2994.494	202.1
2997.784	199.1
3001.07	207.1
3004.355	206.1
3007.636	218.1
3010.915	214.1
3014.191	214.1
3017.464	231.1
3020.734	214.1
3024.002	221.1
3027.267	229.1
3030.53	237.1
3033.789	238.1
3037.046	252.1
3040.301	246.1
3043.552	263.1
3046.801	271.1
3050.048	276.1
3053.291	283.1
3056.532	284.1
3059.771	304.1
3063.006	311.1
3066.239	331.1
3069.469	334.1
3072.697	339.1
3075.922	349.1
3079.144	355.1
3082.364	365.1
3085.581	379.1
3088.795	387.1
3092.007	398.1
3095.216	395.1
3098.423	407.1
3101.627	416.1
3104.828	417.1
3108.026	434.1
3111.222	445.1
3114.416	456.1
3117.607	468.1
3120.795	469.1
3123.98	483.1
3127.163	491.1
3130.344	505.1
3133.521	516.1
3136.696	537.1
3139.869	537.1
3143.039	530.1
3146.206	547.1
3149.371	560.1
3152.533	566.1
3155.693	560.1
3158.85	573.1
3162.005	590.1
3165.157	587.1
3168.306	577.1
3171.453	588.1
3174.597	579.1
3177.739	592.1
3180.878	602.1
3184.014	608.1
3187.149	606.1
3190.28	597.1
3193.409	600.1
3196.536	619.1
3199.659	607.1
3202.781	611.1
3205.9	616.1
3209.016	618.1
3212.13	619.1
3215.241	610.1
3218.35	602.1
3221.456	587.1
3224.56	587.1
3227.661	571.1
3230.76	585.1
3233.856	574.1
3236.95	561.1
3240.041	556.1
3243.13	533.1
3246.216	552.1
3249.3	530.1
3252.382	521.1
3255.46	531.1
3258.537	521.1
3261.611	502.1
3264.682	495.1
3267.751	491.1
3270.818	489.1
3273.882	493.1
3276.943	491.1
3280.002	505.1
3283.059	491.1
3286.113	484.1
3289.165	476.1
3292.214	478.1
3295.261	449.1
3298.306	461.1
3301.348	457.1
3304.387	444.1
3307.425	445.1
3310.459	433.1
3313.492	431.1
3316.521	426.1
3319.549	425.1
3322.574	427.1
3325.597	412.1
3328.617	426.1
3331.635	406.1
3334.65	408.1
3337.663	407.1
3340.674	419.1
3343.682	412.1
3346.688	415.1
3349.691	416.1
3352.692	406.1
3355.691	402.1
3358.687	399.1
3361.681	406.1
3364.673	408.1
3367.662	389.1
3370.649	377.1
3373.633	364.1
3376.615	357.1
3379.595	356.1
3382.572	353.1
3385.547	355.1
3388.52	351.1
3391.49	337.1
3394.458	339.1
3397.424	336.1
3400.387	325.1
3403.348	325.1
3406.307	309.1
3409.263	311.1
3412.217	313.1
3415.168	305.1
3418.118	300.1
3421.065	291.1
3424.009	285.1
3426.951	290.1
3429.891	282.1
3432.829	274.1
3435.764	274.1
3438.697	255.1
3441.628	250.1
3444.557	247.1
3447.483	234.1
3450.407	218.1
3453.328	220.1
3456.247	208.1
3459.164	203.1
3462.079	191.1
3464.991	194.1
3467.902	180.1
3470.809	188.1
3473.715	157.1
3476.618	156.1
3479.519	163.1
3482.418	146.1
3485.315	136.1
3488.209	123.1
3491.101	122.1
3493.99	120.1
3496.878	109.1
3499.763	106.1
3502.646	106.1
3505.527	98.1
3508.405	99.1
3511.281	76.1
3514.155	78.1
3517.027	79.1
3519.897	59.1
3522.764	58.1
3525.629	47.1
3528.492	49.1
3531.352	41.1
3534.211	35.1
3537.067	27.1
3539.921	28.1
3542.773	21.1
3545.622	16.1
3548.469	6.1
3551.315	9.1
3554.157	5.1
3556.998	-1.9
3559.837	-10.9
3562.673	-14.9
3565.507	-7.9
3568.339	-15.9
3571.169	-21.9
3573.996	-21.9
3576.822	-26.9
3579.645	-23.9
3582.466	-31.9
3585.285	-38.9
3588.101	-32.9
3590.916	-46.9
3593.728	-48.9
3596.538	-40.9
3599.346	-48.9
3602.152	-44.9
3604.956	-50.9
3607.757	-51.9
3610.556	-56.9
3613.354	-55.9
3616.149	-58.9
3618.942	-65.9
3621.732	-65.9
3624.521	-65.9
3627.307	-65.9
3630.092	-68.9
3632.874	-67.9
3635.654	-73.9
3638.432	-75.9
3641.208	-64.9
3643.982	-71.9
3646.753	-82.9
3649.523	-78.9
3652.29	-75.9
3655.055	-80.9
3657.818	-81.9
3660.579	-80.9
3663.338	-81.9
3666.095	-81.9
3668.849	-88.9
3671.602	-90.9
3674.352	-91.9
3677.101	-95.9
3679.847	-93.9
3682.591	-93.9
3685.333	-86.9
3688.073	-88.9
3690.811	-93.9
3693.547	-102.9
3696.281	-97.9
3699.013	-102.9
3701.742	-99.9
3704.47	-101.9
3707.195	-94.9
3709.919	-95.9
3712.64	-101.9
3715.359	-109.9
3718.076	-110.9
3720.792	-107.9
3723.505	-107.9
3726.216	-100.9
3728.925	-106.9
3731.632	-102.9
3734.336	-109.9
3737.039	-107.9
3739.74	-110.9
3742.439	-114.9
3745.136	-101.9
3747.83	-113.9
3750.523	-105.9
3753.213	-107.9
3755.902	-110.9
3758.589	-109.9
3761.273	-107.9
3763.956	-109.9
3766.636	-112.9
3769.315	-107.9
3771.991	-103.9
3774.665	-118.9
3777.338	-108.9
3780.008	-112.9
3782.677	-112.9
3785.343	-108.9
3788.007	-113.9
3790.67	-111.9
3793.33	-106.9
3795.989	-110.9
3798.645	-107.9
3801.299	-112.9
3803.952	-113.9
3806.602	-111.9
3809.251	-118.9
3811.897	-118.9
3814.542	-114.9
3817.184	-107.9
3819.825	-112.9
3822.463	-110.9
3825.1	-113.9
3827.735	-115.9
3830.367	-116.9
3832.998	-119.9
3835.627	-117.9
3838.253	-109.9
3840.878	-111.9
3843.501	-111.9
3846.122	-116.9
3848.741	-118.9
3851.358	-113.9
3853.973	-119.9
3856.586	-111.9
3859.197	-119.9
3861.806	-107.9
3864.414	-109.9
3867.019	-113.9
3869.622	-113.9
3872.224	-106.9
3874.823	-107.9
3877.421	-94.9
3880.016	-78.9
3882.61	-67.9
3885.202	-65.9
3887.792	-79.9
3890.38	-93.9
3892.966	-112.9
3895.55	-115.9
3898.132	-111.9
3900.713	-113.9
3903.291	-116.9
3905.868	-115.9
3908.442	-110.9
3911.015	-116.9
3913.586	-121.9
3916.155	-120.9
3918.722	-119.9
3921.287	-115.9
3923.85	-117.9
3926.411	-115.9
3928.971	-117.9
3931.528	-121.9
3934.084	-119.9
3936.638	-110.9
3939.19	-121.9
3941.74	-116.9
3944.288	-115.9
3946.834	-114.9
3949.378	-115.9
3951.921	-117.9
3954.462	-124.9
3957	-121.9
3959.537	-112.9
3962.072	-115.9
3964.606	-117.9
3967.137	-113.9
3969.667	-115.9
3972.194	-121.9
3974.72	-112.9
3977.244	-116.9
3979.766	-112.9
3982.286	-112.9
3984.805	-114.9
3987.321	-110.9
3989.836	-105.9
3992.349	-116.9
3994.86	-115.9
3997.369	-116.9
3999.877	-119.9
4002.382	-106.9
4004.886	-119.9
4007.388	-110.9
4009.888	-112.9
4012.386	-118.9
4014.883	-115.9
4017.377	-117.9
4019.87	-117.9
4022.361	-113.9
4024.85	-112.9
4027.338	-113.9
4029.823	-111.9
4032.307	-114.9
4034.789	-122.9
4037.269	-117.9
4039.747	-106.9
4042.224	-113.9
4044.699	-115.9
4047.172	-111.9
4049.643	-109.9
4052.112	-116.9
4054.58	-115.9
4057.046	-116.9
4059.51	-115.9
4061.972	-110.9
4064.432	-115.9
4066.891	-114.9
4069.348	-109.9
4071.803	-120.9
4074.256	-114.9
4076.708	-108.9
4079.158	-111.9
4081.606	-107.9
4084.052	-116.9
4086.497	-110.9
4088.939	-109.9
4091.38	-115.9
4093.819	-115.9
4096.257	-122.9
4098.693	-122.9
4101.127	-120.9
4103.559	-118.9
4105.989	-10.9
4108.418	-10.9
4110.845	-15.9
4113.27	-13.9
4115.694	-14.9
4118.115	-10.9
4120.535	-114.9
4122.954	-114.9
4125.37	-108.9
4127.785	-113.9
4130.198	-117.9
4132.609	-114.9
4135.019	-122.9
4137.427	-122.9
4139.833	-119.9
4142.237	-121.9
