Data from 2018-2-8_conc=0_n=7_RamanShift_02.txt Node
Date: Mon Mar 12 13:40:59 IST 2018
User: aro
Spectrometer: QEPB0276
Trigger mode: 0
Integration Time (sec): 3.000000E1
Scans to average: 1
Electric dark correction enabled: true
Nonlinearity correction enabled: false
Boxcar width: 0
XAxis mode: Raman Shifts
Number of Pixels in Spectrum: 1044
>>>>>Begin Spectral Data<<<<<
160.701	17
166.742	40
172.777	130
178.805	401
184.826	1046
190.841	2290
196.849	3781
202.85	4976
208.845	5421
214.833	5423
220.815	5343
226.789	5351
232.758	5363
238.719	5322
244.674	5303
250.623	5279
256.565	5176
262.5	5115
268.429	5055
274.351	4999
280.267	4976
286.176	4967
292.079	4929
297.975	4877
303.865	4890
309.748	4881
315.625	4895
321.495	4863
327.359	4857
333.217	4878
339.068	4850
344.912	4858
350.751	4882
356.583	4869
362.408	4889
368.227	4893
374.04	4899
379.847	4944
385.647	4943
391.44	4963
397.228	5003
403.009	5031
408.784	5028
414.553	5067
420.315	5057
426.071	5083
431.821	5086
437.565	5062
443.302	5054
449.033	5065
454.758	5020
460.477	4998
466.189	4979
471.896	4962
477.596	4895
483.29	4874
488.978	4894
494.66	4872
500.335	4825
506.005	4697
511.668	4532
517.325	4383
522.977	4274
528.622	4226
534.261	4145
539.894	4091
545.521	4051
551.141	4040
556.756	4010
562.365	3955
567.968	3953
573.565	3900
579.155	3907
584.74	3896
590.319	3887
595.892	3888
601.459	3851
607.02	3859
612.575	3808
618.124	3806
623.667	3742
629.204	3737
634.735	3713
640.261	3663
645.781	3639
651.294	3638
656.802	3619
662.304	3626
667.8	3574
673.29	3608
678.775	3600
684.254	3583
689.726	3581
695.193	3554
700.655	3547
706.11	3509
711.56	3489
717.004	3481
722.442	3462
727.874	3467
733.301	3433
738.722	3394
744.137	3410
749.547	3400
754.951	3399
760.349	3383
765.741	3400
771.128	3418
776.509	3452
781.885	3458
787.254	3479
792.618	3474
797.977	3461
803.33	3416
808.677	3387
814.019	3371
819.355	3355
824.686	3314
830.011	3313
835.33	3308
840.644	3301
845.952	3325
851.255	3268
856.552	3283
861.844	3253
867.13	3245
872.41	3222
877.686	3213
882.955	3215
888.219	3190
893.478	3097
898.731	3069
903.979	3024
909.221	3027
914.458	2981
919.69	2981
924.916	2993
930.136	3001
935.351	3007
940.561	2991
945.766	3016
950.965	2963
956.158	2973
961.347	2929
966.529	2907
971.707	2863
976.879	2825
982.046	2784
987.208	2761
992.364	2792
997.515	2783
1002.66	2821
1007.801	2854
1012.936	2842
1018.066	2869
1023.19	2847
1028.309	2866
1033.423	2858
1038.532	2873
1043.636	2847
1048.734	2813
1053.827	2770
1058.915	2736
1063.998	2726
1069.075	2726
1074.147	2723
1079.214	2711
1084.276	2734
1089.333	2753
1094.385	2746
1099.431	2763
1104.472	2757
1109.509	2722
1114.54	2693
1119.565	2657
1124.586	2612
1129.602	2585
1134.613	2583
1139.618	2552
1144.619	2528
1149.614	2533
1154.604	2560
1159.589	2536
1164.57	2553
1169.545	2579
1174.515	2564
1179.48	2553
1184.44	2535
1189.395	2502
1194.345	2510
1199.29	2451
1204.23	2457
1209.165	2474
1214.095	2520
1219.021	2511
1223.941	2523
1228.856	2529
1233.766	2536
1238.672	2540
1243.572	2531
1248.467	2532
1253.358	2495
1258.244	2444
1263.124	2406
1268	2359
1272.871	2363
1277.737	2323
1282.599	2342
1287.455	2330
1292.306	2335
1297.153	2337
1301.995	2346
1306.832	2360
1311.664	2375
1316.491	2356
1321.314	2365
1326.132	2329
1330.945	2338
1335.753	2288
1340.556	2252
1345.354	2221
1350.148	2195
1354.937	2129
1359.722	2112
1364.501	2071
1369.276	2048
1374.046	2020
1378.811	1998
1383.572	1998
1388.327	1969
1393.079	1970
1397.825	1973
1402.567	1974
1407.304	1971
1412.036	1977
1416.764	1993
1421.487	1987
1426.205	2005
1430.919	2004
1435.628	2015
1440.333	2030
1445.032	2039
1449.727	2080
1454.418	2074
1459.104	2080
1463.785	2049
1468.462	2010
1473.134	1979
1477.802	1911
1482.465	1863
1487.123	1840
1491.777	1818
1496.426	1789
1501.071	1790
1505.711	1768
1510.347	1767
1514.978	1730
1519.604	1748
1524.226	1742
1528.844	1732
1533.457	1727
1538.065	1732
1542.669	1710
1547.269	1714
1551.864	1700
1556.454	1732
1561.041	1757
1565.622	1776
1570.199	1782
1574.772	1777
1579.34	1806
1583.904	1839
1588.464	1852
1593.019	1839
1597.569	1840
1602.115	1858
1606.657	1845
1611.195	1821
1615.728	1806
1620.256	1814
1624.78	1803
1629.3	1826
1633.816	1833
1638.327	1830
1642.834	1855
1647.336	1860
1651.834	1841
1656.328	1867
1660.817	1832
1665.302	1830
1669.783	1786
1674.259	1750
1678.732	1713
1683.199	1670
1687.663	1607
1692.122	1562
1696.577	1489
1701.028	1417
1705.474	1382
1709.917	1331
1714.355	1291
1718.788	1303
1723.218	1304
1727.643	1296
1732.064	1293
1736.481	1298
1740.893	1263
1745.301	1244
1749.705	1202
1754.105	1179
1758.501	1169
1762.893	1159
1767.28	1148
1771.663	1127
1776.042	1116
1780.417	1101
1784.787	1097
1789.154	1081
1793.516	1081
1797.874	1055
1802.228	1035
1806.578	1019
1810.924	1010
1815.266	994
1819.603	998
1823.937	985
1828.266	991
1832.591	1002
1836.913	1001
1841.23	1012
1845.543	1006
1849.852	1005
1854.156	995
1858.457	1010
1862.754	1014
1867.047	995
1871.335	1010
1875.62	1005
1879.9	1012
1884.177	998
1888.449	978
1892.718	972
1896.982	961
1901.243	942
1905.499	935
1909.752	917
1914	902
1918.245	909
1922.485	873
1926.722	870
1930.954	878
1935.183	873
1939.408	868
1943.628	865
1947.845	853
1952.058	852
1956.267	847
1960.472	830
1964.673	810
1968.87	822
1973.063	814
1977.252	789
1981.438	812
1985.619	796
1989.797	807
1993.971	804
1998.14	811
2002.306	798
2006.469	800
2010.627	812
2014.781	815
2018.932	818
2023.078	813
2027.221	796
2031.36	797
2035.495	785
2039.627	769
2043.754	761
2047.878	757
2051.998	747
2056.114	747
2060.226	751
2064.334	741
2068.439	743
2072.54	728
2076.637	730
2080.73	729
2084.82	721
2088.906	723
2092.988	719
2097.066	710
2101.14	705
2105.211	691
2109.278	672
2113.342	676
2117.401	665
2121.457	664
2125.509	655
2129.558	652
2133.602	659
2137.643	653
2141.681	663
2145.714	655
2149.744	644
2153.77	649
2157.793	645
2161.812	643
2165.827	645
2169.838	627
2173.846	617
2177.851	623
2181.851	604
2185.848	600
2189.841	600
2193.831	592
2197.817	592
2201.799	588
2205.778	576
2209.753	587
2213.725	578
2217.693	585
2221.657	581
2225.618	576
2229.575	580
2233.529	561
2237.479	571
2241.425	550
2245.368	559
2249.307	549
2253.243	530
2257.175	521
2261.104	525
2265.029	510
2268.95	513
2272.868	502
2276.783	492
2280.694	489
2284.601	486
2288.505	481
2292.405	468
2296.302	485
2300.195	455
2304.085	454
2307.971	450
2311.854	447
2315.734	425
2319.609	427
2323.482	425
2327.351	435
2331.216	441
2335.078	444
2338.937	424
2342.792	416
2346.643	401
2350.492	426
2354.336	420
2358.178	408
2362.015	414
2365.85	415
2369.681	405
2373.508	421
2377.333	411
2381.153	415
2384.971	416
2388.785	412
2392.595	417
2396.402	407
2400.206	403
2404.007	396
2407.804	395
2411.597	392
2415.388	387
2419.174	396
2422.958	376
2426.738	389
2430.515	386
2434.289	392
2438.059	379
2441.825	374
2445.589	373
2449.349	372
2453.106	362
2456.859	363
2460.61	357
2464.356	354
2468.1	338
2471.84	342
2475.577	341
2479.311	329
2483.041	334
2486.768	327
2490.492	333
2494.213	318
2497.93	332
2501.644	322
2505.355	310
2509.062	309
2512.766	309
2516.467	301
2520.165	306
2523.859	308
2527.551	299
2531.239	286
2534.923	284
2538.605	285
2542.283	276
2545.958	270
2549.63	272
2553.299	276
2556.964	277
2560.626	267
2564.285	262
2567.941	256
2571.594	258
2575.243	255
2578.89	245
2582.533	250
2586.173	245
2589.809	238
2593.443	237
2597.073	238
2600.701	228
2604.325	232
2607.946	224
2611.564	236
2615.178	230
2618.79	236
2622.398	222
2626.004	230
2629.606	220
2633.205	211
2636.801	211
2640.394	218
2643.983	211
2647.57	209
2651.153	208
2654.734	205
2658.311	198
2661.885	192
2665.456	200
2669.025	199
2672.589	193
2676.151	191
2679.71	191
2683.266	182
2686.819	187
2690.368	188
2693.915	177
2697.458	171
2700.999	176
2704.536	172
2708.071	165
2711.602	159
2715.13	165
2718.656	160
2722.178	151
2725.697	141
2729.214	143
2732.727	151
2736.237	146
2739.744	150
2743.249	140
2746.75	142
2750.248	127
2753.743	133
2757.236	130
2760.725	132
2764.211	117
2767.695	114
2771.175	120
2774.652	109
2778.127	119
2781.598	111
2785.067	124
2788.532	124
2791.995	118
2795.455	119
2798.911	118
2802.365	117
2805.816	131
2809.264	122
2812.709	118
2816.151	126
2819.59	121
2823.026	115
2826.46	119
2829.89	120
2833.318	119
2836.742	124
2840.164	115
2843.583	128
2846.999	135
2850.412	120
2853.822	128
2857.229	129
2860.634	135
2864.035	140
2867.434	141
2870.83	154
2874.223	156
2877.613	159
2881	175
2884.385	176
2887.766	157
2891.145	163
2894.521	163
2897.894	169
2901.264	167
2904.631	175
2907.996	182
2911.358	184
2914.717	178
2918.073	177
2921.426	186
2924.777	190
2928.124	204
2931.469	204
2934.811	218
2938.15	210
2941.487	220
2944.821	218
2948.152	220
2951.48	212
2954.805	214
2958.128	210
2961.447	194
2964.765	207
2968.079	199
2971.39	203
2974.699	202
2978.005	210
2981.308	206
2984.609	211
2987.907	197
2991.202	220
2994.494	222
2997.784	216
3001.07	216
3004.355	223
3007.636	231
3010.915	214
3014.191	223
3017.464	241
3020.734	230
3024.002	234
3027.267	237
3030.53	249
3033.789	254
3037.046	255
3040.301	258
3043.552	280
3046.801	277
3050.048	283
3053.291	297
3056.532	307
3059.771	310
3063.006	328
3066.239	338
3069.469	353
3072.697	357
3075.922	371
3079.144	371
3082.364	390
3085.581	398
3088.795	404
3092.007	410
3095.216	415
3098.423	436
3101.627	448
3104.828	454
3108.026	447
3111.222	473
3114.416	474
3117.607	495
3120.795	503
3123.98	500
3127.163	520
3130.344	536
3133.521	531
3136.696	555
3139.869	569
3143.039	581
3146.206	584
3149.371	595
3152.533	604
3155.693	620
3158.85	610
3162.005	623
3165.157	615
3168.306	624
3171.453	598
3174.597	627
3177.739	622
3180.878	637
3184.014	622
3187.149	631
3190.28	643
3193.409	637
3196.536	639
3199.659	643
3202.781	661
3205.9	654
3209.016	639
3212.13	641
3215.241	644
3218.35	634
3221.456	631
3224.56	626
3227.661	623
3230.76	608
3233.856	590
3236.95	583
3240.041	586
3243.13	569
3246.216	568
3249.3	550
3252.382	540
3255.46	553
3258.537	534
3261.611	528
3264.682	511
3267.751	532
3270.818	519
3273.882	514
3276.943	518
3280.002	516
3283.059	502
3286.113	494
3289.165	497
3292.214	508
3295.261	490
3298.306	500
3301.348	472
3304.387	463
3307.425	478
3310.459	458
3313.492	448
3316.521	451
3319.549	432
3322.574	445
3325.597	438
3328.617	455
3331.635	439
3334.65	439
3337.663	411
3340.674	425
3343.682	436
3346.688	416
3349.691	446
3352.692	427
3355.691	426
3358.687	439
3361.681	417
3364.673	418
3367.662	416
3370.649	399
3373.633	395
3376.615	381
3379.595	386
3382.572	376
3385.547	374
3388.52	361
3391.49	360
3394.458	357
3397.424	348
3400.387	342
3403.348	341
3406.307	338
3409.263	331
3412.217	332
3415.168	328
3418.118	326
3421.065	308
3424.009	306
3426.951	300
3429.891	297
3432.829	281
3435.764	276
3438.697	277
3441.628	255
3444.557	250
3447.483	236
3450.407	228
3453.328	219
3456.247	221
3459.164	208
3462.079	199
3464.991	191
3467.902	183
3470.809	175
3473.715	162
3476.618	149
3479.519	151
3482.418	145
3485.315	130
3488.209	132
3491.101	119
3493.99	126
3496.878	102
3499.763	95
3502.646	93
3505.527	87
3508.405	84
3511.281	81
3514.155	71
3517.027	68
3519.897	54
3522.764	44
3525.629	46
3528.492	35
3531.352	30
3534.211	30
3537.067	16
3539.921	15
3542.773	9
3545.622	3
3548.469	-6
3551.315	-2
3554.157	-13
3556.998	-21
3559.837	-21
3562.673	-19
3565.507	-22
3568.339	-33
3571.169	-40
3573.996	-36
3576.822	-38
3579.645	-37
3582.466	-43
3585.285	-51
3588.101	-40
3590.916	-55
3593.728	-67
3596.538	-56
3599.346	-63
3602.152	-62
3604.956	-66
3607.757	-65
3610.556	-72
3613.354	-70
3616.149	-85
3618.942	-81
3621.732	-78
3624.521	-84
3627.307	-83
3630.092	-80
3632.874	-83
3635.654	-91
3638.432	-93
3641.208	-94
3643.982	-97
3646.753	-97
3649.523	-98
3652.29	-99
3655.055	-98
3657.818	-102
3660.579	-94
3663.338	-102
3666.095	-111
3668.849	-110
3671.602	-109
3674.352	-117
3677.101	-110
3679.847	-106
3682.591	-114
3685.333	-115
3688.073	-117
3690.811	-118
3693.547	-119
3696.281	-121
3699.013	-122
3701.742	-123
3704.47	-122
3707.195	-119
3709.919	-124
3712.64	-125
3715.359	-126
3718.076	-128
3720.792	-126
3723.505	-129
3726.216	-118
3728.925	-130
3731.632	-127
3734.336	-133
3737.039	-131
3739.74	-130
3742.439	-138
3745.136	-127
3747.83	-129
3750.523	-132
3753.213	-130
3755.902	-129
3758.589	-137
3761.273	-129
3763.956	-132
3766.636	-134
3769.315	-131
3771.991	-128
3774.665	-133
3777.338	-130
3780.008	-135
3782.677	-136
3785.343	-137
3788.007	-135
3790.67	-135
3793.33	-129
3795.989	-132
3798.645	-131
3801.299	-133
3803.952	-136
3806.602	-135
3809.251	-139
3811.897	-141
3814.542	-135
3817.184	-132
3819.825	-135
3822.463	-138
3825.1	-138
3827.735	-135
3830.367	-138
3832.998	-140
3835.627	-135
3838.253	-138
3840.878	-136
3843.501	-129
3846.122	-140
3848.741	-144
3851.358	-134
3853.973	-141
3856.586	-134
3859.197	-140
3861.806	-134
3864.414	-139
3867.019	-131
3869.622	-139
3872.224	-124
3874.823	-117
3877.421	-102
3880.016	-74
3882.61	-57
3885.202	-48
3887.792	-62
3890.38	-97
3892.966	-122
3895.55	-126
3898.132	-131
3900.713	-132
3903.291	-140
3905.868	-143
3908.442	-135
3911.015	-138
3913.586	-138
3916.155	-142
3918.722	-138
3921.287	-134
3923.85	-137
3926.411	-141
3928.971	-136
3931.528	-140
3934.084	-142
3936.638	-138
3939.19	-143
3941.74	-147
3944.288	-133
3946.834	-139
3949.378	-139
3951.921	-142
3954.462	-148
3957	-142
3959.537	-136
3962.072	-140
3964.606	-128
3967.137	-137
3969.667	-138
3972.194	-143
3974.72	-145
3977.244	-142
3979.766	-143
3982.286	-133
3984.805	-136
3987.321	-139
3989.836	-134
3992.349	-142
3994.86	-139
3997.369	-141
3999.877	-146
4002.382	-134
4004.886	-139
4007.388	-136
4009.888	-137
4012.386	-143
4014.883	-137
4017.377	-143
4019.87	-138
4022.361	-145
4024.85	-140
4027.338	-132
4029.823	-133
4032.307	-137
4034.789	-142
4037.269	-143
4039.747	-132
4042.224	-138
4044.699	-141
4047.172	-133
4049.643	-137
4052.112	-139
4054.58	-140
4057.046	-141
4059.51	-143
4061.972	-135
4064.432	-139
4066.891	-139
4069.348	-132
4071.803	-140
4074.256	-143
4076.708	-140
4079.158	-141
4081.606	-132
4084.052	-141
4086.497	-138
4088.939	-129
4091.38	-137
4093.819	-141
4096.257	-146
4098.693	-144
4101.127	-145
4103.559	-144
4105.989	8
4108.418	14
4110.845	5
4113.27	9
4115.694	-6
4118.115	-2
4120.535	-144
4122.954	-143
4125.37	-134
4127.785	-142
4130.198	-137
4132.609	-136
4135.019	-145
4137.427	-145
4139.833	-149
4142.237	-149
