Data from 2018-2-8_conc=3_n=5_RamanShift_02.txt Node
Date: Mon Mar 12 14:41:58 IST 2018
User: aro
Spectrometer: QEPB0276
Trigger mode: 0
Integration Time (sec): 3.000000E1
Scans to average: 1
Electric dark correction enabled: true
Nonlinearity correction enabled: false
Boxcar width: 0
XAxis mode: Raman Shifts
Number of Pixels in Spectrum: 1044
>>>>>Begin Spectral Data<<<<<
160.701	20
166.742	48
172.777	124
178.805	357
184.826	946
190.841	2018
196.849	3385
202.85	4423
208.845	4859
214.833	4799
220.815	4742
226.789	4727
232.758	4734
238.719	4754
244.674	4734
250.623	4683
256.565	4635
262.5	4534
268.429	4480
274.351	4470
280.267	4435
286.176	4359
292.079	4394
297.975	4389
303.865	4358
309.748	4341
315.625	4348
321.495	4334
327.359	4316
333.217	4328
339.068	4351
344.912	4380
350.751	4386
356.583	4372
362.408	4387
368.227	4388
374.04	4405
379.847	4424
385.647	4447
391.44	4459
397.228	4461
403.009	4487
408.784	4546
414.553	4514
420.315	4543
426.071	4552
431.821	4546
437.565	4550
443.302	4552
449.033	4505
454.758	4507
460.477	4462
466.189	4459
471.896	4404
477.596	4365
483.29	4345
488.978	4388
494.66	4336
500.335	4267
506.005	4142
511.668	4027
517.325	3873
522.977	3772
528.622	3688
534.261	3638
539.894	3616
545.521	3568
551.141	3555
556.756	3508
562.365	3480
567.968	3464
573.565	3443
579.155	3414
584.74	3412
590.319	3396
595.892	3424
601.459	3381
607.02	3357
612.575	3354
618.124	3312
623.667	3270
629.204	3260
634.735	3215
640.261	3187
645.781	3148
651.294	3180
656.802	3148
662.304	3148
667.8	3144
673.29	3131
678.775	3118
684.254	3122
689.726	3097
695.193	3092
700.655	3094
706.11	3042
711.56	3060
717.004	3020
722.442	3015
727.874	3009
733.301	2971
738.722	2959
744.137	2969
749.547	2961
754.951	2955
760.349	2982
765.741	2965
771.128	2956
776.509	3005
781.885	3019
787.254	3037
792.618	3030
797.977	3047
803.33	2998
808.677	2991
814.019	2949
819.355	2919
824.686	2916
830.011	2871
835.33	2911
840.644	2873
845.952	2864
851.255	2872
856.552	2849
861.844	2854
867.13	2831
872.41	2783
877.686	2786
882.955	2751
888.219	2728
893.478	2683
898.731	2675
903.979	2633
909.221	2591
914.458	2614
919.69	2613
924.916	2599
930.136	2615
935.351	2594
940.561	2608
945.766	2611
950.965	2579
956.158	2580
961.347	2555
966.529	2531
971.707	2467
976.879	2458
982.046	2428
987.208	2404
992.364	2430
997.515	2432
1002.66	2452
1007.801	2454
1012.936	2479
1018.066	2488
1023.19	2472
1028.309	2496
1033.423	2498
1038.532	2470
1043.636	2458
1048.734	2435
1053.827	2413
1058.915	2390
1063.998	2352
1069.075	2355
1074.147	2338
1079.214	2357
1084.276	2365
1089.333	2376
1094.385	2377
1099.431	2374
1104.472	2389
1109.509	2356
1114.54	2326
1119.565	2312
1124.586	2289
1129.602	2238
1134.613	2220
1139.618	2208
1144.619	2210
1149.614	2222
1154.604	2220
1159.589	2214
1164.57	2225
1169.545	2233
1174.515	2257
1179.48	2234
1184.44	2208
1189.395	2188
1194.345	2182
1199.29	2149
1204.23	2151
1209.165	2162
1214.095	2154
1219.021	2181
1223.941	2191
1228.856	2200
1233.766	2213
1238.672	2210
1243.572	2210
1248.467	2186
1253.358	2160
1258.244	2142
1263.124	2104
1268	2043
1272.871	2040
1277.737	2013
1282.599	2007
1287.455	1998
1292.306	2008
1297.153	2012
1301.995	2047
1306.832	2036
1311.664	2063
1316.491	2061
1321.314	2053
1326.132	2044
1330.945	2023
1335.753	2014
1340.556	1957
1345.354	1919
1350.148	1894
1354.937	1867
1359.722	1832
1364.501	1816
1369.276	1790
1374.046	1733
1378.811	1718
1383.572	1714
1388.327	1732
1393.079	1707
1397.825	1713
1402.567	1704
1407.304	1724
1412.036	1724
1416.764	1748
1421.487	1723
1426.205	1732
1430.919	1741
1435.628	1726
1440.333	1772
1445.032	1779
1449.727	1780
1454.418	1784
1459.104	1783
1463.785	1768
1468.462	1734
1473.134	1706
1477.802	1663
1482.465	1626
1487.123	1585
1491.777	1585
1496.426	1567
1501.071	1559
1505.711	1543
1510.347	1562
1514.978	1549
1519.604	1529
1524.226	1532
1528.844	1514
1533.457	1517
1538.065	1515
1542.669	1516
1547.269	1517
1551.864	1517
1556.454	1524
1561.041	1539
1565.622	1533
1570.199	1550
1574.772	1558
1579.34	1571
1583.904	1605
1588.464	1608
1593.019	1619
1597.569	1604
1602.115	1630
1606.657	1607
1611.195	1591
1615.728	1603
1620.256	1590
1624.78	1597
1629.3	1602
1633.816	1608
1638.327	1629
1642.834	1628
1647.336	1626
1651.834	1635
1656.328	1638
1660.817	1639
1665.302	1624
1669.783	1572
1674.259	1544
1678.732	1489
1683.199	1473
1687.663	1428
1692.122	1392
1696.577	1330
1701.028	1266
1705.474	1222
1709.917	1183
1714.355	1156
1718.788	1159
1723.218	1137
1727.643	1156
1732.064	1148
1736.481	1133
1740.893	1112
1745.301	1086
1749.705	1062
1754.105	1049
1758.501	1028
1762.893	1020
1767.28	991
1771.663	984
1776.042	989
1780.417	973
1784.787	963
1789.154	960
1793.516	955
1797.874	935
1802.228	921
1806.578	899
1810.924	886
1815.266	884
1819.603	888
1823.937	867
1828.266	895
1832.591	879
1836.913	886
1841.23	893
1845.543	891
1849.852	880
1854.156	887
1858.457	883
1862.754	892
1867.047	884
1871.335	877
1875.62	885
1879.9	884
1884.177	874
1888.449	863
1892.718	860
1896.982	851
1901.243	844
1905.499	835
1909.752	825
1914	806
1918.245	798
1922.485	792
1926.722	789
1930.954	784
1935.183	779
1939.408	768
1943.628	760
1947.845	758
1952.058	761
1956.267	753
1960.472	744
1964.673	744
1968.87	721
1973.063	722
1977.252	709
1981.438	729
1985.619	710
1989.797	705
1993.971	718
1998.14	724
2002.306	718
2006.469	727
2010.627	715
2014.781	728
2018.932	715
2023.078	735
2027.221	721
2031.36	703
2035.495	698
2039.627	692
2043.754	678
2047.878	672
2051.998	657
2056.114	662
2060.226	664
2064.334	658
2068.439	666
2072.54	647
2076.637	671
2080.73	652
2084.82	646
2088.906	641
2092.988	653
2097.066	633
2101.14	621
2105.211	618
2109.278	604
2113.342	587
2117.401	598
2121.457	597
2125.509	595
2129.558	587
2133.602	575
2137.643	594
2141.681	571
2145.714	567
2149.744	585
2153.77	575
2157.793	567
2161.812	576
2165.827	574
2169.838	559
2173.846	542
2177.851	532
2181.851	521
2185.848	524
2189.841	524
2193.831	528
2197.817	513
2201.799	516
2205.778	520
2209.753	503
2213.725	509
2217.693	501
2221.657	503
2225.618	510
2229.575	500
2233.529	502
2237.479	490
2241.425	492
2245.368	473
2249.307	465
2253.243	464
2257.175	466
2261.104	466
2265.029	445
2268.95	445
2272.868	440
2276.783	429
2280.694	439
2284.601	427
2288.505	422
2292.405	406
2296.302	393
2300.195	399
2304.085	388
2307.971	380
2311.854	386
2315.734	376
2319.609	374
2323.482	373
2327.351	370
2331.216	390
2335.078	397
2338.937	379
2342.792	368
2346.643	361
2350.492	356
2354.336	348
2358.178	352
2362.015	369
2365.85	367
2369.681	355
2373.508	361
2377.333	346
2381.153	356
2384.971	363
2388.785	362
2392.595	341
2396.402	342
2400.206	347
2404.007	341
2407.804	336
2411.597	340
2415.388	339
2419.174	328
2422.958	330
2426.738	330
2430.515	333
2434.289	327
2438.059	313
2441.825	315
2445.589	319
2449.349	311
2453.106	322
2456.859	311
2460.61	312
2464.356	302
2468.1	288
2471.84	286
2475.577	298
2479.311	281
2483.041	273
2486.768	284
2490.492	283
2494.213	277
2497.93	269
2501.644	269
2505.355	267
2509.062	272
2512.766	267
2516.467	271
2520.165	260
2523.859	254
2527.551	254
2531.239	244
2534.923	228
2538.605	235
2542.283	230
2545.958	245
2549.63	239
2553.299	227
2556.964	235
2560.626	227
2564.285	215
2567.941	231
2571.594	220
2575.243	211
2578.89	213
2582.533	215
2586.173	212
2589.809	201
2593.443	208
2597.073	200
2600.701	189
2604.325	196
2607.946	192
2611.564	194
2615.178	191
2618.79	188
2622.398	195
2626.004	192
2629.606	188
2633.205	188
2636.801	179
2640.394	178
2643.983	176
2647.57	177
2651.153	178
2654.734	168
2658.311	167
2661.885	164
2665.456	165
2669.025	168
2672.589	162
2676.151	163
2679.71	163
2683.266	161
2686.819	155
2690.368	159
2693.915	151
2697.458	138
2700.999	143
2704.536	147
2708.071	138
2711.602	138
2715.13	136
2718.656	134
2722.178	128
2725.697	124
2729.214	119
2732.727	130
2736.237	119
2739.744	120
2743.249	117
2746.75	119
2750.248	109
2753.743	114
2757.236	111
2760.725	116
2764.211	104
2767.695	99
2771.175	90
2774.652	97
2778.127	92
2781.598	102
2785.067	100
2788.532	101
2791.995	100
2795.455	104
2798.911	95
2802.365	98
2805.816	106
2809.264	97
2812.709	104
2816.151	100
2819.59	108
2823.026	96
2826.46	94
2829.89	104
2833.318	104
2836.742	106
2840.164	103
2843.583	102
2846.999	107
2850.412	103
2853.822	104
2857.229	105
2860.634	121
2864.035	112
2867.434	124
2870.83	116
2874.223	130
2877.613	131
2881	145
2884.385	141
2887.766	133
2891.145	128
2894.521	132
2897.894	134
2901.264	139
2904.631	142
2907.996	140
2911.358	142
2914.717	150
2918.073	151
2921.426	154
2924.777	168
2928.124	159
2931.469	156
2934.811	171
2938.15	166
2941.487	177
2944.821	175
2948.152	180
2951.48	172
2954.805	179
2958.128	180
2961.447	180
2964.765	172
2968.079	166
2971.39	174
2974.699	188
2978.005	178
2981.308	181
2984.609	180
2987.907	173
2991.202	181
2994.494	179
2997.784	175
3001.07	195
3004.355	205
3007.636	200
3010.915	193
3014.191	192
3017.464	196
3020.734	210
3024.002	204
3027.267	212
3030.53	228
3033.789	223
3037.046	235
3040.301	225
3043.552	241
3046.801	247
3050.048	254
3053.291	259
3056.532	273
3059.771	277
3063.006	293
3066.239	303
3069.469	308
3072.697	319
3075.922	325
3079.144	337
3082.364	347
3085.581	360
3088.795	349
3092.007	372
3095.216	371
3098.423	390
3101.627	401
3104.828	399
3108.026	413
3111.222	422
3114.416	427
3117.607	449
3120.795	445
3123.98	452
3127.163	468
3130.344	484
3133.521	496
3136.696	504
3139.869	515
3143.039	512
3146.206	524
3149.371	531
3152.533	537
3155.693	541
3158.85	553
3162.005	561
3165.157	564
3168.306	550
3171.453	552
3174.597	558
3177.739	559
3180.878	573
3184.014	577
3187.149	576
3190.28	571
3193.409	579
3196.536	583
3199.659	582
3202.781	577
3205.9	581
3209.016	586
3212.13	583
3215.241	589
3218.35	567
3221.456	561
3224.56	564
3227.661	550
3230.76	554
3233.856	547
3236.95	523
3240.041	531
3243.13	511
3246.216	501
3249.3	494
3252.382	485
3255.46	491
3258.537	491
3261.611	475
3264.682	479
3267.751	478
3270.818	473
3273.882	471
3276.943	470
3280.002	467
3283.059	459
3286.113	460
3289.165	457
3292.214	458
3295.261	431
3298.306	430
3301.348	430
3304.387	428
3307.425	420
3310.459	428
3313.492	408
3316.521	409
3319.549	407
3322.574	398
3325.597	395
3328.617	400
3331.635	400
3334.65	398
3337.663	382
3340.674	384
3343.682	385
3346.688	372
3349.691	383
3352.692	380
3355.691	379
3358.687	371
3361.681	378
3364.673	373
3367.662	365
3370.649	355
3373.633	353
3376.615	345
3379.595	339
3382.572	343
3385.547	338
3388.52	331
3391.49	314
3394.458	318
3397.424	317
3400.387	309
3403.348	304
3406.307	294
3409.263	291
3412.217	280
3415.168	298
3418.118	280
3421.065	273
3424.009	264
3426.951	268
3429.891	267
3432.829	248
3435.764	240
3438.697	239
3441.628	237
3444.557	235
3447.483	219
3450.407	211
3453.328	194
3456.247	196
3459.164	177
3462.079	174
3464.991	164
3467.902	163
3470.809	161
3473.715	139
3476.618	136
3479.519	135
3482.418	122
3485.315	113
3488.209	115
3491.101	108
3493.99	112
3496.878	97
3499.763	92
3502.646	85
3505.527	76
3508.405	82
3511.281	71
3514.155	65
3517.027	59
3519.897	49
3522.764	39
3525.629	29
3528.492	33
3531.352	29
3534.211	21
3537.067	23
3539.921	14
3542.773	6
3545.622	-12
3548.469	-11
3551.315	-8
3554.157	-12
3556.998	-19
3559.837	-22
3562.673	-27
3565.507	-23
3568.339	-35
3571.169	-43
3573.996	-39
3576.822	-37
3579.645	-39
3582.466	-36
3585.285	-45
3588.101	-39
3590.916	-62
3593.728	-60
3596.538	-60
3599.346	-60
3602.152	-58
3604.956	-58
3607.757	-63
3610.556	-74
3613.354	-67
3616.149	-82
3618.942	-77
3621.732	-79
3624.521	-82
3627.307	-78
3630.092	-81
3632.874	-81
3635.654	-84
3638.432	-82
3641.208	-89
3643.982	-93
3646.753	-90
3649.523	-93
3652.29	-92
3655.055	-93
3657.818	-89
3660.579	-96
3663.338	-96
3666.095	-101
3668.849	-96
3671.602	-101
3674.352	-102
3677.101	-104
3679.847	-107
3682.591	-113
3685.333	-106
3688.073	-107
3690.811	-107
3693.547	-115
3696.281	-114
3699.013	-111
3701.742	-113
3704.47	-111
3707.195	-115
3709.919	-118
3712.64	-113
3715.359	-118
3718.076	-114
3720.792	-119
3723.505	-121
3726.216	-118
3728.925	-118
3731.632	-122
3734.336	-124
3737.039	-121
3739.74	-123
3742.439	-130
3745.136	-117
3747.83	-133
3750.523	-126
3753.213	-119
3755.902	-124
3758.589	-126
3761.273	-118
3763.956	-116
3766.636	-124
3769.315	-117
3771.991	-121
3774.665	-129
3777.338	-124
3780.008	-129
3782.677	-124
3785.343	-125
3788.007	-123
3790.67	-123
3793.33	-120
3795.989	-120
3798.645	-122
3801.299	-125
3803.952	-132
3806.602	-119
3809.251	-132
3811.897	-128
3814.542	-127
3817.184	-126
3819.825	-129
3822.463	-129
3825.1	-125
3827.735	-125
3830.367	-128
3832.998	-130
3835.627	-128
3838.253	-126
3840.878	-125
3843.501	-123
3846.122	-123
3848.741	-133
3851.358	-125
3853.973	-127
3856.586	-119
3859.197	-133
3861.806	-121
3864.414	-133
3867.019	-124
3869.622	-127
3872.224	-115
3874.823	-101
3877.421	-90
3880.016	-72
3882.61	-40
3885.202	-42
3887.792	-61
3890.38	-91
3892.966	-108
3895.55	-119
3898.132	-124
3900.713	-129
3903.291	-130
3905.868	-129
3908.442	-127
3911.015	-136
3913.586	-133
3916.155	-136
3918.722	-129
3921.287	-130
3923.85	-129
3926.411	-135
3928.971	-134
3931.528	-134
3934.084	-128
3936.638	-126
3939.19	-135
3941.74	-130
3944.288	-129
3946.834	-128
3949.378	-126
3951.921	-132
3954.462	-133
3957	-129
3959.537	-126
3962.072	-127
3964.606	-124
3967.137	-123
3969.667	-132
3972.194	-132
3974.72	-124
3977.244	-133
3979.766	-130
3982.286	-129
3984.805	-127
3987.321	-126
3989.836	-119
3992.349	-131
3994.86	-130
3997.369	-129
3999.877	-130
4002.382	-125
4004.886	-129
4007.388	-126
4009.888	-125
4012.386	-131
4014.883	-131
4017.377	-128
4019.87	-126
4022.361	-134
4024.85	-127
4027.338	-125
4029.823	-125
4032.307	-125
4034.789	-129
4037.269	-129
4039.747	-128
4042.224	-129
4044.699	-126
4047.172	-123
4049.643	-124
4052.112	-128
4054.58	-126
4057.046	-128
4059.51	-131
4061.972	-128
4064.432	-126
4066.891	-128
4069.348	-125
4071.803	-133
4074.256	-127
4076.708	-133
4079.158	-125
4081.606	-123
4084.052	-132
4086.497	-124
4088.939	-123
4091.38	-128
4093.819	-124
4096.257	-137
4098.693	-133
4101.127	-134
4103.559	-131
4105.989	20
4108.418	11
4110.845	12
4113.27	5
4115.694	4
4118.115	0
4120.535	-136
4122.954	-136
4125.37	-127
4127.785	-128
4130.198	-124
4132.609	-126
4135.019	-134
4137.427	-136
4139.833	-138
4142.237	-141
