Data from 2018-2-8_conc=0_n=10_RamanShift_05.txt Node
Date: Mon Mar 12 13:52:58 IST 2018
User: aro
Spectrometer: QEPB0276
Trigger mode: 0
Integration Time (sec): 3.000000E1
Scans to average: 1
Electric dark correction enabled: true
Nonlinearity correction enabled: false
Boxcar width: 0
XAxis mode: Raman Shifts
Number of Pixels in Spectrum: 1044
>>>>>Begin Spectral Data<<<<<
160.701	14
166.742	34
172.777	107
178.805	333
184.826	903
190.841	1991
196.849	3349
202.85	4367
208.845	4783
214.833	4806
220.815	4727
226.789	4726
232.758	4735
238.719	4713
244.674	4724
250.623	4652
256.565	4571
262.5	4515
268.429	4482
274.351	4429
280.267	4404
286.176	4385
292.079	4335
297.975	4355
303.865	4340
309.748	4320
315.625	4305
321.495	4299
327.359	4304
333.217	4281
339.068	4302
344.912	4312
350.751	4311
356.583	4319
362.408	4337
368.227	4327
374.04	4358
379.847	4338
385.647	4376
391.44	4356
397.228	4430
403.009	4434
408.784	4440
414.553	4448
420.315	4467
426.071	4464
431.821	4442
437.565	4460
443.302	4436
449.033	4445
454.758	4449
460.477	4418
466.189	4374
471.896	4340
477.596	4318
483.29	4307
488.978	4319
494.66	4299
500.335	4250
506.005	4161
511.668	4040
517.325	3885
522.977	3812
528.622	3737
534.261	3682
539.894	3623
545.521	3603
551.141	3589
556.756	3569
562.365	3559
567.968	3526
573.565	3515
579.155	3487
584.74	3446
590.319	3446
595.892	3471
601.459	3420
607.02	3444
612.575	3431
618.124	3363
623.667	3336
629.204	3327
634.735	3269
640.261	3257
645.781	3242
651.294	3259
656.802	3243
662.304	3220
667.8	3215
673.29	3220
678.775	3220
684.254	3188
689.726	3194
695.193	3179
700.655	3154
706.11	3141
711.56	3097
717.004	3100
722.442	3082
727.874	3060
733.301	3073
738.722	3050
744.137	3036
749.547	3036
754.951	3029
760.349	3027
765.741	3047
771.128	3030
776.509	3065
781.885	3094
787.254	3075
792.618	3088
797.977	3077
803.33	3047
808.677	3029
814.019	3002
819.355	2989
824.686	2982
830.011	2988
835.33	2956
840.644	2952
845.952	2954
851.255	2949
856.552	2941
861.844	2924
867.13	2907
872.41	2884
877.686	2899
882.955	2860
888.219	2861
893.478	2797
898.731	2748
903.979	2728
909.221	2704
914.458	2678
919.69	2668
924.916	2686
930.136	2709
935.351	2687
940.561	2710
945.766	2694
950.965	2673
956.158	2670
961.347	2643
966.529	2601
971.707	2581
976.879	2518
982.046	2519
987.208	2515
992.364	2494
997.515	2506
1002.66	2525
1007.801	2555
1012.936	2575
1018.066	2586
1023.19	2601
1028.309	2592
1033.423	2600
1038.532	2584
1043.636	2546
1048.734	2533
1053.827	2498
1058.915	2476
1063.998	2458
1069.075	2457
1074.147	2437
1079.214	2461
1084.276	2451
1089.333	2466
1094.385	2491
1099.431	2507
1104.472	2460
1109.509	2477
1114.54	2423
1119.565	2405
1124.586	2382
1129.602	2320
1134.613	2331
1139.618	2299
1144.619	2298
1149.614	2294
1154.604	2302
1159.589	2329
1164.57	2323
1169.545	2318
1174.515	2335
1179.48	2304
1184.44	2296
1189.395	2269
1194.345	2259
1199.29	2249
1204.23	2252
1209.165	2233
1214.095	2248
1219.021	2280
1223.941	2275
1228.856	2297
1233.766	2308
1238.672	2308
1243.572	2290
1248.467	2287
1253.358	2276
1258.244	2232
1263.124	2205
1268	2175
1272.871	2147
1277.737	2133
1282.599	2102
1287.455	2104
1292.306	2123
1297.153	2113
1301.995	2134
1306.832	2140
1311.664	2183
1316.491	2165
1321.314	2154
1326.132	2158
1330.945	2148
1335.753	2094
1340.556	2064
1345.354	2037
1350.148	2020
1354.937	1969
1359.722	1940
1364.501	1894
1369.276	1858
1374.046	1829
1378.811	1812
1383.572	1783
1388.327	1806
1393.079	1814
1397.825	1803
1402.567	1806
1407.304	1806
1412.036	1830
1416.764	1819
1421.487	1834
1426.205	1842
1430.919	1837
1435.628	1849
1440.333	1861
1445.032	1865
1449.727	1889
1454.418	1890
1459.104	1887
1463.785	1855
1468.462	1839
1473.134	1811
1477.802	1769
1482.465	1708
1487.123	1680
1491.777	1658
1496.426	1654
1501.071	1639
1505.711	1623
1510.347	1624
1514.978	1604
1519.604	1614
1524.226	1614
1528.844	1581
1533.457	1570
1538.065	1585
1542.669	1576
1547.269	1577
1551.864	1581
1556.454	1603
1561.041	1620
1565.622	1609
1570.199	1636
1574.772	1637
1579.34	1645
1583.904	1678
1588.464	1693
1593.019	1695
1597.569	1693
1602.115	1690
1606.657	1684
1611.195	1646
1615.728	1670
1620.256	1659
1624.78	1662
1629.3	1665
1633.816	1662
1638.327	1695
1642.834	1683
1647.336	1693
1651.834	1677
1656.328	1694
1660.817	1678
1665.302	1678
1669.783	1643
1674.259	1604
1678.732	1587
1683.199	1536
1687.663	1472
1692.122	1426
1696.577	1361
1701.028	1326
1705.474	1274
1709.917	1236
1714.355	1198
1718.788	1204
1723.218	1196
1727.643	1212
1732.064	1202
1736.481	1183
1740.893	1164
1745.301	1149
1749.705	1129
1754.105	1109
1758.501	1094
1762.893	1066
1767.28	1054
1771.663	1047
1776.042	1033
1780.417	1034
1784.787	998
1789.154	991
1793.516	982
1797.874	972
1802.228	959
1806.578	954
1810.924	947
1815.266	925
1819.603	922
1823.937	919
1828.266	926
1832.591	933
1836.913	930
1841.23	928
1845.543	931
1849.852	921
1854.156	922
1858.457	932
1862.754	938
1867.047	932
1871.335	941
1875.62	941
1879.9	936
1884.177	922
1888.449	910
1892.718	903
1896.982	902
1901.243	872
1905.499	860
1909.752	863
1914	853
1918.245	830
1922.485	824
1926.722	820
1930.954	826
1935.183	819
1939.408	799
1943.628	808
1947.845	776
1952.058	777
1956.267	785
1960.472	789
1964.673	773
1968.87	763
1973.063	752
1977.252	738
1981.438	748
1985.619	747
1989.797	740
1993.971	760
1998.14	768
2002.306	747
2006.469	768
2010.627	758
2014.781	769
2018.932	752
2023.078	752
2027.221	750
2031.36	737
2035.495	733
2039.627	723
2043.754	709
2047.878	706
2051.998	695
2056.114	698
2060.226	694
2064.334	697
2068.439	698
2072.54	686
2076.637	698
2080.73	671
2084.82	670
2088.906	673
2092.988	678
2097.066	667
2101.14	659
2105.211	638
2109.278	638
2113.342	627
2117.401	619
2121.457	611
2125.509	600
2129.558	603
2133.602	623
2137.643	610
2141.681	622
2145.714	617
2149.744	620
2153.77	617
2157.793	612
2161.812	607
2165.827	590
2169.838	600
2173.846	589
2177.851	567
2181.851	570
2185.848	559
2189.841	557
2193.831	564
2197.817	557
2201.799	563
2205.778	554
2209.753	546
2213.725	544
2217.693	548
2221.657	546
2225.618	542
2229.575	542
2233.529	541
2237.479	534
2241.425	529
2245.368	519
2249.307	510
2253.243	505
2257.175	495
2261.104	498
2265.029	492
2268.95	478
2272.868	476
2276.783	467
2280.694	468
2284.601	467
2288.505	453
2292.405	456
2296.302	440
2300.195	443
2304.085	429
2307.971	423
2311.854	423
2315.734	421
2319.609	407
2323.482	414
2327.351	412
2331.216	433
2335.078	436
2338.937	417
2342.792	393
2346.643	402
2350.492	391
2354.336	401
2358.178	403
2362.015	413
2365.85	406
2369.681	405
2373.508	398
2377.333	411
2381.153	407
2384.971	414
2388.785	413
2392.595	401
2396.402	398
2400.206	407
2404.007	393
2407.804	394
2411.597	387
2415.388	388
2419.174	397
2422.958	381
2426.738	386
2430.515	379
2434.289	381
2438.059	363
2441.825	369
2445.589	379
2449.349	364
2453.106	353
2456.859	353
2460.61	357
2464.356	344
2468.1	339
2471.84	335
2475.577	340
2479.311	332
2483.041	328
2486.768	334
2490.492	322
2494.213	336
2497.93	330
2501.644	318
2505.355	318
2509.062	309
2512.766	310
2516.467	302
2520.165	302
2523.859	310
2527.551	297
2531.239	290
2534.923	287
2538.605	287
2542.283	282
2545.958	284
2549.63	272
2553.299	278
2556.964	278
2560.626	272
2564.285	274
2567.941	267
2571.594	267
2575.243	260
2578.89	260
2582.533	250
2586.173	251
2589.809	243
2593.443	254
2597.073	238
2600.701	239
2604.325	228
2607.946	231
2611.564	228
2615.178	238
2618.79	233
2622.398	238
2626.004	221
2629.606	226
2633.205	218
2636.801	216
2640.394	217
2643.983	213
2647.57	223
2651.153	218
2654.734	217
2658.311	205
2661.885	199
2665.456	211
2669.025	204
2672.589	214
2676.151	202
2679.71	208
2683.266	197
2686.819	193
2690.368	191
2693.915	184
2697.458	181
2700.999	187
2704.536	176
2708.071	166
2711.602	165
2715.13	174
2718.656	169
2722.178	166
2725.697	157
2729.214	151
2732.727	162
2736.237	165
2739.744	145
2743.249	157
2746.75	149
2750.248	147
2753.743	141
2757.236	136
2760.725	142
2764.211	128
2767.695	124
2771.175	180
2774.652	262
2778.127	334
2781.598	244
2785.067	269
2788.532	132
2791.995	130
2795.455	125
2798.911	130
2802.365	127
2805.816	134
2809.264	135
2812.709	149
2816.151	137
2819.59	135
2823.026	132
2826.46	127
2829.89	129
2833.318	125
2836.742	134
2840.164	129
2843.583	148
2846.999	241
2850.412	140
2853.822	143
2857.229	131
2860.634	143
2864.035	148
2867.434	143
2870.83	155
2874.223	160
2877.613	159
2881	181
2884.385	166
2887.766	167
2891.145	166
2894.521	176
2897.894	169
2901.264	174
2904.631	165
2907.996	168
2911.358	172
2914.717	177
2918.073	182
2921.426	183
2924.777	188
2928.124	196
2931.469	193
2934.811	199
2938.15	199
2941.487	215
2944.821	203
2948.152	203
2951.48	216
2954.805	207
2958.128	206
2961.447	193
2964.765	198
2968.079	195
2971.39	198
2974.699	202
2978.005	190
2981.308	197
2984.609	202
2987.907	201
2991.202	210
2994.494	198
2997.784	204
3001.07	211
3004.355	212
3007.636	211
3010.915	206
3014.191	212
3017.464	224
3020.734	218
3024.002	217
3027.267	228
3030.53	228
3033.789	243
3037.046	259
3040.301	244
3043.552	261
3046.801	262
3050.048	263
3053.291	260
3056.532	288
3059.771	291
3063.006	296
3066.239	312
3069.469	327
3072.697	330
3075.922	336
3079.144	354
3082.364	364
3085.581	359
3088.795	358
3092.007	374
3095.216	382
3098.423	397
3101.627	394
3104.828	413
3108.026	416
3111.222	425
3114.416	438
3117.607	443
3120.795	456
3123.98	452
3127.163	469
3130.344	482
3133.521	488
3136.696	499
3139.869	511
3143.039	509
3146.206	523
3149.371	532
3152.533	544
3155.693	538
3158.85	547
3162.005	553
3165.157	557
3168.306	552
3171.453	553
3174.597	561
3177.739	557
3180.878	569
3184.014	582
3187.149	569
3190.28	573
3193.409	577
3196.536	578
3199.659	575
3202.781	577
3205.9	580
3209.016	589
3212.13	579
3215.241	571
3218.35	571
3221.456	561
3224.56	558
3227.661	543
3230.76	546
3233.856	532
3236.95	521
3240.041	511
3243.13	504
3246.216	493
3249.3	490
3252.382	504
3255.46	488
3258.537	492
3261.611	479
3264.682	479
3267.751	473
3270.818	471
3273.882	453
3276.943	462
3280.002	456
3283.059	457
3286.113	446
3289.165	449
3292.214	439
3295.261	443
3298.306	429
3301.348	430
3304.387	431
3307.425	419
3310.459	413
3313.492	415
3316.521	406
3319.549	404
3322.574	397
3325.597	393
3328.617	406
3331.635	389
3334.65	397
3337.663	376
3340.674	397
3343.682	391
3346.688	380
3349.691	390
3352.692	379
3355.691	388
3358.687	376
3361.681	375
3364.673	375
3367.662	358
3370.649	354
3373.633	353
3376.615	347
3379.595	342
3382.572	346
3385.547	332
3388.52	322
3391.49	327
3394.458	324
3397.424	307
3400.387	311
3403.348	301
3406.307	298
3409.263	297
3412.217	294
3415.168	294
3418.118	288
3421.065	272
3424.009	275
3426.951	279
3429.891	263
3432.829	243
3435.764	245
3438.697	243
3441.628	236
3444.557	234
3447.483	226
3450.407	216
3453.328	200
3456.247	190
3459.164	184
3462.079	173
3464.991	163
3467.902	164
3470.809	175
3473.715	158
3476.618	143
3479.519	140
3482.418	128
3485.315	119
3488.209	111
3491.101	115
3493.99	120
3496.878	109
3499.763	97
3502.646	95
3505.527	82
3508.405	86
3511.281	72
3514.155	74
3517.027	61
3519.897	55
3522.764	47
3525.629	50
3528.492	32
3531.352	34
3534.211	19
3537.067	16
3539.921	23
3542.773	14
3545.622	5
3548.469	3
3551.315	4
3554.157	-2
3556.998	-15
3559.837	-7
3562.673	-11
3565.507	-13
3568.339	-23
3571.169	-36
3573.996	-30
3576.822	-36
3579.645	-25
3582.466	-24
3585.285	-38
3588.101	-30
3590.916	-38
3593.728	-49
3596.538	-50
3599.346	-47
3602.152	-46
3604.956	-46
3607.757	-48
3610.556	-59
3613.354	-55
3616.149	-66
3618.942	-63
3621.732	-70
3624.521	-63
3627.307	-67
3630.092	-67
3632.874	-65
3635.654	-73
3638.432	-74
3641.208	-75
3643.982	-83
3646.753	-81
3649.523	-83
3652.29	-76
3655.055	-81
3657.818	-81
3660.579	-84
3663.338	-84
3666.095	-90
3668.849	-86
3671.602	-86
3674.352	-89
3677.101	-97
3679.847	-91
3682.591	-98
3685.333	-93
3688.073	-96
3690.811	-90
3693.547	-99
3696.281	-99
3699.013	-100
3701.742	-97
3704.47	-98
3707.195	-97
3709.919	-104
3712.64	-104
3715.359	-105
3718.076	-104
3720.792	-104
3723.505	-107
3726.216	-103
3728.925	-111
3731.632	-103
3734.336	-114
3737.039	-104
3739.74	-109
3742.439	-116
3745.136	-104
3747.83	-113
3750.523	-113
3753.213	-117
3755.902	-107
3758.589	-113
3761.273	-106
3763.956	-104
3766.636	-113
3769.315	-107
3771.991	-109
3774.665	-117
3777.338	-106
3780.008	-110
3782.677	-110
3785.343	-109
3788.007	-110
3790.67	-112
3793.33	-113
3795.989	-116
3798.645	-108
3801.299	-106
3803.952	-112
3806.602	-102
3809.251	-116
3811.897	-116
3814.542	-118
3817.184	-111
3819.825	-105
3822.463	-110
3825.1	-108
3827.735	-112
3830.367	-112
3832.998	-118
3835.627	-113
3838.253	-115
3840.878	-114
3843.501	-110
3846.122	-113
3848.741	-114
3851.358	-113
3853.973	-120
3856.586	-113
3859.197	-120
3861.806	-113
3864.414	-111
3867.019	-111
3869.622	-114
3872.224	-107
3874.823	-100
3877.421	-98
3880.016	-77
3882.61	-59
3885.202	-58
3887.792	-69
3890.38	-92
3892.966	-110
3895.55	-108
3898.132	-113
3900.713	-116
3903.291	-116
3905.868	-119
3908.442	-112
3911.015	-115
3913.586	-116
3916.155	-119
3918.722	-119
3921.287	-115
3923.85	-118
3926.411	-118
3928.971	-115
3931.528	-117
3934.084	-112
3936.638	-112
3939.19	-115
3941.74	-122
3944.288	-120
3946.834	-122
3949.378	-117
3951.921	-114
3954.462	-124
3957	-116
3959.537	-116
3962.072	-120
3964.606	-110
3967.137	-115
3969.667	-120
3972.194	-119
3974.72	-114
3977.244	-112
3979.766	-116
3982.286	-113
3984.805	-115
3987.321	-115
3989.836	-108
3992.349	-121
3994.86	-113
3997.369	-117
3999.877	-114
4002.382	-117
4004.886	-115
4007.388	-110
4009.888	-112
4012.386	-119
4014.883	-116
4017.377	-115
4019.87	-115
4022.361	-118
4024.85	-117
4027.338	-111
4029.823	-113
4032.307	-112
4034.789	-119
4037.269	-117
4039.747	-112
4042.224	-109
4044.699	-115
4047.172	-109
4049.643	-109
4052.112	-118
4054.58	-115
4057.046	-116
4059.51	-114
4061.972	-110
4064.432	-114
4066.891	-111
4069.348	-112
4071.803	-117
4074.256	-117
4076.708	-115
4079.158	-116
4081.606	-108
4084.052	-114
4086.497	-110
4088.939	-111
4091.38	-112
4093.819	-116
4096.257	-124
4098.693	-118
4101.127	-124
4103.559	-119
4105.989	-13
4108.418	-21
4110.845	-14
4113.27	-13
4115.694	-11
4118.115	-12
4120.535	-120
4122.954	-120
4125.37	-114
4127.785	-113
4130.198	-112
4132.609	-111
4135.019	-122
4137.427	-122
4139.833	-121
4142.237	-123
